####################################################################################################
# Month: 12Dec                                                                                     #
# Station: PAM                                                                                     #
# Frequency: 345 GHz                                                                               #
# Columns are: year    day     tau     Tb (K)                                                      #
####################################################################################################
2009    1       0.42573618      91.803115
2009    2       0.31680526      73.095295
2009    3       0.32863789      75.323275
2009    4       0.35935979      80.2495625
2009    5       0.29183851      67.5366225
2009    6       0.14041485      38.5378275
2009    7       0.18141814      46.2513325
2009    8       0.37718716      83.01994125
2009    9       0.4555415       96.11238375
2009    10      0.27177289      64.11862125
2009    11      0.2111369       52.562725
2009    12      0.29069914      67.6897925
2009    13      0.122048        34.3369025
2009    14      0.2294185       55.73638
2009    15      0.19999555      50.550875
2009    16      0.2097632       52.13878125
2009    17      0.11217482      32.32425125
2009    18      0.1315764       36.12541625
2009    19      0.29171802      68.3193175
2009    20      0.28736131      67.12885625
2009    21      0.2016038       50.60670375
2009    22      0.19687742      49.86475875
2009    23      0.09432229      28.3263225
2009    24      0.13469816      36.81642
2009    25      0.16730527      44.00791
2009    26      0.27866141      65.71809875
2009    27      0.29250766      68.29357
2009    28      0.24020149      58.32999375
2009    29      0.21894524      54.17489
2009    30      0.10480182      30.87943
2009    31      0.19706911      49.69844875
2010    1       0.1474262       40.01192875
2010    2       0.17776554      46.53452375
2010    3       0.31799456      73.79872875
2010    4       0.22078453      54.21476
2010    5       0.1353764       36.88416
2010    6       0.26564039      63.82440625
2010    7       0.19598261      50.5507175
2010    8       0.13613932      38.12398875
2010    9       0.12294168      35.13411375
2010    10      0.13714443      38.0271275
2010    11      0.13130501      36.60099625
2010    12      0.22456044      55.57195375
2010    13      0.18816211      48.51093125
2010    14      0.14154692      39.02320375
2010    15      0.21321681      53.78310625
2010    16      0.2149362       53.518325
2010    17      0.2359709       57.1109
2010    18      0.14978349      40.1667975
2010    19      0.24732924      59.79305
2010    20      0.17235802      45.54856
2010    21      0.19104424      48.81309375
2010    22      0.18956642      48.0361675
2010    23      0.07289214      23.3649325
2010    24      0.07457729      23.86009
2010    25      0.07387625      23.70690375
2010    26      0.13536279      36.90221125
2010    27      0.2040062       51.2822225
2010    28      0.19685584      49.84225
2010    29      0.28805627      67.24256125
2010    30      0.240717        58.31511375
2010    31      0.08416961      26.1371225
2011    1       0.36838915      81.500735
2011    2       0.31164769      72.2156925
2011    3       0.18173045      47.2629625
2011    4       0.23055525      56.73093875
2011    5       0.31146701      71.73216125
2011    6       0.23058615      56.591215
2011    7       0.16290948      43.17022125
2011    8       0.21384461      52.88794625
2011    9       0.12190155      34.54122875
2011    10      0.08347093      26.09781375
2011    11      0.08470127      26.1923675
2011    12      0.19208314      48.45287375
2011    13      0.1039233       30.05973875
2011    14      0.16099345      42.3787375
2011    15      0.16430534      42.9087575
2011    16      0.11461727      32.5834325
2011    17      0.27919491      65.5103175
2011    18      0.2808938       65.87953625
2011    19      0.25427746      60.63514375
2011    20      0.26213549      62.028575
2011    21      0.17121424      44.29208375
2011    22      0.1966564       49.37964125
2011    23      0.13441172      36.842295
2011    24      0.19170953      47.70083625
2011    25      0.28521489      66.88253625
2011    26      0.27149897      64.26533875
2011    27      0.30069715      69.47892875
2011    28      0.26480435      62.6344825
2011    29      0.15662796      41.8488775
2011    30      0.1949181       49.76291625
2011    31      0.2062607       51.65476375
2012    1       0.07979089      25.26800125
2012    2       0.06836845      22.67134625
2012    3       0.10401051      30.86037625
2012    4       0.16407299      43.53177125
2012    5       0.23130679      56.78441625
2012    6       0.33296005      75.98557125
2012    7       0.30612314      71.24161375
2012    8       0.34575247      76.90037875
2012    9       0.08401266      26.12231125
2012    10      0.22850242      55.8321175
2012    11      0.28143144      66.01708
2012    12      0.28701898      66.9554625
2012    13      0.30331924      70.06265625
2012    14      0.26114992      62.27738375
2012    15      0.23053058      56.17045875
2012    16      0.22585688      55.0710775
2012    17      0.3057571       69.880265
2012    18      0.21727686      53.29444375
2012    19      0.16570872      42.9994125
2012    20      0.13892562      38.1089275
2012    21      0.21486584      53.79513
2012    22      0.18077089      47.340645
2012    23      0.34176389      77.284515
2012    24      0.24848404      59.96136375
2012    25      0.22330095      54.6409075
2012    26      0.37250708      82.00852875
2012    27      0.45055425      95.201235
2012    28      0.30662578      70.49848125
2012    29      0.1841098       47.12323625
2012    30      0.05946742      20.5686475
2012    31      0.07191704      23.402055
2013    1       0.24974261      60.85213625
2013    2       0.36884459      81.923795
2013    3       0.2570943       61.86907
2013    4       0.26572729      63.68037
2013    5       0.39475375      86.28430375
2013    6       0.38580451      85.42781875
2013    7       0.42230494      91.5907725
2013    8       0.38309005      84.95239375
2013    9       0.32964424      75.09259125
2013    10      0.27569387      65.52261
2013    11      0.30063111      69.58981625
2013    12      0.20132886      50.68227875
2013    13      0.26804768      63.21760375
2013    14      0.40483948      88.08277125
2013    15      0.47616982      100.62984625
2013    16      0.43795236      93.824935
2013    17      0.20550228      52.58042125
2013    18      0.17879152      46.22319875
2013    19      0.14138834      38.111425
2013    20      0.11090663      31.756015
2013    21      0.18696729      47.28487375
2013    22      0.15717688      41.26732625
2013    23      0.11717079      33.28670625
2013    24      0.17166691      44.3895575
2013    25      0.09689884      28.8144625
2013    26      0.10950233      31.59314625
2013    27      0.19310259      48.63888125
2013    28      0.17196865      44.27630125
2013    29      0.18297794      46.51945
2013    30      0.16240164      42.46737625
2013    31      0.2305035       55.95891
2014    1       0.25990144      62.10482375
2014    2       0.2974739       69.37863
2014    3       0.3016979       69.8136975
2014    4       0.29257071      67.4747075
2014    5       0.13703174      38.02305125
2014    6       0.20121882      50.57550125
2014    7       0.22335733      54.171805
2014    8       0.07184862      23.119695
2014    9       0.08543248      26.24240625
2014    10      0.07773544      24.6142775
2014    11      0.12049832      33.73058
2014    12      0.13069889      36.11202625
2014    13      0.17381659      45.07387
2014    14      0.1666261       43.589025
2014    15      0.08634459      26.5313625
2014    16      0.15149005      40.60185875
2014    17      0.24924598      60.2818925
2014    18      0.23825931      58.40247875
2014    19      0.22226265      54.79416625
2014    20      0.29098121      67.8744725
2014    21      0.34952415      78.0976525
2014    22      0.32457523      73.8560925
2014    23      0.28684254      67.32320375
2014    24      0.24096558      58.2514825
2014    25      0.26878943      63.211465
2014    26      0.13279431      36.75246125
2014    27      0.08265794      26.1077025
2014    28      0.10120323      30.10494625
2014    29      0.1862681       47.69387375
2014    30      0.2496659       59.9621975
2014    31      0.23142404      56.61161125
2015    1       0.26591088      64.3141275
2015    2       0.28737169      67.51378375
2015    3       0.53433809      109.53907
2015    4       0.57023248      114.9061125
2015    5       0.3328036       77.29362125
2015    6       0.34426243      78.55225625
2015    7       0.38125328      84.54035875
2015    8       0.47537044      99.9974725
2015    9       0.39827036      86.95188125
2015    10      0.31989341      72.2493925
2015    11      0.08653905      26.2671
2015    12      0.13214071      36.29902875
2015    13      0.1116772       32.25939875
2015    14      0.07277324      23.59848125
2015    15      0.0716418       23.20795625
2015    16      0.1937496       48.79168375
2015    17      0.22718072      55.34550375
2015    18      0.2196826       53.9500925
2015    19      0.24445811      58.69477125
2015    20      0.17932162      46.07072
2015    21      0.21813438      53.77135625
2015    22      0.20853181      51.60560625
2015    23      0.14258112      38.2173875
2015    24      0.15302095      40.96946375
2015    25      0.32449142      74.0523625
2015    26      0.42829622      91.5177375
2015    27      0.13145605      36.7989525
2015    28      0.12839469      35.95261625
2015    29      0.09394863      28.43609875
2015    30      0.13029782      36.28430625
2015    31      0.21649781      53.98098625
2016    1       0.12072871      34.60073875
2016    2       0.21882698      54.6141925
2016    3       0.65584715      126.5370525
2016    4       0.5091665       104.12801375
2016    5       0.21686906      54.35521875
2016    6       0.45450376      97.262995
2016    7       0.53257999      108.60088875
2016    8       0.41621415      90.677985
2016    9       0.40214876      87.94242875
2016    10      0.4262802       91.461265
2016    11      0.2681183       64.0803575
2016    12      0.2790307       65.93504625
2016    13      0.17962653      46.6417275
2016    14      0.18125608      46.77106625
2016    15      0.25750466      62.5054975
2016    16      0.26764891      63.9900275
2016    17      0.34298209      77.74787625
2016    18      0.34198136      77.135
2016    19      0.31852172      72.906125
2016    20      0.17853411      46.763355
2016    21      0.23289812      57.56044375
2016    22      0.2858974       67.31616875
2016    23      0.28112654      65.9426875
2016    24      0.13978882      38.13545875
2016    25      0.12118217      34.203705
2016    26      0.43957608      93.24608
2016    27      0.51486909      105.15215
2016    28      0.4798132       99.40440875
2016    29      0.40559301      87.0438025
2016    30      0.11480086      32.9177875
2016    31      0.21279259      53.38574375
2017    1       0.29406359      68.479935
2017    2       0.30553619      70.49234125
2017    3       0.23964578      58.2201375
2017    4       0.17697002      46.03016875
2017    5       0.16367759      43.2866525
2017    6       0.1241254       34.66747875
2017    7       0.11660198      32.98697125
2017    8       0.33066059      75.996965
2017    9       0.27303096      64.90512125
2017    10      0.19708824      50.8737375
2017    11      0.38666816      84.62902375
2017    12      0.33978466      76.852645
2017    13      0.24154624      58.2612975
2017    14      0.21814041      53.50162875
2017    15      0.1886006       47.80177
2017    16      0.21891955      54.0016425
2017    17      0.25519429      61.1524975
2017    18      0.26551931      63.5532025
2017    19      0.30049501      70.05963125
2017    20      0.33219706      75.575295
2017    21      0.281664        65.95558375
2017    22      0.19695946      50.0417175
2017    23      0.28974535      67.12082125
2017    24      0.12290422      34.39471125
2017    25      0.48265298      101.05859125
2017    26      0.53594132      108.92386
2017    27      0.12748865      35.23843
2017    28      0.11242775      32.44293
2017    29      0.07675034      24.53569375
2017    30      0.10462874      30.6065875
2017    31      0.16083736      42.3568925
2018    1       0.21318581      53.1347075
2018    2       0.09469489      28.7995325
2018    3       0.11924169      33.60686375
2018    4       0.27375592      65.28277125
2018    5       0.43445192      92.46592875
2018    6       0.22726624      55.94364625
2018    7       0.29887801      69.2646525
2018    8       0.37238745      82.78316
2018    9       0.26494864      63.16062
2018    10      0.36461491      80.69495625
2018    11      0.27207259      64.21496
2018    12      0.18806537      47.9921025
2018    13      0.11861164      33.72438625
2018    14      0.15207106      40.9834875
2018    15      0.17303105      45.2588975
2018    16      0.215402        53.93393
2018    17      0.29047968      67.94104
2018    18      0.38054749      83.80128125
2018    19      0.38641466      84.880385
2018    20      0.21927555      54.081595
2018    21      0.16955539      44.1003075
2018    22      0.2025515       51.2151975
2018    23      0.27312656      64.176125
2018    24      0.21186716      52.638355
2018    25      0.17920359      46.22181375
2018    26      0.22066575      54.0211475
2018    27      0.13487832      36.83733
2018    28      0.17458804      45.42738
2018    29      0.32566592      74.4009525
2018    30      0.28846531      67.39338625
2018    31      0.17938459      46.48366125
