####################################################################################################
# Month: 12Dec                                                                                     #
# Station: PAM                                                                                     #
# Frequency: 345 GHz                                                                               #
# Columns are: year    day     segment         tau     Tb (K)                                      #
####################################################################################################
2009    1       0       0.4999389       103.7046
2009    1       1       0.443429        95.03924
2009    1       2       0.4400679       94.01512
2009    1       3       0.433919        92.95995
2009    1       4       0.3764          83.71739
2009    1       5       0.4047654       88.35802
2009    1       6       0.4072081       88.89236
2009    1       7       0.4001611       87.73824
2009    2       0       0.3893298       85.92144
2009    2       1       0.3398925       77.41485
2009    2       2       0.3092004       71.99793
2009    2       3       0.3681544       82.07436
2009    2       4       0.2926855       68.98084
2009    2       5       0.2608673       63.04521
2009    2       6       0.2640668       63.50223
2009    2       7       0.3102454       71.8255
2009    3       0       0.3406598       77.26857
2009    3       1       0.3007758       70.50819
2009    3       2       0.3079476       71.66284
2009    3       3       0.3219404       74.16401
2009    3       4       0.3547039       79.84029
2009    3       5       0.3540141       79.67723
2009    3       6       0.3434629       77.98736
2009    3       7       0.3055986       71.47771
2009    4       0       0.2912472       68.75269
2009    4       1       0.2922796       68.77034
2009    4       2       0.3534044       79.34331
2009    4       3       0.3823015       84.15084
2009    4       4       0.4142852       89.40144
2009    4       5       0.4133023       89.34089
2009    4       6       0.3813753       84.16678
2009    4       7       0.3466828       78.07021
2009    5       0       0.3266744       74.31508
2009    5       1       0.3163873       72.30817
2009    5       2       0.3279741       74.11059
2009    5       3       0.2726185       63.96905
2009    5       4       0.3093345       70.52227
2009    5       5       0.2893874       66.97707
2009    5       6       0.2600137       61.59788
2009    5       7       0.2323182       56.49287
2009    6       0       0.1858778       47.68197
2009    6       1       0.1473855       40.04474
2009    6       2       0.1380664       38.19142
2009    6       3       0.1454085       39.8659
2009    6       4       0.1551923       41.86021
2009    6       5       0.1362306       37.77373
2009    6       6       0.1132672       32.72087
2009    6       7       0.1018905       30.16378
2009    7       0       0.09242967      27.97089
2009    7       1       0.08177301      25.37764
2009    7       2       0.1184003       33.49347
2009    7       3       0.1887607       47.98631
2009    7       4       0.2364099       57.41749
2009    7       5       0.2340366       57.19792
2009    7       6       0.237891        58.03627
2009    7       7       0.2616439       62.53067
2009    8       0       0.2817958       66.34288
2009    8       1       0.309162        71.35516
2009    8       2       0.3621235       80.51753
2009    8       3       0.4078688       88.21127
2009    8       4       0.3806217       83.91484
2009    8       5       0.4067383       88.25876
2009    8       6       0.4106728       88.91834
2009    8       7       0.4585144       96.64075
2009    9       0       0.458748        96.66702
2009    9       1       0.4478741       95.16984
2009    9       2       0.4915476       101.7894
2009    9       3       0.5013564       103.2527
2009    9       4       0.464114        97.50367
2009    9       5       0.4420797       94.02144
2009    9       6       0.4407135       93.7121
2009    9       7       0.3978987       86.7829
2009    10      0       0.3325692       75.64756
2009    10      1       0.2648642       63.02129
2009    10      2       0.271845        64.29563
2009    10      3       0.2892934       67.46527
2009    10      4       0.2798234       65.79839
2009    10      5       0.298307        68.92313
2009    10      6       0.2287159       55.8666
2009    10      7       0.208765        51.9311
2009    11      0       0.1867812       47.70001
2009    11      1       0.1749309       45.4094
2009    11      2       0.1871359       47.89316
2009    11      3       0.2100146       52.50952
2009    11      4       0.2059243       51.67147
2009    11      5       0.2120533       52.79421
2009    11      6       0.2429209       58.74316
2009    11      7       0.2693341       63.78087
2009    12      0       0.2930764       68.12461
2009    12      1       0.2961717       68.71307
2009    12      2       0.3129707       71.78904
2009    12      3       0.3311558       74.97434
2009    12      4       0.3147157       72.11208
2009    12      5       0.301365        69.8424
2009    12      6       0.2652419       63.23422
2009    12      7       0.2108959       52.72858
2009    13      0       0.1908782       48.64607
2009    13      1       0.145103        39.29762
2009    13      2       0.1398611       38.29949
2009    13      3       0.1320493       36.78754
2009    13      4       0.1179168       33.78299
2009    13      5       0.08379865      26.12446
2009    13      6       0.07846735      24.88749
2009    13      7       0.08830957      26.86956
2009    14      0       0.09910839      29.22753
2009    14      1       0.1357421       37.34288
2009    14      2       0.1766696       45.8517
2009    14      3       0.2292138       56.41797
2009    14      4       0.2829307       66.50793
2009    14      5       0.3210745       73.22408
2009    14      6       0.3103277       71.34077
2009    14      7       0.2802812       65.97818
2009    15      0       0.2479366       59.92023
2009    15      1       0.2144244       53.39658
2009    15      2       0.2042195       51.51977
2009    15      3       0.2076814       52.29765
2009    15      4       0.224996        55.62592
2009    15      5       0.1879239       48.34013
2009    15      6       0.1626214       43.01969
2009    15      7       0.1501612       40.28703
2009    16      0       0.1559004       41.40319
2009    16      1       0.175443        45.39113
2009    16      2       0.2193873       54.26585
2009    16      3       0.2532945       60.76615
2009    16      4       0.2816428       65.96139
2009    16      5       0.2603921       62.02394
2009    16      6       0.2003762       50.66223
2009    16      7       0.1316693       36.63637
2009    17      0       0.107297        31.2442
2009    17      1       0.1107828       32.09501
2009    17      2       0.1183657       33.71859
2009    17      3       0.1250471       35.1816
2009    17      4       0.120183        34.10387
2009    17      5       0.115074        32.95626
2009    17      6       0.1073585       31.20534
2009    17      7       0.09329048      28.08914
2009    18      0       0.0931394       28.02169
2009    18      1       0.0948623       28.30445
2009    18      2       0.09770293      28.93874
2009    18      3       0.1116406       32.22394
2009    18      4       0.1152983       32.99947
2009    18      5       0.1289273       35.71611
2009    18      6       0.1792041       46.06036
2009    18      7       0.2318363       56.73857
2009    19      0       0.2371663       58.09432
2009    19      1       0.2749829       65.3074
2009    19      2       0.2703129       64.58884
2009    19      3       0.2903526       68.10507
2009    19      4       0.3264904       74.73814
2009    19      5       0.3259064       74.63814
2009    19      6       0.3155193       72.71491
2009    19      7       0.2930134       68.36772
2009    20      0       0.2465285       60.09402
2009    20      1       0.2365333       58.05215
2009    20      2       0.2727016       64.64272
2009    20      3       0.3178669       72.91632
2009    20      4       0.3804631       83.33722
2009    20      5       0.293289        68.27485
2009    20      6       0.3083375       70.90157
2009    20      7       0.2431706       58.812
2009    21      0       0.1972899       49.84005
2009    21      1       0.2120652       52.47383
2009    21      2       0.2140537       53.01045
2009    21      3       0.2228015       54.76895
2009    21      4       0.2180854       53.7006
2009    21      5       0.2071366       51.74372
2009    21      6       0.1715653       44.79306
2009    21      7       0.1698328       44.52297
2009    22      0       0.1947049       49.37525
2009    22      1       0.1945399       49.31952
2009    22      2       0.1804089       46.59553
2009    22      3       0.1998737       50.57109
2009    22      4       0.2060699       51.75531
2009    22      5       0.1809146       46.76216
2009    22      6       0.1879203       48.13206
2009    22      7       0.2305872       56.40715
2009    23      0       0.1793042       46.65628
2009    23      1       0.09855828      29.57049
2009    23      2       0.07688363      24.53197
2009    23      3       0.08779801      26.97854
2009    23      4       0.08002391      25.20331
2009    23      5       0.07862958      24.85432
2009    23      6       0.07640264      24.35216
2009    23      7       0.07697806      24.46351
2009    24      0       0.08026957      25.18701
2009    24      1       0.08757183      26.70303
2009    24      2       0.09569939      28.41868
2009    24      3       0.1310391       36.04563
2009    24      4       0.1560799       41.22024
2009    24      5       0.171484        44.47991
2009    24      6       0.1716837       44.92996
2009    24      7       0.1837578       47.5469
2009    25      0       0.1880893       48.41553
2009    25      1       0.1689017       44.55904
2009    25      2       0.1258271       35.57634
2009    25      3       0.1334899       37.18315
2009    25      4       0.1354395       37.58155
2009    25      5       0.1403775       38.62605
2009    25      6       0.1740025       45.41634
2009    25      7       0.2723147       64.70528
2009    26      0       0.258653        62.28499
2009    26      1       0.257744        61.90616
2009    26      2       0.2469603       59.74425
2009    26      3       0.2987863       69.17891
2009    26      4       0.2968283       68.93763
2009    26      5       0.2925213       68.29769
2009    26      6       0.282791        66.59668
2009    26      7       0.2950071       68.79848
2009    27      0       0.2981906       69.40264
2009    27      1       0.2901964       67.9555
2009    27      2       0.2829222       66.52872
2009    27      3       0.3166976       72.55398
2009    27      4       0.3051095       70.5679
2009    27      5       0.2917602       68.1879
2009    27      6       0.2800303       66.02765
2009    27      7       0.2751545       65.12427
2009    28      0       0.2630717       62.89074
2009    28      1       0.2365575       57.80172
2009    28      2       0.2257548       55.57262
2009    28      3       0.2579707       61.59006
2009    28      4       0.2538386       60.9469
2009    28      5       0.2462603       59.54235
2009    28      6       0.2244461       55.25336
2009    28      7       0.2137122       53.0422
2009    29      0       0.2193271       54.23619
2009    29      1       0.2370767       57.68259
2009    29      2       0.2279971       55.9079
2009    29      3       0.2627776       62.46222
2009    29      4       0.2543687       61.14003
2009    29      5       0.2247546       55.48193
2009    29      6       0.1732275       45.36515
2009    29      7       0.1520326       41.12311
2009    30      0       0.1283428       36.08963
2009    30      1       0.1047798       30.83902
2009    30      2       0.09708805      28.99508
2009    30      3       0.126994        35.67171
2009    30      4       0.1290199       36.34674
2009    30      5       0.09332495      28.61023
2009    30      6       0.08126929      25.71378
2009    30      7       0.07759573      24.76925
2009    31      0       0.07953856      25.05026
2009    31      1       0.1076564       31.10438
2009    31      2       0.1616388       42.49265
2009    31      3       0.2196116       54.43099
2009    31      4       0.250265        60.45294
2009    31      5       0.257436        62.02249
2009    31      6       0.2571541       62.3612
2009    31      7       0.2432524       59.67268
2010    1       0       0.1553529       41.51673
2010    1       1       0.147672        40.04167
2010    1       2       0.1499247       40.56097
2010    1       3       0.1574622       42.09418
2010    1       4       0.1592124       42.42671
2010    1       5       0.1516047       40.88505
2010    1       6       0.1439743       39.42752
2010    1       7       0.1142064       33.1426
2010    2       0       0.1012955       30.186
2010    2       1       0.1225998       34.52476
2010    2       2       0.1730657       45.32344
2010    2       3       0.206005        52.22596
2010    2       4       0.2252389       56.35117
2010    2       5       0.1924137       50.06079
2010    2       6       0.1874435       49.11364
2010    2       7       0.2140622       54.49043
2010    3       0       0.2618688       63.8281
2010    3       1       0.3227371       75.01499
2010    3       2       0.3102338       72.73219
2010    3       3       0.3715116       83.38134
2010    3       4       0.4053034       88.72255
2010    3       5       0.3364062       77.04827
2010    3       6       0.2679746       64.97716
2010    3       7       0.267921        64.68523
2010    4       0       0.2841397       67.38931
2010    4       1       0.2802186       66.32746
2010    4       2       0.3025213       70.15314
2010    4       3       0.2929295       68.27777
2010    4       4       0.2490452       59.98383
2010    4       5       0.1553386       41.54244
2010    4       6       0.1052407       30.9741
2010    4       7       0.09684262      29.07003
2010    5       0       0.07895466      24.93432
2010    5       1       0.07102279      23.01366
2010    5       2       0.09844798      29.20914
2010    5       3       0.1078237       31.2331
2010    5       4       0.129724        35.90408
2010    5       5       0.1554998       41.284
2010    5       6       0.2062872       51.77801
2010    5       7       0.2352511       57.71697
2010    6       0       0.2533357       61.27023
2010    6       1       0.2723894       64.75285
2010    6       2       0.2779594       65.99048
2010    6       3       0.2773181       65.90993
2010    6       4       0.2697667       64.59206
2010    6       5       0.2692902       64.67278
2010    6       6       0.2650823       64.02743
2010    6       7       0.2399813       59.37949
2010    7       0       0.2067584       52.88208
2010    7       1       0.1782874       47.05057
2010    7       2       0.1703585       45.3733
2010    7       3       0.1756343       46.39702
2010    7       4       0.2118899       53.68797
2010    7       5       0.2193385       55.19
2010    7       6       0.2096614       53.26164
2010    7       7       0.1959325       50.56316
2010    8       0       0.173142        46.0165
2010    8       1       0.1506355       41.36032
2010    8       2       0.1394275       38.93928
2010    8       3       0.1348157       37.79826
2010    8       4       0.1286884       36.45926
2010    8       5       0.1233474       35.33866
2010    8       6       0.1209443       34.8401
2010    8       7       0.1181138       34.23953
2010    9       0       0.1183523       34.26806
2010    9       1       0.1152792       33.52912
2010    9       2       0.1154136       33.51906
2010    9       3       0.1156133       33.50079
2010    9       4       0.1188801       34.2125
2010    9       5       0.1293718       36.48575
2010    9       6       0.1343645       37.59187
2010    9       7       0.1362586       37.96576
2010    10      0       0.1381573       38.30658
2010    10      1       0.1378532       38.23129
2010    10      2       0.1349738       37.60961
2010    10      3       0.1321303       37.02047
2010    10      4       0.1339072       37.37355
2010    10      5       0.1370079       37.958
2010    10      6       0.1402658       38.59565
2010    10      7       0.1428599       39.12187
2010    11      0       0.1433728       39.24126
2010    11      1       0.1313302       36.78639
2010    11      2       0.1117531       32.58128
2010    11      3       0.1019998       30.41805
2010    11      4       0.1099229       32.04068
2010    11      5       0.1287974       36.02489
2010    11      6       0.1510845       40.67949
2010    11      7       0.1721794       45.03593
2010    12      0       0.1849053       47.71241
2010    12      1       0.1897134       48.7182
2010    12      2       0.19368         49.54745
2010    12      3       0.208319        52.50358
2010    12      4       0.2445126       59.50946
2010    12      5       0.2657201       63.51568
2010    12      6       0.2548211       61.54386
2010    12      7       0.254812        61.52499
2010    13      0       0.2319768       57.11973
2010    13      1       0.2001121       50.81571
2010    13      2       0.1899683       48.86159
2010    13      3       0.180899        47.06049
2010    13      4       0.1778753       46.44647
2010    13      5       0.1771888       46.35913
2010    13      6       0.1767296       46.34074
2010    13      7       0.170547        45.08359
2010    14      0       0.1660359       44.05568
2010    14      1       0.1655685       43.86294
2010    14      2       0.1532415       41.39804
2010    14      3       0.1381331       38.41181
2010    14      4       0.1331407       37.40185
2010    14      5       0.1277664       36.28065
2010    14      6       0.1210732       34.80042
2010    14      7       0.1274161       35.97424
2010    15      0       0.1790311       46.69688
2010    15      1       0.2161366       54.32189
2010    15      2       0.2225059       55.66597
2010    15      3       0.2285427       56.99336
2010    15      4       0.2242191       56.17439
2010    15      5       0.204831        52.17317
2010    15      6       0.2056295       52.25645
2010    15      7       0.2248386       55.98274
2010    16      0       0.2466611       59.95701
2010    16      1       0.2407881       58.70192
2010    16      2       0.2386093       58.2017
2010    16      3       0.2252116       55.5904
2010    16      4       0.2152371       53.63856
2010    16      5       0.1891993       48.42098
2010    16      6       0.1756041       45.64126
2010    16      7       0.188179        47.99477
2010    17      0       0.2048261       51.0941
2010    17      1       0.2183973       53.76505
2010    17      2       0.2414446       58.24117
2010    17      3       0.2480641       59.49132
2010    17      4       0.2674425       63.15345
2010    17      5       0.2476891       59.40035
2010    17      6       0.2327741       56.4275
2010    17      7       0.2271294       55.31426
2010    18      0       0.1779258       45.7877
2010    18      1       0.1630817       42.94553
2010    18      2       0.1470113       39.57191
2010    18      3       0.1432147       38.71247
2010    18      4       0.1435874       38.81326
2010    18      5       0.1515452       40.65777
2010    18      6       0.1540935       41.33701
2010    18      7       0.1178083       33.50873
2010    19      0       0.1268058       35.20506
2010    19      1       0.19688         49.61209
2010    19      2       0.2660718       63.29493
2010    19      3       0.293814        68.81002
2010    19      4       0.3182745       73.42876
2010    19      5       0.2611562       62.95366
2010    19      6       0.2634879       63.54182
2010    19      7       0.2521437       61.49806
2010    20      0       0.2083881       52.92908
2010    20      1       0.1962492       50.4938
2010    20      2       0.1827068       47.8746
2010    20      3       0.1815654       47.61452
2010    20      4       0.1752593       46.29212
2010    20      5       0.163317        43.73449
2010    20      6       0.1431251       39.3311
2010    20      7       0.1282533       36.11877
2010    21      0       0.1392783       38.44068
2010    21      1       0.1450721       39.51112
2010    21      2       0.175358        45.8531
2010    21      3       0.1953554       49.73403
2010    21      4       0.2139065       53.30962
2010    21      5       0.2275396       55.99971
2010    21      6       0.2172834       54.10961
2010    21      7       0.2145606       53.54688
2010    22      0       0.2255009       55.46859
2010    22      1       0.2220557       54.7138
2010    22      2       0.2238132       54.83278
2010    22      3       0.2238739       54.81595
2010    22      4       0.1961609       49.42414
2010    22      5       0.1682352       43.81642
2010    22      6       0.1395853       37.9587
2010    22      7       0.1173063       33.25896
2010    23      0       0.08934452      27.20153
2010    23      1       0.07255426      23.3762
2010    23      2       0.06490463      21.55762
2010    23      3       0.06073478      20.57113
2010    23      4       0.06530184      21.59255
2010    23      5       0.07196311      23.12175
2010    23      6       0.0780584       24.49125
2010    23      7       0.08027559      25.00743
2010    24      0       0.08002899      24.97593
2010    24      1       0.08065071      25.13857
2010    24      2       0.07834374      24.67292
2010    24      3       0.07424639      23.80973
2010    24      4       0.07209763      23.35172
2010    24      5       0.07120743      23.15155
2010    24      6       0.07061475      23.02089
2010    24      7       0.06942869      22.75941
2010    25      0       0.06964848      22.80261
2010    25      1       0.07248379      23.44152
2010    25      2       0.07353403      23.68677
2010    25      3       0.07271911      23.49258
2010    25      4       0.07350982      23.66317
2010    25      5       0.07381734      23.7133
2010    25      6       0.07609932      24.14125
2010    25      7       0.07919814      24.71403
2010    26      0       0.08148447      25.15699
2010    26      1       0.08795026      26.57329
2010    26      2       0.1058336       30.54277
2010    26      3       0.1355014       37.01819
2010    26      4       0.1521489       40.62139
2010    26      5       0.161948        42.72925
2010    26      6       0.1718585       44.82355
2010    26      7       0.1861772       47.75226
2010    27      0       0.1978742       50.00633
2010    27      1       0.1965892       49.71717
2010    27      2       0.2007863       50.6295
2010    27      3       0.2081698       52.02205
2010    27      4       0.2161102       53.57191
2010    27      5       0.2120411       52.90441
2010    27      6       0.2023238       51.11077
2010    27      7       0.198155        50.29564
2010    28      0       0.1970642       49.9786
2010    28      1       0.1949018       49.4488
2010    28      2       0.1970325       49.88565
2010    28      3       0.1975194       49.99566
2010    28      4       0.2069643       51.86545
2010    28      5       0.2076202       52.02198
2010    28      6       0.18815         48.10998
2010    28      7       0.1855943       47.43188
2010    29      0       0.2078261       51.90188
2010    29      1       0.237835        57.76897
2010    29      2       0.2988717       69.22444
2010    29      3       0.2929585       68.26638
2010    29      4       0.2974178       69.13047
2010    29      5       0.3217373       73.57294
2010    29      6       0.3346786       75.89807
2010    29      7       0.3131252       72.17734
2010    30      0       0.294455        68.8455
2010    30      1       0.2939361       68.66254
2010    30      2       0.2458581       59.52567
2010    30      3       0.2575538       61.57551
2010    30      4       0.2436549       58.92123
2010    30      5       0.2288974       56.04657
2010    30      6       0.2001454       50.42662
2010    30      7       0.1612353       42.51727
2010    31      0       0.1245918       35.10912
2010    31      1       0.09507026      28.8216
2010    31      2       0.0793234       25.114
2010    31      3       0.07256961      23.43738
2010    31      4       0.07343886      23.63121
2010    31      5       0.07699764      24.49535
2010    31      6       0.08017875      25.25649
2010    31      7       0.07118655      23.23183
2011    1       0       0.211345        54.19846
2011    1       1       0.2422748       59.85187
2011    1       2       0.4429955       94.9671
2011    1       3       0.5660821       113.8848
2011    1       4       0.6021204       119.0923
2011    1       5       0.3832314       86.13331
2011    1       6       0.2596764       63.97798
2011    1       7       0.2393876       59.90006
2011    2       0       0.2775845       67.0092
2011    2       1       0.3198461       74.6444
2011    2       2       0.3342322       76.87748
2011    2       3       0.4319703       92.60427
2011    2       4       0.3903316       86.01532
2011    2       5       0.2895936       68.2565
2011    2       6       0.2071434       52.60685
2011    2       7       0.2424798       59.71152
2011    3       0       0.2257349       56.54648
2011    3       1       0.1979063       51.00183
2011    3       2       0.2347112       58.17713
2011    3       3       0.2730601       65.23422
2011    3       4       0.1800957       47.43059
2011    3       5       0.1389748       38.75994
2011    3       6       0.1043473       31.08354
2011    3       7       0.09901331      29.86997
2011    4       0       0.1238551       35.33569
2011    4       1       0.1654173       44.08352
2011    4       2       0.1806101       47.29384
2011    4       3       0.2361403       58.19007
2011    4       4       0.2811649       66.78001
2011    4       5       0.2834492       67.05424
2011    4       6       0.2898001       68.16855
2011    4       7       0.284005        66.94159
2011    5       0       0.2948127       68.76802
2011    5       1       0.3038247       70.44078
2011    5       2       0.2807329       66.20293
2011    5       3       0.3101622       71.58854
2011    5       4       0.3365042       76.31158
2011    5       5       0.3490728       78.4272
2011    5       6       0.3183518       72.89208
2011    5       7       0.2982748       69.22616
2011    6       0       0.2785494       65.56315
2011    6       1       0.24975         60.15032
2011    6       2       0.2334746       57.09355
2011    6       3       0.2334836       57.28277
2011    6       4       0.2209253       54.9097
2011    6       5       0.2281696       56.25258
2011    6       6       0.2131283       53.31446
2011    6       7       0.1872084       48.16319
2011    7       0       0.1736617       45.31521
2011    7       1       0.1604226       42.60093
2011    7       2       0.1532212       41.18149
2011    7       3       0.1760406       45.87375
2011    7       4       0.1901093       48.76126
2011    7       5       0.1766273       46.04186
2011    7       6       0.141555        38.84537
2011    7       7       0.1316381       36.7419
2011    8       0       0.1247873       35.08996
2011    8       1       0.1243525       34.84347
2011    8       2       0.1631093       43.04193
2011    8       3       0.2498847       60.13856
2011    8       4       0.2942464       68.37356
2011    8       5       0.273401        64.62832
2011    8       6       0.249175        60.15888
2011    8       7       0.2318007       56.82889
2011    9       0       0.1891513       48.60667
2011    9       1       0.1466493       40.00369
2011    9       2       0.1203656       34.40377
2011    9       3       0.1146161       33.18229
2011    9       4       0.1137968       32.97532
2011    9       5       0.1078142       31.52615
2011    9       6       0.09689564      29.04107
2011    9       7       0.08592343      26.59087
2011    10      0       0.08160626      25.6256
2011    10      1       0.07766183      24.70465
2011    10      2       0.08131158      25.56849
2011    10      3       0.07950018      25.20923
2011    10      4       0.1049924       30.90388
2011    10      5       0.09182755      28.03442
2011    10      6       0.07777113      24.91316
2011    10      7       0.0730965       23.82308
2011    11      0       0.06565083      22.01297
2011    11      1       0.05730876      19.9861
2011    11      2       0.05492638      19.39522
2011    11      3       0.0737953       23.89904
2011    11      4       0.07642612      24.44613
2011    11      5       0.08405706      26.2152
2011    11      6       0.1123353       32.49325
2011    11      7       0.1531104       41.09103
2011    12      0       0.159208        42.17957
2011    12      1       0.1812909       46.62977
2011    12      2       0.2109586       52.56132
2011    12      3       0.248179        59.76204
2011    12      4       0.2424459       58.52717
2011    12      5       0.238036        57.36514
2011    12      6       0.1523858       40.31383
2011    12      7       0.1041609       30.28415
2011    13      0       0.07628441      24.1457
2011    13      1       0.06868034      22.39451
2011    13      2       0.08538046      26.11879
2011    13      3       0.1101804       31.49723
2011    13      4       0.1271709       35.06071
2011    13      5       0.1242142       34.3716
2011    13      6       0.1212072       33.76349
2011    13      7       0.1182685       33.12588
2011    14      0       0.1288094       35.42282
2011    14      1       0.1381724       37.48697
2011    14      2       0.1512573       40.35759
2011    14      3       0.1588053       42.07482
2011    14      4       0.1615018       42.72034
2011    14      5       0.1739873       45.21827
2011    14      6       0.1837114       47.10712
2011    14      7       0.1917027       48.64197
2011    15      0       0.1831482       46.86797
2011    15      1       0.1803786       46.27402
2011    15      2       0.1823618       46.65178
2011    15      3       0.1991112       49.9976
2011    15      4       0.1786772       45.90791
2011    15      5       0.148283        39.63605
2011    15      6       0.1230388       34.35584
2011    15      7       0.1194439       33.57889
2011    16      0       0.1281182       35.52275
2011    16      1       0.1283974       35.58222
2011    16      2       0.1260511       35.05742
2011    16      3       0.1361397       37.2013
2011    16      4       0.1172979       33.33761
2011    16      5       0.09270177      27.94368
2011    16      6       0.08075661      25.09689
2011    16      7       0.1074755       30.92559
2011    17      0       0.1606734       42.23309
2011    17      1       0.2176829       53.87808
2011    17      2       0.2751217       64.98264
2011    17      3       0.310094        71.61636
2011    17      4       0.3150952       72.53685
2011    17      5       0.3261654       74.47929
2011    17      6       0.3234          73.83446
2011    17      7       0.3053267       70.52177
2011    18      0       0.3016014       69.95987
2011    18      1       0.2972185       69.11301
2011    18      2       0.2992297       69.37735
2011    18      3       0.2786212       65.48483
2011    18      4       0.2925402       68.04462
2011    18      5       0.2592927       61.70535
2011    18      6       0.253084        60.49658
2011    18      7       0.2655627       62.85468
2011    19      0       0.2533681       60.55991
2011    19      1       0.2557861       61.02825
2011    19      2       0.2704611       63.78514
2011    19      3       0.2780306       65.20944
2011    19      4       0.2652582       62.68539
2011    19      5       0.2314824       56.2134
2011    19      6       0.2380686       57.44026
2011    19      7       0.2417646       58.15936
2011    20      0       0.2616702       61.9003
2011    20      1       0.2759452       64.49127
2011    20      2       0.2882746       66.79282
2011    20      3       0.2762372       64.66626
2011    20      4       0.2654685       62.75276
2011    20      5       0.2546138       60.72259
2011    20      6       0.2431629       58.53599
2011    20      7       0.2317115       56.36661
2011    21      0       0.2040636       50.92569
2011    21      1       0.1380843       37.45952
2011    21      2       0.1270503       35.25437
2011    21      3       0.1518111       40.50753
2011    21      4       0.1821148       46.61925
2011    21      5       0.1882759       47.85342
2011    21      6       0.1866823       47.40197
2011    21      7       0.1916316       48.31492
2011    22      0       0.1888036       47.75279
2011    22      1       0.1731015       44.55788
2011    22      2       0.1666927       43.23117
2011    22      3       0.1776309       45.50451
2011    22      4       0.20292         50.67501
2011    22      5       0.2178497       53.72174
2011    22      6       0.2291043       55.91439
2011    22      7       0.2171485       53.67964
2011    23      0       0.1858595       47.496
2011    23      1       0.1580941       41.84752
2011    23      2       0.1424483       38.52794
2011    23      3       0.1351084       36.98087
2011    23      4       0.1315461       36.23792
2011    23      5       0.1235436       34.63729
2011    23      6       0.1106146       31.97687
2011    23      7       0.08807918      27.03395
2011    24      0       0.06986512      22.75757
2011    24      1       0.07433039      23.59964
2011    24      2       0.0915569       27.33468
2011    24      3       0.1424695       38.40533
2011    24      4       0.2729457       64.17625
2011    24      5       0.3008887       69.53557
2011    24      6       0.3001826       69.60365
2011    24      7       0.2814373       66.194
2011    25      0       0.2518843       60.63916
2011    25      1       0.2578332       61.81435
2011    25      2       0.2700928       64.17896
2011    25      3       0.3087065       71.17565
2011    25      4       0.3046792       70.53978
2011    25      5       0.2850733       66.92389
2011    25      6       0.3045017       70.37857
2011    25      7       0.2989481       69.40993
2011    26      0       0.2685572       63.87141
2011    26      1       0.2827162       66.32793
2011    26      2       0.274692        64.83959
2011    26      3       0.2324635       56.97393
2011    26      4       0.2591466       61.95508
2011    26      5       0.2643703       63.01918
2011    26      6       0.2829516       66.37674
2011    26      7       0.3070944       70.75885
2011    27      0       0.3131694       71.81049
2011    27      1       0.3118708       71.52199
2011    27      2       0.3040798       70.08727
2011    27      3       0.297823        68.91174
2011    27      4       0.291945        67.92412
2011    27      5       0.3296965       74.65531
2011    27      6       0.2963023       68.75107
2011    27      7       0.2606904       62.16944
2011    28      0       0.2557948       61.23234
2011    28      1       0.264329        62.73928
2011    28      2       0.2890201       67.12375
2011    28      3       0.2939224       68.06362
2011    28      4       0.2791709       65.40506
2011    28      5       0.2749281       64.52268
2011    28      6       0.2432429       58.44622
2011    28      7       0.2180266       53.54291
2011    29      0       0.164981        43.17919
2011    29      1       0.1154987       33.03807
2011    29      2       0.1289424       35.90967
2011    29      3       0.1747111       45.5016
2011    29      4       0.1908271       48.83635
2011    29      5       0.1614157       43.0215
2011    29      6       0.1568634       42.33442
2011    29      7       0.1597843       42.97022
2011    30      0       0.1670708       44.41745
2011    30      1       0.186455        48.25508
2011    30      2       0.188788        48.64999
2011    30      3       0.198875        50.54199
2011    30      4       0.1965612       50.04089
2011    30      5       0.1986659       50.44854
2011    30      6       0.2087116       52.37276
2011    30      7       0.2142173       53.37663
2011    31      0       0.2171561       53.79269
2011    31      1       0.2026885       50.85428
2011    31      2       0.1981962       49.89036
2011    31      3       0.2122577       52.70078
2011    31      4       0.2036653       51.06747
2011    31      5       0.1942946       49.26226
2011    31      6       0.2111259       52.77057
2011    31      7       0.2107013       52.8997
2012    1       0       0.07693061      24.67962
2012    1       1       0.07017626      22.98535
2012    1       2       0.07665384      24.57777
2012    1       3       0.08198965      25.80628
2012    1       4       0.08076427      25.51161
2012    1       5       0.08166178      25.69272
2012    1       6       0.08506316      26.42238
2012    1       7       0.08508752      26.46828
2012    2       0       0.07984937      25.32994
2012    2       1       0.07434962      24.09042
2012    2       2       0.0628077       21.36308
2012    2       3       0.05764941      20.11473
2012    2       4       0.05961633      20.59299
2012    2       5       0.06368595      21.57465
2012    2       6       0.07006187      23.10797
2012    2       7       0.07892739      25.19699
2012    3       0       0.07814195      24.97987
2012    3       1       0.07524641      24.30784
2012    3       2       0.08061005      25.58269
2012    3       3       0.09559704      28.99201
2012    3       4       0.1126345       32.83736
2012    3       5       0.1269253       36.04396
2012    3       6       0.1323476       37.26281
2012    3       7       0.1305812       36.87647
2012    4       0       0.1062108       31.49251
2012    4       1       0.116604        33.63032
2012    4       2       0.1446893       39.62453
2012    4       3       0.1721521       45.19849
2012    4       4       0.1954362       49.85736
2012    4       5       0.2003943       50.92622
2012    4       6       0.1935393       49.65894
2012    4       7       0.1835579       47.8658
2012    5       0       0.1810118       47.39582
2012    5       1       0.1919782       49.44734
2012    5       2       0.181155        47.16268
2012    5       3       0.1868859       48.12304
2012    5       4       0.2129216       53.20117
2012    5       5       0.2529395       61.06927
2012    5       6       0.3138042       72.42104
2012    5       7       0.3297581       75.45497
2012    6       0       0.3265862       74.93553
2012    6       1       0.313608        72.65299
2012    6       2       0.3281972       75.20099
2012    6       3       0.3517804       78.96984
2012    6       4       0.362705        80.7903
2012    6       5       0.3383856       76.91766
2012    6       6       0.3354003       76.5661
2012    6       7       0.3070177       71.85116
2012    7       0       0.2336361       58.35604
2012    7       1       0.2195001       55.27194
2012    7       2       0.2382567       58.7451
2012    7       3       0.2976976       69.72999
2012    7       4       0.3547747       79.96561
2012    7       5       0.3653517       82.00929
2012    7       6       0.3673923       82.46634
2012    7       7       0.3723759       83.3886
2012    8       0       0.3891916       86.03861
2012    8       1       0.4149299       90.10396
2012    8       2       0.4408654       94.0908
2012    8       3       0.4471676       94.79235
2012    8       4       0.4369721       93.20206
2012    8       5       0.3634409       81.4388
2012    8       6       0.1872802       48.71816
2012    8       7       0.08617207      26.81829
2012    9       0       0.06832199      22.57317
2012    9       1       0.07979456      25.26673
2012    9       2       0.09124148      27.87023
2012    9       3       0.09426537      28.49406
2012    9       4       0.08684917      26.85932
2012    9       5       0.07551507      24.24345
2012    9       6       0.07535044      24.08037
2012    9       7       0.1007632       29.59116
2012    10      0       0.1473122       39.55633
2012    10      1       0.1684804       44.02404
2012    10      2       0.1859645       47.5171
2012    10      3       0.2093228       52.34356
2012    10      4       0.2321334       56.88084
2012    10      5       0.2683576       63.84121
2012    10      6       0.299941        69.71983
2012    10      7       0.3165075       72.77403
2012    11      0       0.3175262       72.94966
2012    11      1       0.3206884       73.50502
2012    11      2       0.3156616       72.3091
2012    11      3       0.2761424       65.08272
2012    11      4       0.2777898       65.42823
2012    11      5       0.2746896       64.83797
2012    11      6       0.2410451       58.26095
2012    11      7       0.2279084       55.76299
2012    12      0       0.2410283       58.34169
2012    12      1       0.2698462       63.7266
2012    12      2       0.2932302       68.00537
2012    12      3       0.2873944       67.01544
2012    12      4       0.2868877       67.10167
2012    12      5       0.2884227       67.42131
2012    12      6       0.2869514       67.10845
2012    12      7       0.3423909       76.92317
2012    13      0       0.3311181       74.9069
2012    13      1       0.3184916       72.73635
2012    13      2       0.2982606       69.17282
2012    13      3       0.2941673       68.3758
2012    13      4       0.2971343       68.95341
2012    13      5       0.2893848       67.63877
2012    13      6       0.2987474       69.33908
2012    13      7       0.2992498       69.37812
2012    14      0       0.3038064       70.15212
2012    14      1       0.3055915       70.46842
2012    14      2       0.2797888       65.79831
2012    14      3       0.2332131       57.2691
2012    14      4       0.2233885       55.33112
2012    14      5       0.2229002       55.16189
2012    14      6       0.2619783       62.40271
2012    14      7       0.2585326       61.6354
2012    15      0       0.2377096       57.62251
2012    15      1       0.2162115       53.43356
2012    15      2       0.2188826       53.96897
2012    15      3       0.2122204       52.70069
2012    15      4       0.2339703       56.87169
2012    15      5       0.251617        60.19544
2012    15      6       0.2348305       56.95925
2012    15      7       0.2388027       57.61156
2012    16      0       0.2304105       55.98455
2012    16      1       0.2270292       55.30862
2012    16      2       0.2291738       55.64492
2012    16      3       0.221936        54.22789
2012    16      4       0.2216982       54.23051
2012    16      5       0.2261901       55.14823
2012    16      6       0.238252        57.49612
2012    16      7       0.2121652       52.52778
2012    17      0       0.2106318       52.11474
2012    17      1       0.2232366       54.60667
2012    17      2       0.2592991       61.52882
2012    17      3       0.3275747       73.98049
2012    17      4       0.3136502       71.91826
2012    17      5       0.3182479       72.85352
2012    17      6       0.3969414       86.10946
2012    17      7       0.3964751       85.93016
2012    18      0       0.3371752       75.91917
2012    18      1       0.2697376       63.83638
2012    18      2       0.2551539       60.89786
2012    18      3       0.2184499       53.8588
2012    18      4       0.1826198       46.7812
2012    18      5       0.1577753       41.67449
2012    18      6       0.1666064       43.29731
2012    18      7       0.1506968       40.09034
2012    19      0       0.1495607       39.76694
2012    19      1       0.17519         44.74699
2012    19      2       0.1928776       48.34107
2012    19      3       0.2033185       50.53443
2012    19      4       0.2001355       49.98178
2012    19      5       0.1641733       42.85326
2012    19      6       0.1348073       36.93631
2012    19      7       0.1056069       30.83452
2012    20      0       0.1033867       30.34296
2012    20      1       0.1088587       31.46162
2012    20      2       0.1236331       34.80594
2012    20      3       0.147873        39.93593
2012    20      4       0.1571472       41.98876
2012    20      5       0.1630199       43.32482
2012    20      6       0.1589158       42.57135
2012    20      7       0.1485706       40.44004
2012    21      0       0.1398136       38.38002
2012    21      1       0.1613344       42.79228
2012    21      2       0.2005173       50.89818
2012    21      3       0.2992282       69.61951
2012    21      4       0.2931277       69.04476
2012    21      5       0.2385912       59.28508
2012    21      6       0.200499        51.69287
2012    21      7       0.1858153       48.64834
2012    22      0       0.1558289       42.44483
2012    22      1       0.1436307       39.72375
2012    22      2       0.1713741       45.09014
2012    22      3       0.1955703       50.26684
2012    22      4       0.1797055       47.29138
2012    22      5       0.1975549       50.74464
2012    22      6       0.1999179       51.31788
2012    22      7       0.2025848       51.8457
2012    23      0       0.2454629       60.2157
2012    23      1       0.2880893       68.03097
2012    23      2       0.3400124       77.32156
2012    23      3       0.4230843       91.21629
2012    23      4       0.3905579       85.9815
2012    23      5       0.2952929       69.38469
2012    23      6       0.3449981       78.16494
2012    23      7       0.4066133       87.96047
2012    24      0       0.3342413       75.88478
2012    24      1       0.2860554       67.24929
2012    24      2       0.2731552       64.6915
2012    24      3       0.2695508       63.88706
2012    24      4       0.2535203       60.92739
2012    24      5       0.2092495       52.69632
2012    24      6       0.1940448       49.72547
2012    24      7       0.168055        44.6291
2012    25      0       0.1261784       35.58808
2012    25      1       0.113001        32.23874
2012    25      2       0.1743216       45.05823
2012    25      3       0.1993048       50.37544
2012    25      4       0.2542107       61.17855
2012    25      5       0.2967994       69.22137
2012    25      6       0.3161485       72.6062
2012    25      7       0.3064432       70.86065
2012    26      0       0.266288        63.31259
2012    26      1       0.2619895       62.32943
2012    26      2       0.304725        70.31241
2012    26      3       0.3902482       85.30903
2012    26      4       0.4215484       90.70287
2012    26      5       0.4264854       91.64747
2012    26      6       0.4534888       96.06719
2012    26      7       0.4552833       96.38724
2012    27      0       0.4700173       98.85193
2012    27      1       0.5258652       106.949
2012    27      2       0.4927491       101.9355
2012    27      3       0.4575448       96.68836
2012    27      4       0.4391045       93.45842
2012    27      5       0.4140889       89.42373
2012    27      6       0.4340534       92.29554
2012    27      7       0.3710108       82.0074
2012    28      0       0.3402661       76.66371
2012    28      1       0.3111499       71.53768
2012    28      2       0.3086263       71.03786
2012    28      3       0.3369735       75.88698
2012    28      4       0.3300956       74.61635
2012    28      5       0.286538        66.78152
2012    28      6       0.2690947       63.62399
2012    28      7       0.2702621       63.83976
2012    29      0       0.2577491       61.54784
2012    29      1       0.2487243       59.87122
2012    29      2       0.2279239       56.00714
2012    29      3       0.2108825       52.77692
2012    29      4       0.1927432       49.32157
2012    29      5       0.1491944       40.58284
2012    29      6       0.1034079       30.82009
2012    29      7       0.08225307      26.05827
2012    30      0       0.06719357      22.52614
2012    30      1       0.05548953      19.69046
2012    30      2       0.0570118       20.04767
2012    30      3       0.06040422      20.81888
2012    30      4       0.06141514      20.98282
2012    30      5       0.05906844      20.41875
2012    30      6       0.05693491      19.89511
2012    30      7       0.05822179      20.16935
2012    31      0       0.06362557      21.34731
2012    31      1       0.06562957      21.77907
2012    31      2       0.05707249      19.82416
2012    31      3       0.06727663      22.43663
2012    31      4       0.06658573      22.31207
2012    31      5       0.06617132      22.18234
2012    31      6       0.08842554      27.32135
2012    31      7       0.1005495       30.01351
2013    1       0       0.2169383       54.6985
2013    1       1       0.2173386       54.84365
2013    1       2       0.2044164       52.43136
2013    1       3       0.2167714       54.70562
2013    1       4       0.2777649       66.22829
2013    1       5       0.2640503       63.82653
2013    1       6       0.2611782       62.96042
2013    1       7       0.3394828       77.12272
2013    2       0       0.4000369       87.46291
2013    2       1       0.3865809       85.12263
2013    2       2       0.4217982       90.53712
2013    2       3       0.4300218       91.9238
2013    2       4       0.4044467       87.85942
2013    2       5       0.3441257       78.08448
2013    2       6       0.295938        69.81598
2013    2       7       0.2678085       64.58402
2013    3       0       0.2525829       61.37294
2013    3       1       0.2632761       62.92934
2013    3       2       0.3205205       73.34012
2013    3       3       0.3157761       72.48578
2013    3       4       0.2716933       64.75578
2013    3       5       0.2488367       60.69066
2013    3       6       0.2142123       54.20625
2013    3       7       0.1698565       45.17169
2013    4       0       0.2036866       51.83811
2013    4       1       0.2551687       61.46229
2013    4       2       0.2966096       69.27733
2013    4       3       0.2827701       66.89736
2013    4       4       0.3093459       71.72129
2013    4       5       0.2703877       65.01048
2013    4       6       0.2210993       55.47207
2013    4       7       0.2867504       67.76403
2013    5       0       0.3244032       74.42121
2013    5       1       0.3091246       71.82703
2013    5       2       0.3431484       77.77917
2013    5       3       0.4430788       94.08711
2013    5       4       0.4265004       91.52324
2013    5       5       0.4300381       92.16552
2013    5       6       0.4461238       94.84894
2013    5       7       0.4356127       93.62221
2013    6       0       0.3720052       83.27851
2013    6       1       0.3268149       75.53999
2013    6       2       0.4020963       88.07548
2013    6       3       0.3755022       83.70492
2013    6       4       0.3984442       87.36511
2013    6       5       0.4151261       90.26981
2013    6       6       0.3983603       87.59175
2013    6       7       0.3980869       87.59698
2013    7       0       0.4040911       88.75344
2013    7       1       0.3777254       84.46945
2013    7       2       0.4748038       99.83268
2013    7       3       0.4405196       94.59047
2013    7       4       0.4644374       98.29968
2013    7       5       0.4736925       99.83629
2013    7       6       0.3939514       87.39234
2013    7       7       0.3492183       79.55183
2013    8       0       0.3302234       76.01966
2013    8       1       0.3641299       81.90181
2013    8       2       0.3746286       83.74232
2013    8       3       0.4234398       91.67245
2013    8       4       0.4039095       88.57844
2013    8       5       0.3992732       87.65944
2013    8       6       0.3631354       81.48447
2013    8       7       0.4059806       88.56056
2013    9       0       0.3979808       87.1792
2013    9       1       0.3947297       86.54562
2013    9       2       0.4041391       88.00626
2013    9       3       0.3737616       82.86124
2013    9       4       0.3269869       74.94392
2013    9       5       0.2586231       62.7146
2013    9       6       0.2461447       60.40095
2013    9       7       0.234788        58.08894
2013    10      0       0.228858        56.81774
2013    10      1       0.2313957       57.25743
2013    10      2       0.3015425       69.9194
2013    10      3       0.2618743       63.01158
2013    10      4       0.2726092       65.00472
2013    10      5       0.2694097       64.50699
2013    10      6       0.318741        73.52756
2013    10      7       0.3211206       74.13546
2013    11      0       0.294848        69.40364
2013    11      1       0.3605547       80.64126
2013    11      2       0.3899022       85.1848
2013    11      3       0.3667985       81.33713
2013    11      4       0.2904574       68.16673
2013    11      5       0.2560459       61.56381
2013    11      6       0.2211931       54.8112
2013    11      7       0.2252491       55.60996
2013    12      0       0.2108659       52.74864
2013    12      1       0.2070134       51.95343
2013    12      2       0.2300754       56.26068
2013    12      3       0.2395011       58.10219
2013    12      4       0.2411241       58.54857
2013    12      5       0.2019825       51.1541
2013    12      6       0.151398        40.92804
2013    12      7       0.1286705       35.76258
2013    13      0       0.1281738       35.2479
2013    13      1       0.1882504       47.82079
2013    13      2       0.233401        56.91214
2013    13      3       0.2879529       67.24273
2013    13      4       0.3445019       77.53057
2013    13      5       0.3241793       74.18571
2013    13      6       0.3343458       76.00501
2013    13      7       0.3035763       70.79598
2013    14      0       0.2670303       64.29107
2013    14      1       0.265476        64.03358
2013    14      2       0.2893875       68.39603
2013    14      3       0.3948064       86.69667
2013    14      4       0.5321882       108.3444
2013    14      5       0.5286871       108.6795
2013    14      6       0.5007885       105.0366
2013    14      7       0.4603518       99.18432
2013    15      0       0.3892463       87.50496
2013    15      1       0.6604179       126.7152
2013    15      2       0.4773892       101.7078
2013    15      3       0.5352546       109.9141
2013    15      4       0.4928878       103.8056
2013    15      5       0.4729113       100.6085
2013    15      6       0.4066506       90.11218
2013    15      7       0.3746009       84.67043
2013    16      0       0.4241202       92.39322
2013    16      1       0.5069848       104.9162
2013    16      2       0.4558915       97.24997
2013    16      3       0.5343441       108.8625
2013    16      4       0.5044913       104.6506
2013    16      5       0.426853        92.23987
2013    16      6       0.3463376       78.72963
2013    16      7       0.3045964       71.55749
2013    17      0       0.2638136       64.24552
2013    17      1       0.2114342       54.10237
2013    17      2       0.2123627       54.2586
2013    17      3       0.1828099       48.13608
2013    17      4       0.1775436       46.97524
2013    17      5       0.1747646       46.31445
2013    17      6       0.2084149       52.92511
2013    17      7       0.2128747       53.686
2013    18      0       0.1708146       45.07189
2013    18      1       0.1513555       40.84748
2013    18      2       0.1759301       45.86059
2013    18      3       0.1760452       45.90391
2013    18      4       0.1886905       48.25291
2013    18      5       0.197557        49.79609
2013    18      6       0.1941185       48.93386
2013    18      7       0.1758208       45.11886
2013    19      0       0.1751013       44.8841
2013    19      1       0.1946762       48.82768
2013    19      2       0.1883814       47.68812
2013    19      3       0.1687679       43.97204
2013    19      4       0.1243153       34.95575
2013    19      5       0.100046        29.72815
2013    19      6       0.0949212       28.58848
2013    19      7       0.08489745      26.24708
2013    20      0       0.07766145      24.51302
2013    20      1       0.08287071      25.70405
2013    20      2       0.09447876      28.38948
2013    20      3       0.1052803       30.73966
2013    20      4       0.1187421       33.53074
2013    20      5       0.1150973       32.78558
2013    20      6       0.1262512       35.03142
2013    20      7       0.1668712       43.35417
2013    21      0       0.1918519       48.33397
2013    21      1       0.2073541       51.33278
2013    21      2       0.1935285       48.62916
2013    21      3       0.182896        46.48935
2013    21      4       0.1886142       47.61822
2013    21      5       0.1939325       48.65862
2013    21      6       0.1717294       44.2173
2013    21      7       0.1658317       42.99959
2013    22      0       0.1682723       43.47599
2013    22      1       0.1703474       43.87171
2013    22      2       0.1727408       44.29737
2013    22      3       0.1688815       43.57427
2013    22      4       0.1634671       42.54488
2013    22      5       0.1502129       39.9423
2013    22      6       0.1392269       37.74356
2013    22      7       0.1242661       34.68853
2013    23      0       0.1149345       32.7503
2013    23      1       0.1046522       30.55445
2013    23      2       0.1076515       31.21454
2013    23      3       0.1078804       31.2891
2013    23      4       0.1174533       33.37319
2013    23      5       0.1255069       35.11863
2013    23      6       0.1253689       35.09482
2013    23      7       0.1339186       36.89862
2013    24      0       0.1512164       40.45597
2013    24      1       0.1675621       43.60551
2013    24      2       0.1729439       44.62612
2013    24      3       0.1731772       44.65068
2013    24      4       0.1820118       46.36558
2013    24      5       0.18413         46.83714
2013    24      6       0.1840158       46.84538
2013    24      7       0.1582781       41.73008
2013    25      0       0.1213974       34.11623
2013    25      1       0.1066665       30.89607
2013    25      2       0.1004408       29.57474
2013    25      3       0.09049608      27.45839
2013    25      4       0.08780441      26.86031
2013    25      5       0.09104893      27.55416
2013    25      6       0.0876986       26.81617
2013    25      7       0.08963798      27.23963
2013    26      0       0.09523564      28.46377
2013    26      1       0.09914187      29.30195
2013    26      2       0.1052652       30.66164
2013    26      3       0.1068551       31.02439
2013    26      4       0.1090454       31.53294
2013    26      5       0.110762        31.93553
2013    26      6       0.1193205       33.73922
2013    26      7       0.1303929       36.08573
2013    27      0       0.1593309       42.034
2013    27      1       0.1868158       47.44023
2013    27      2       0.1874306       47.5496
2013    27      3       0.2019471       50.43942
2013    27      4       0.2171616       53.31091
2013    27      5       0.2161633       53.10592
2013    27      6       0.1946224       48.93334
2013    27      7       0.181349        46.29763
2013    28      0       0.1773034       45.37125
2013    28      1       0.1660254       42.99364
2013    28      2       0.1627878       42.3767
2013    28      3       0.177955        45.35293
2013    28      4       0.1980031       49.53307
2013    28      5       0.1850325       47.01975
2013    28      6       0.1614407       42.25545
2013    28      7       0.1472013       39.30762
2013    29      0       0.1480246       39.4814
2013    29      1       0.1518145       40.19999
2013    29      2       0.1611424       42.03845
2013    29      3       0.1690401       43.66119
2013    29      4       0.1921812       48.41375
2013    29      5       0.2113391       52.31939
2013    29      6       0.2290459       55.72744
2013    29      7       0.2012357       50.31399
2013    30      0       0.1888889       47.84992
2013    30      1       0.1772114       45.48591
2013    30      2       0.1775526       45.53004
2013    30      3       0.1594924       41.91988
2013    30      4       0.1450476       38.95292
2013    30      5       0.1497807       39.92464
2013    30      6       0.1498566       39.91917
2013    30      7       0.1513829       40.15653
2013    31      0       0.1859372       47.21095
2013    31      1       0.2211631       54.19645
2013    31      2       0.2582402       61.27124
2013    31      3       0.2713104       63.69454
2013    31      4       0.2226828       54.63923
2013    31      5       0.1998772       50.15939
2013    31      6       0.2369687       57.31461
2013    31      7       0.2478484       59.18487
2014    1       0       0.3258487       74.30461
2014    1       1       0.2841206       66.6948
2014    1       2       0.2663035       63.4677
2014    1       3       0.2717813       64.47469
2014    1       4       0.271094        64.28071
2014    1       5       0.2459383       59.61892
2014    1       6       0.1977705       50.18098
2014    1       7       0.2163546       53.81618
2014    2       0       0.3268513       74.17906
2014    2       1       0.3517304       78.91394
2014    2       2       0.3207655       73.74803
2014    2       3       0.300635        70.07203
2014    2       4       0.3012097       70.16854
2014    2       5       0.2883301       67.96187
2014    2       6       0.2413623       59.37226
2014    2       7       0.2489069       60.61331
2014    3       0       0.2533232       61.2254
2014    3       1       0.250817        60.69504
2014    3       2       0.2657416       63.45559
2014    3       3       0.256564        61.75439
2014    3       4       0.2867354       67.17987
2014    3       5       0.3530124       78.92641
2014    3       6       0.3742193       82.67754
2014    3       7       0.3731703       82.59534
2014    4       0       0.4180853       89.89708
2014    4       1       0.3665928       81.31896
2014    4       2       0.3301246       74.85415
2014    4       3       0.3678377       81.13731
2014    4       4       0.2836366       66.39593
2014    4       5       0.243083        58.87651
2014    4       6       0.200959        50.86403
2014    4       7       0.1302467       36.45369
2014    5       0       0.1202829       34.37301
2014    5       1       0.1066244       31.45797
2014    5       2       0.1338607       37.44355
2014    5       3       0.1539133       41.61019
2014    5       4       0.1574497       42.32514
2014    5       5       0.1454685       39.79834
2014    5       6       0.1415553       39.03951
2014    5       7       0.1370991       38.1367
2014    6       0       0.1517763       41.15855
2014    6       1       0.145938        40.01062
2014    6       2       0.1286144       36.28946
2014    6       3       0.1372023       38.10325
2014    6       4       0.1780722       46.45034
2014    6       5       0.2316598       56.87332
2014    6       6       0.3031037       70.12029
2014    6       7       0.3333839       75.59818
2014    7       0       0.346335        77.80565
2014    7       1       0.3143713       72.11223
2014    7       2       0.3146678       72.11182
2014    7       3       0.2854235       66.80218
2014    7       4       0.2230323       55.09344
2014    7       5       0.1390811       38.19387
2014    7       6       0.09365641      28.31005
2014    7       7       0.0702912       22.9452
2014    8       0       0.05303149      18.81349
2014    8       1       0.05213366      18.55121
2014    8       2       0.06552725      21.7297
2014    8       3       0.06949969      22.63825
2014    8       4       0.07397371      23.65377
2014    8       5       0.08187154      25.39641
2014    8       6       0.08866245      26.91
2014    8       7       0.09008915      27.26473
2014    9       0       0.08556433      26.25118
2014    9       1       0.07662211      24.22882
2014    9       2       0.07516612      23.94709
2014    9       3       0.07815658      24.63201
2014    9       4       0.08510962      26.1735
2014    9       5       0.09279303      27.87748
2014    9       6       0.09572092      28.54416
2014    9       7       0.09432709      28.28501
2014    10      0       0.08984706      27.32954
2014    10      1       0.08301253      25.81305
2014    10      2       0.07912984      24.94583
2014    10      3       0.07792414      24.68315
2014    10      4       0.07632569      24.32239
2014    10      5       0.07482054      23.98197
2014    10      6       0.07329929      23.62185
2014    10      7       0.0675244       22.21644
2014    11      0       0.07011171      22.68867
2014    11      1       0.08493324      25.90358
2014    11      2       0.1110441       31.61537
2014    11      3       0.1375878       37.38162
2014    11      4       0.1482599       39.75416
2014    11      5       0.141606        38.44598
2014    11      6       0.1375396       37.52757
2014    11      7       0.1329042       36.52769
2014    12      0       0.1349393       36.95867
2014    12      1       0.1318373       36.36583
2014    12      2       0.1309786       36.18005
2014    12      3       0.1342505       36.79565
2014    12      4       0.1324061       36.44489
2014    12      5       0.1291357       35.8009
2014    12      6       0.1244809       34.8504
2014    12      7       0.1275627       35.49982
2014    13      0       0.136556        37.37069
2014    13      1       0.1468464       39.52477
2014    13      2       0.1701004       44.28626
2014    13      3       0.1825795       46.85328
2014    13      4       0.184787        47.32234
2014    13      5       0.1843435       47.30885
2014    13      6       0.1885401       48.15532
2014    13      7       0.1967798       49.76945
2014    14      0       0.1843353       47.4058
2014    14      1       0.1859358       47.60636
2014    14      2       0.1818092       46.70139
2014    14      3       0.1847352       47.22392
2014    14      4       0.1751821       45.33623
2014    14      5       0.1561007       41.47657
2014    14      6       0.1413245       38.37386
2014    14      7       0.123586        34.58807
2014    15      0       0.1097623       31.61485
2014    15      1       0.09999436      29.51267
2014    15      2       0.095641        28.63871
2014    15      3       0.08600596      26.53057
2014    15      4       0.07744335      24.63959
2014    15      5       0.07399878      23.85379
2014    15      6       0.07375006      23.70926
2014    15      7       0.0741609       23.75146
2014    16      0       0.08007444      25.09425
2014    16      1       0.09096215      27.54217
2014    16      2       0.134602        37.15043
2014    16      3       0.1493484       40.43639
2014    16      4       0.1770297       46.08489
2014    16      5       0.1873603       48.39027
2014    16      6       0.1841454       47.73398
2014    16      7       0.208398        52.38249
2014    17      0       0.2214399       54.98405
2014    17      1       0.2186112       54.52426
2014    17      2       0.2150155       53.81303
2014    17      3       0.2271583       56.09467
2014    17      4       0.2371638       58.08383
2014    17      5       0.249569        60.37232
2014    17      6       0.3071689       71.02215
2014    17      7       0.3178412       73.36083
2014    18      0       0.3066352       71.4441
2014    18      1       0.2550898       61.82783
2014    18      2       0.237966        58.59313
2014    18      3       0.2322882       57.35566
2014    18      4       0.2194128       54.7575
2014    18      5       0.2122484       53.41139
2014    18      6       0.2223269       55.24678
2014    18      7       0.2201072       54.58344
2014    19      0       0.2284176       56.2339
2014    19      1       0.2477058       59.87547
2014    19      2       0.2529524       60.68918
2014    19      3       0.2722677       64.19518
2014    19      4       0.2655771       63.15686
2014    19      5       0.2000331       50.93364
2014    19      6       0.1496194       40.50197
2014    19      7       0.1615281       42.76713
2014    20      0       0.2076795       52.1274
2014    20      1       0.2325652       57.16182
2014    20      2       0.3007508       69.68713
2014    20      3       0.3251408       74.14262
2014    20      4       0.3170776       72.8915
2014    20      5       0.3428008       77.15096
2014    20      6       0.281733        66.63652
2014    20      7       0.320102        73.19783
2014    21      0       0.3429988       77.11582
2014    21      1       0.3255792       73.99834
2014    21      2       0.3287637       74.59508
2014    21      3       0.3995892       86.31973
2014    21      4       0.3803965       83.3817
2014    21      5       0.2917802       68.15493
2014    21      6       0.3509144       78.50957
2014    21      7       0.3761712       82.70605
2014    22      0       0.3379063       76.20525
2014    22      1       0.3129707       71.87782
2014    22      2       0.3293593       74.64804
2014    22      3       0.3694707       81.42123
2014    22      4       0.325106        74.02013
2014    22      5       0.3181826       72.8042
2014    22      6       0.3057453       70.61268
2014    22      7       0.2978609       69.25939
2014    23      0       0.3028349       70.22039
2014    23      1       0.2973257       69.21547
2014    23      2       0.323585        73.87198
2014    23      3       0.2958269       68.86422
2014    23      4       0.2958843       69.03078
2014    23      5       0.2952159       69.02658
2014    23      6       0.2675702       64.01332
2014    23      7       0.2164974       54.34289
2014    24      0       0.1693871       44.99739
2014    24      1       0.1311861       36.64877
2014    24      2       0.1557499       41.64833
2014    24      3       0.2420351       58.97061
2014    24      4       0.299731        69.63787
2014    24      5       0.3142018       72.14582
2014    24      6       0.2984554       69.33371
2014    24      7       0.3169782       72.62936
2014    25      0       0.3221935       73.44436
2014    25      1       0.2763817       65.15456
2014    25      2       0.3130093       71.75047
2014    25      3       0.3502197       78.22485
2014    25      4       0.3170275       72.33388
2014    25      5       0.2302526       56.12522
2014    25      6       0.1796694       46.14241
2014    25      7       0.1615617       42.51597
2014    26      0       0.1512582       40.30324
2014    26      1       0.131104        36.25806
2014    26      2       0.1186805       33.76426
2014    26      3       0.1307898       36.35642
2014    26      4       0.139102        38.11897
2014    26      5       0.1389729       38.12902
2014    26      6       0.1334781       37.05119
2014    26      7       0.118969        34.03853
2014    27      0       0.1042153       30.86184
2014    27      1       0.09375332      28.56943
2014    27      2       0.08207312      25.97318
2014    27      3       0.07637226      24.71461
2014    27      4       0.07471298      24.33028
2014    27      5       0.07409945      24.18444
2014    27      6       0.07514076      24.42408
2014    27      7       0.08089633      25.80376
2014    28      0       0.08120053      25.86511
2014    28      1       0.07977968      25.509
2014    28      2       0.08016101      25.56849
2014    28      3       0.095135        28.94855
2014    28      4       0.100089        30.03551
2014    28      5       0.1011953       30.1548
2014    28      6       0.1238269       34.80141
2014    28      7       0.1482384       39.9567
2014    29      0       0.1546135       41.38992
2014    29      1       0.1666093       43.77799
2014    29      2       0.1660418       43.64701
2014    29      3       0.1746459       45.40827
2014    29      4       0.1857919       47.64987
2014    29      5       0.1986521       50.20253
2014    29      6       0.2133354       53.06474
2014    29      7       0.2304549       56.41066
2014    30      0       0.2445005       59.09818
2014    30      1       0.2438743       58.95179
2014    30      2       0.2310178       56.31453
2014    30      3       0.2434392       58.67229
2014    30      4       0.2647657       62.73543
2014    30      5       0.2690116       63.5588
2014    30      6       0.2547745       60.98787
2014    30      7       0.2459436       59.37869
2014    31      0       0.2426727       58.77031
2014    31      1       0.2279906       55.9599
2014    31      2       0.2190959       54.13427
2014    31      3       0.2424688       58.57555
2014    31      4       0.2654847       62.91711
2014    31      5       0.2460061       59.39861
2014    31      6       0.2123156       53.17143
2014    31      7       0.1953579       49.96571
2015    1       0       0.2867585       68.25485
2015    1       1       0.2864908       68.11212
2015    1       2       0.2535747       61.8888
2015    1       3       0.2521687       61.70564
2015    1       4       0.2728235       65.72301
2015    1       5       0.2761071       66.27326
2015    1       6       0.2640378       63.99438
2015    1       7       0.2353259       58.56096
2015    2       0       0.2274721       57.05388
2015    2       1       0.201619        51.89834
2015    2       2       0.1766032       46.94289
2015    2       3       0.2090087       53.21533
2015    2       4       0.2643175       63.62458
2015    2       5       0.3486582       78.89921
2015    2       6       0.4097721       89.73544
2015    2       7       0.4615227       98.7406
2015    3       0       0.4613272       98.78826
2015    3       1       0.4731032       100.7305
2015    3       2       0.5414456       110.9286
2015    3       3       0.6269914       122.8092
2015    3       4       0.617574        121.4241
2015    3       5       0.5550511       112.4515
2015    3       6       0.5142096       106.5179
2015    3       7       0.4850026       102.6625
2015    4       0       0.5462055       111.9326
2015    4       1       0.5895523       117.5545
2015    4       2       0.5778611       116.2302
2015    4       3       0.6310703       122.7936
2015    4       4       0.5968381       118.3764
2015    4       5       0.5326078       110.2208
2015    4       6       0.48545         102.9822
2015    4       7       0.6022747       119.1586
2015    5       0       0.4489353       97.27091
2015    5       1       0.3568711       82.01019
2015    5       2       0.3747404       84.99582
2015    5       3       0.3324961       77.61848
2015    5       4       0.306779        73.00196
2015    5       5       0.2815821       68.09251
2015    5       6       0.2885382       69.18173
2015    5       7       0.2724866       66.17737
2015    6       0       0.4602549       97.80096
2015    6       1       0.4153356       91.08641
2015    6       2       0.3996852       88.11913
2015    6       3       0.3498713       79.7421
2015    6       4       0.2863233       68.58998
2015    6       5       0.2732907       66.23384
2015    6       6       0.2765943       66.89451
2015    6       7       0.2927441       69.95112
2015    7       0       0.2989376       71.05334
2015    7       1       0.3046506       71.90151
2015    7       2       0.3171215       73.92576
2015    7       3       0.3443402       78.64048
2015    7       4       0.3738068       83.58134
2015    7       5       0.4078747       89.28024
2015    7       6       0.5041447       104.3946
2015    7       7       0.4991501       103.5456
2015    8       0       0.466592        98.69866
2015    8       1       0.4752444       100.1965
2015    8       2       0.4094234       90.04053
2015    8       3       0.4748225       100.069
2015    8       4       0.5080436       105.2208
2015    8       5       0.5589039       112.6019
2015    8       6       0.4970005       103.3198
2015    8       7       0.4129332       89.83259
2015    9       0       0.3586266       80.60461
2015    9       1       0.3528785       79.52233
2015    9       2       0.411342        89.16455
2015    9       3       0.4917714       101.5104
2015    9       4       0.4159883       89.88465
2015    9       5       0.3961088       86.80287
2015    9       6       0.3913867       86.01493
2015    9       7       0.3680606       82.11071
2015    10      0       0.3558882       79.88238
2015    10      1       0.357448        80.11187
2015    10      2       0.4156996       89.47711
2015    10      3       0.4608529       96.44836
2015    10      4       0.3058964       70.13704
2015    10      5       0.2436477       58.41754
2015    10      6       0.2151168       52.83273
2015    10      7       0.2045977       50.68811
2015    11      0       0.1580545       41.45426
2015    11      1       0.104344        30.29223
2015    11      2       0.07453826      23.82091
2015    11      3       0.06690652      22.0723
2015    11      4       0.0569156       19.75724
2015    11      5       0.05727108      19.77722
2015    11      6       0.07463116      23.7189
2015    11      7       0.0996513       29.24374
2015    12      0       0.108285        31.13286
2015    12      1       0.1096973       31.44739
2015    12      2       0.1144351       32.53251
2015    12      3       0.1235821       34.61292
2015    12      4       0.138316        37.70882
2015    12      5       0.1494561       40.00413
2015    12      6       0.1569367       41.52504
2015    12      7       0.1564174       41.42856
2015    13      0       0.1470271       39.52951
2015    13      1       0.1284396       35.76137
2015    13      2       0.1163795       33.27872
2015    13      3       0.1152045       33.06764
2015    13      4       0.1084957       31.70291
2015    13      5       0.1000277       29.89572
2015    13      6       0.09051202      27.78746
2015    13      7       0.08733147      27.05186
2015    14      0       0.0805465       25.44656
2015    14      1       0.0695261       22.83475
2015    14      2       0.07819908      24.85979
2015    14      3       0.07713583      24.60237
2015    14      4       0.07657578      24.45243
2015    14      5       0.0708083       23.13718
2015    14      6       0.0678355       22.46655
2015    14      7       0.06155879      20.98822
2015    15      0       0.05153139      18.56225
2015    15      1       0.04950724      18.05671
2015    15      2       0.05880959      20.23693
2015    15      3       0.07297144      23.55756
2015    15      4       0.08119568      25.49492
2015    15      5       0.08598549      26.5832
2015    15      6       0.08393902      26.05949
2015    15      7       0.08919455      27.11259
2015    16      0       0.1223272       34.16681
2015    16      1       0.1488235       39.81239
2015    16      2       0.1728786       44.78762
2015    16      3       0.1913927       48.57309
2015    16      4       0.2025564       50.78915
2015    16      5       0.2152669       53.23525
2015    16      6       0.2329216       56.5806
2015    16      7       0.2638299       62.38856
2015    17      0       0.2947071       68.0156
2015    17      1       0.280218        65.4468
2015    17      2       0.2791036       65.07384
2015    17      3       0.2298658       56.00131
2015    17      4       0.1989379       50.18555
2015    17      5       0.1876579       47.95829
2015    17      6       0.1779453       45.98172
2015    17      7       0.1690102       44.10092
2015    18      0       0.1699843       44.23293
2015    18      1       0.1654413       43.24914
2015    18      2       0.1820518       46.68098
2015    18      3       0.2173766       53.68435
2015    18      4       0.2649858       62.69092
2015    18      5       0.2567516       61.21382
2015    18      6       0.2491071       59.68424
2015    18      7       0.2517623       60.16436
2015    19      0       0.2430348       58.51741
2015    19      1       0.2450111       58.8579
2015    19      2       0.245426        58.91423
2015    19      3       0.2612273       61.82635
2015    19      4       0.2584178       61.39698
2015    19      5       0.2531636       60.40312
2015    19      6       0.2393466       57.70559
2015    19      7       0.2100377       51.93659
2015    20      0       0.1813452       46.34627
2015    20      1       0.1618985       42.34333
2015    20      2       0.1641884       42.85149
2015    20      3       0.1801147       46.17645
2015    20      4       0.1897585       48.15288
2015    20      5       0.1860078       47.55465
2015    20      6       0.1814047       46.70537
2015    20      7       0.1898552       48.43532
2015    21      0       0.2046621       51.36086
2015    21      1       0.2267573       55.59067
2015    21      2       0.20504         51.40651
2015    21      3       0.1929183       49.00793
2015    21      4       0.2018553       50.5857
2015    21      5       0.2389646       57.64112
2015    21      6       0.2389784       57.67039
2015    21      7       0.235899        56.90767
2015    22      0       0.2163979       53.28838
2015    22      1       0.2150005       52.97762
2015    22      2       0.2068146       51.19884
2015    22      3       0.1966663       49.09298
2015    22      4       0.1976568       49.42848
2015    22      5       0.1975402       49.52354
2015    22      6       0.2178327       53.43
2015    22      7       0.2203455       53.90501
2015    23      0       0.1918143       48.21103
2015    23      1       0.1855942       46.86639
2015    23      2       0.1749721       44.74794
2015    23      3       0.1517721       40.1748
2015    23      4       0.1251685       34.79794
2015    23      5       0.1042771       30.43799
2015    23      6       0.09712157      28.87201
2015    23      7       0.1099291       31.631
2015    24      0       0.1265616       35.33196
2015    24      1       0.1380372       38.04482
2015    24      2       0.1240683       35.07706
2015    24      3       0.1219522       34.71424
2015    24      4       0.1336728       37.23149
2015    24      5       0.1429874       39.06261
2015    24      6       0.1936201       49.27593
2015    24      7       0.243268        59.0176
2015    25      0       0.2795971       65.82276
2015    25      1       0.277644        65.73534
2015    25      2       0.3460417       77.75854
2015    25      3       0.383957        84.28484
2015    25      4       0.324917        74.44736
2015    25      5       0.296961        69.67557
2015    25      6       0.2735288       65.29551
2015    25      7       0.4132848       89.39898
2015    26      0       0.407313        88.5458
2015    26      1       0.3960217       86.71836
2015    26      2       0.4255905       91.72742
2015    26      3       0.4697779       98.31632
2015    26      4       0.504417        103.7146
2015    26      5       0.5070669       104.1551
2015    26      6       0.4445152       94.17788
2015    26      7       0.2716676       64.78642
2015    27      0       0.14479         39.82411
2015    27      1       0.0981158       29.55259
2015    27      2       0.09808618      29.55925
2015    27      3       0.1122262       32.69559
2015    27      4       0.127542        35.99515
2015    27      5       0.1458381       39.86361
2015    27      6       0.1553573       41.9334
2015    27      7       0.1696928       44.96792
2015    28      0       0.1791648       46.86241
2015    28      1       0.1546506       41.66356
2015    28      2       0.1349925       37.44692
2015    28      3       0.141381        38.72456
2015    28      4       0.1271408       35.71792
2015    28      5       0.1115213       32.42124
2015    28      6       0.09642684      29.06595
2015    28      7       0.08187968      25.71837
2015    29      0       0.07112823      23.21038
2015    29      1       0.06867084      22.61639
2015    29      2       0.08284608      25.96648
2015    29      3       0.09952678      29.75738
2015    29      4       0.1028645       30.52992
2015    29      5       0.112518        32.65644
2015    29      6       0.1135888       32.89064
2015    29      7       0.1004458       29.86116
2015    30      0       0.1076711       31.24227
2015    30      1       0.1137519       32.52688
2015    30      2       0.1243004       35.03368
2015    30      3       0.1486588       40.27114
2015    30      4       0.1601668       42.70217
2015    30      5       0.1469894       39.97856
2015    30      6       0.1222093       34.74095
2015    30      7       0.1186349       33.7788
2015    31      0       0.1485123       40.19414
2015    31      1       0.1530953       41.23554
2015    31      2       0.1842872       47.49929
2015    31      3       0.2379982       58.35458
2015    31      4       0.2601234       62.81802
2015    31      5       0.2345112       57.83158
2015    31      6       0.2545033       61.64575
2015    31      7       0.2589516       62.26899
2016    1       0       0.1243529       35.59263
2016    1       1       0.1034422       30.8458
2016    1       2       0.1196891       34.49796
2016    1       3       0.130421        36.80514
2016    1       4       0.1157146       33.62665
2016    1       5       0.1087937       31.90086
2016    1       6       0.1325783       36.85455
2016    1       7       0.1308379       36.68232
2016    2       0       0.1441392       39.53255
2016    2       1       0.1292257       36.51274
2016    2       2       0.1461646       39.89846
2016    2       3       0.2112128       53.29849
2016    2       4       0.2570097       62.16055
2016    2       5       0.2486309       60.93881
2016    2       6       0.2832688       67.85372
2016    2       7       0.3309641       76.71822
2016    3       0       0.4387906       95.20352
2016    3       1       0.5384547       111.4138
2016    3       2       0.6694979       129.1568
2016    3       3       0.5914258       119.1684
2016    3       4       0.6195676       123.2562
2016    3       5       0.6669272       129.9319
2016    3       6       0.8865946       154.8091
2016    3       7       0.8355188       149.3567
2016    4       0       0.6607154       128.3546
2016    4       1       0.5609545       114.3328
2016    4       2       0.7765617       141.6636
2016    4       3       0.6711536       129.031
2016    4       4       0.5053983       105.5877
2016    4       5       0.3705138       84.01644
2016    4       6       0.2757766       67.20501
2016    4       7       0.2522581       62.83296
2016    5       0       0.1396132       39.05443
2016    5       1       0.101267        30.28217
2016    5       2       0.1845624       48.47659
2016    5       3       0.3145325       73.18409
2016    5       4       0.2550581       62.74166
2016    5       5       0.1788424       47.27623
2016    5       6       0.2523215       61.3074
2016    5       7       0.3087554       72.51918
2016    6       0       0.3722296       83.52063
2016    6       1       0.3821233       85.70633
2016    6       2       0.3683829       83.5379
2016    6       3       0.49539         103.7475
2016    6       4       0.4806107       101.4905
2016    6       5       0.5257092       108.3652
2016    6       6       0.5325224       109.7393
2016    6       7       0.479062        101.9966
2016    7       0       0.6669138       127.8967
2016    7       1       0.5628001       113.8198
2016    7       2       0.6071952       119.7097
2016    7       3       0.6584853       125.9946
2016    7       4       0.4985755       104.2754
2016    7       5       0.4324693       94.19659
2016    7       6       0.4277301       93.29649
2016    7       7       0.4064706       89.61783
2016    8       0       0.3839063       85.60813
2016    8       1       0.3864451       85.79193
2016    8       2       0.4195091       91.16091
2016    8       3       0.4143421       90.31509
2016    8       4       0.425791        92.17675
2016    8       5       0.459413        97.52435
2016    8       6       0.4430143       95.09839
2016    8       7       0.3972923       87.74833
2016    9       0       0.338466        77.78378
2016    9       1       0.3773184       83.92102
2016    9       2       0.4332683       92.88422
2016    9       3       0.4384916       93.67384
2016    9       4       0.4161372       90.22913
2016    9       5       0.4315316       92.6957
2016    9       6       0.3874164       85.67345
2016    9       7       0.3945606       86.67829
2016    10      0       0.4054491       88.23318
2016    10      1       0.3815827       84.18865
2016    10      2       0.4018117       87.55014
2016    10      3       0.3822033       84.53659
2016    10      4       0.4696687       98.44867
2016    10      5       0.4865659       101.0259
2016    10      6       0.4523452       95.67116
2016    10      7       0.430615        92.03583
2016    11      0       0.354851        79.53507
2016    11      1       0.307529        71.21849
2016    11      2       0.2616976       63.0853
2016    11      3       0.2375793       58.54204
2016    11      4       0.2441655       59.78009
2016    11      5       0.2617413       63.07506
2016    11      6       0.2504916       60.96914
2016    11      7       0.2268911       56.43767
2016    12      0       0.2374899       58.39788
2016    12      1       0.2576448       62.12939
2016    12      2       0.2986281       69.57019
2016    12      3       0.2894886       67.78413
2016    12      4       0.2805923       66.31956
2016    12      5       0.2911808       68.11383
2016    12      6       0.2852468       66.99205
2016    12      7       0.2919743       68.17334
2016    13      0       0.2657003       63.44516
2016    13      1       0.2423888       59.18481
2016    13      2       0.2296605       56.81486
2016    13      3       0.2040967       52.03289
2016    13      4       0.1599594       43.3004
2016    13      5       0.135782        38.17711
2016    13      6       0.1079329       31.99419
2016    13      7       0.09149166      28.1844
2016    14      0       0.08789519      27.14639
2016    14      1       0.09898662      29.59982
2016    14      2       0.1298734       36.42255
2016    14      3       0.2019759       51.34645
2016    14      4       0.2135751       53.72017
2016    14      5       0.214604        53.77475
2016    14      6       0.2363529       58.16365
2016    14      7       0.2667855       63.99475
2016    15      0       0.3066103       71.34999
2016    15      1       0.3348345       76.42776
2016    15      2       0.3040768       71.16794
2016    15      3       0.2683686       64.88142
2016    15      4       0.2402334       59.62374
2016    15      5       0.2123371       54.22964
2016    15      6       0.1950086       50.81542
2016    15      7       0.198568        51.54807
2016    16      0       0.1949105       50.80179
2016    16      1       0.1681032       45.18648
2016    16      2       0.1570472       42.80315
2016    16      3       0.2300108       57.50905
2016    16      4       0.299335        70.38925
2016    16      5       0.3594517       81.01823
2016    16      6       0.3736554       83.54466
2016    16      7       0.3586775       80.66761
2016    17      0       0.3902061       85.95507
2016    17      1       0.3106055       72.23896
2016    17      2       0.3209828       73.84769
2016    17      3       0.3387414       76.84304
2016    17      4       0.3605806       80.8422
2016    17      5       0.3382255       76.99766
2016    17      6       0.330172        75.52048
2016    17      7       0.3543428       79.73791
2016    18      0       0.3365593       76.58265
2016    18      1       0.2890096       67.91878
2016    18      2       0.2874042       67.44378
2016    18      3       0.2916975       68.16855
2016    18      4       0.340783        77.028
2016    18      5       0.3811117       84.15368
2016    18      6       0.4254805       91.20654
2016    18      7       0.3838051       84.57802
2016    19      0       0.3958399       86.50007
2016    19      1       0.3933698       85.97723
2016    19      2       0.334382        75.82392
2016    19      3       0.294693        68.64959
2016    19      4       0.3072507       71.08129
2016    19      5       0.2927156       68.53602
2016    19      6       0.2682712       63.96522
2016    19      7       0.2616516       62.71566
2016    20      0       0.2341268       57.5481
2016    20      1       0.2192468       54.80918
2016    20      2       0.1937181       49.92613
2016    20      3       0.1744531       46.21939
2016    20      4       0.1494845       41.01534
2016    20      5       0.1400674       38.97402
2016    20      6       0.1479318       40.55203
2016    20      7       0.1692444       45.06265
2016    21      0       0.1825283       47.83342
2016    21      1       0.1960766       50.38219
2016    21      2       0.18277         47.78443
2016    21      3       0.1912044       49.78162
2016    21      4       0.2231854       55.90412
2016    21      5       0.2845893       67.38149
2016    21      6       0.3085491       71.93128
2016    21      7       0.2942819       69.485
2016    22      0       0.2839052       67.43978
2016    22      1       0.2632391       63.51001
2016    22      2       0.2790465       66.20961
2016    22      3       0.3223017       73.77687
2016    22      4       0.3112056       71.88686
2016    22      5       0.2866708       67.38869
2016    22      6       0.2571734       61.71988
2016    22      7       0.2836369       66.59765
2016    23      0       0.3092083       71.30899
2016    23      1       0.3046185       70.39756
2016    23      2       0.3135991       72.05966
2016    23      3       0.3200429       73.19444
2016    23      4       0.2962724       68.81855
2016    23      5       0.2758333       65.07138
2016    23      6       0.2284628       56.04772
2016    23      7       0.200975        50.6432
2016    24      0       0.175481        45.65082
2016    24      1       0.1580158       42.06921
2016    24      2       0.1529309       40.93813
2016    24      3       0.1499042       40.24116
2016    24      4       0.1403899       38.2409
2016    24      5       0.1244226       34.90699
2016    24      6       0.1125667       32.36317
2016    24      7       0.1045995       30.67329
2016    25      0       0.1027471       30.27593
2016    25      1       0.09780179      29.17916
2016    25      2       0.09967775      29.66151
2016    25      3       0.1076101       31.50396
2016    25      4       0.1031324       30.59437
2016    25      5       0.1040597       30.61599
2016    25      6       0.1453104       39.35003
2016    25      7       0.2091181       52.44869
2016    26      0       0.2282259       56.54561
2016    26      1       0.30034         70.05236
2016    26      2       0.4048495       88.35644
2016    26      3       0.4080401       89.76233
2016    26      4       0.4487369       96.5107
2016    26      5       0.476542        100.824
2016    26      6       0.5664051       114.1658
2016    26      7       0.6834691       129.7514
2016    27      0       0.6841073       130.4125
2016    27      1       0.616337        121.3947
2016    27      2       0.6598451       126.087
2016    27      3       0.5392121       109.7195
2016    27      4       0.4672787       98.91842
2016    27      5       0.404106        88.33031
2016    27      6       0.3960105       86.92693
2016    27      7       0.352056        79.42784
2016    28      0       0.3236896       74.25012
2016    28      1       0.3324239       75.97433
2016    28      2       0.3257749       75.1381
2016    28      3       0.4362104       93.69272
2016    28      4       0.5218719       106.9905
2016    28      5       0.6299145       122.8503
2016    28      6       0.544621        111.5531
2016    28      7       0.7239994       134.7861
2016    29      0       0.7279833       135.7116
2016    29      1       0.5392396       109.8511
2016    29      2       0.4887196       102.271
2016    29      3       0.436149        94.07873
2016    29      4       0.3560146       80.91809
2016    29      5       0.3130688       73.44464
2016    29      6       0.2050088       52.8562
2016    29      7       0.1785604       47.21906
2016    30      0       0.09555084      28.78908
2016    30      1       0.08313061      25.81612
2016    30      2       0.1018238       30.16106
2016    30      3       0.1217029       34.63798
2016    30      4       0.1285108       36.1161
2016    30      5       0.1243166       35.08744
2016    30      6       0.1221914       34.42824
2016    30      7       0.1411799       38.30628
2016    31      0       0.1945602       49.42988
2016    31      1       0.1899363       48.57365
2016    31      2       0.1871721       48.25441
2016    31      3       0.3162632       72.75393
2016    31      4       0.2537223       61.91879
2016    31      5       0.2116867       53.80245
2016    31      6       0.1848007       48.32316
2016    31      7       0.1641992       44.02968
2017    1       0       0.2630639       62.98408
2017    1       1       0.2381714       58.35898
2017    1       2       0.2370669       58.13543
2017    1       3       0.2483131       60.13709
2017    1       4       0.2879784       67.57126
2017    1       5       0.3319037       75.56833
2017    1       6       0.3733266       82.62148
2017    1       7       0.3726847       82.46283
2017    2       0       0.3082971       71.21657
2017    2       1       0.2890044       67.5892
2017    2       2       0.2931387       68.15073
2017    2       3       0.3097511       71.17108
2017    2       4       0.3340051       75.52544
2017    2       5       0.3350577       75.80589
2017    2       6       0.2965219       68.92253
2017    2       7       0.2785135       65.55729
2017    3       0       0.2679291       63.55544
2017    3       1       0.2451299       59.23978
2017    3       2       0.2409135       58.41972
2017    3       3       0.2328645       56.93637
2017    3       4       0.2531107       60.83956
2017    3       5       0.2554313       61.32021
2017    3       6       0.221139        54.73397
2017    3       7       0.2006482       50.71605
2017    4       0       0.1854688       47.78878
2017    4       1       0.1662929       43.92252
2017    4       2       0.1745677       45.56529
2017    4       3       0.1786624       46.44829
2017    4       4       0.1779107       46.25698
2017    4       5       0.1761142       45.85326
2017    4       6       0.1818794       46.94298
2017    4       7       0.1748641       45.46325
2017    5       0       0.1652869       43.47418
2017    5       1       0.1537036       41.13417
2017    5       2       0.1280433       35.9861
2017    5       3       0.1319743       36.86396
2017    5       4       0.1367496       37.88975
2017    5       5       0.1741088       45.62166
2017    5       6       0.2064687       52.03767
2017    5       7       0.2130855       53.28573
2017    6       0       0.2217468       54.94068
2017    6       1       0.1955673       49.83004
2017    6       2       0.1635017       43.48288
2017    6       3       0.1335626       37.21412
2017    6       4       0.09487256      28.81454
2017    6       5       0.07249666      23.7127
2017    6       6       0.05975714      20.68585
2017    6       7       0.05149844      18.65902
2017    7       0       0.05133183      18.5497
2017    7       1       0.05252784      18.77072
2017    7       2       0.0620505       21.09444
2017    7       3       0.07705821      24.62312
2017    7       4       0.1065348       31.35519
2017    7       5       0.1414478       39.00894
2017    7       6       0.1698767       45.27673
2017    7       7       0.2719882       65.21693
2017    8       0       0.2853344       68.19432
2017    8       1       0.2835948       67.67124
2017    8       2       0.2790894       66.81239
2017    8       3       0.3048861       71.31904
2017    8       4       0.3262512       75.32187
2017    8       5       0.3262245       75.47802
2017    8       6       0.4085422       89.69211
2017    8       7       0.4313621       93.48673
2017    9       0       0.3320804       76.0385
2017    9       1       0.3590614       80.37906
2017    9       2       0.287147        67.8284
2017    9       3       0.2486251       60.37867
2017    9       4       0.2675915       63.87852
2017    9       5       0.2645712       63.41198
2017    9       6       0.2143342       53.94014
2017    9       7       0.2108369       53.3857
2017    10      0       0.2154083       54.43419
2017    10      1       0.2001746       51.52698
2017    10      2       0.1976603       50.98581
2017    10      3       0.194708        50.3468
2017    10      4       0.1942773       50.25187
2017    10      5       0.1965364       50.79354
2017    10      6       0.1828545       48.09136
2017    10      7       0.1950865       50.55935
2017    11      0       0.2467259       60.47942
2017    11      1       0.305757        70.98083
2017    11      2       0.3878879       84.89589
2017    11      3       0.4467881       94.33299
2017    11      4       0.4121054       89.08538
2017    11      5       0.4052914       88.04528
2017    11      6       0.4480139       95.06542
2017    11      7       0.4407757       94.14698
2017    12      0       0.3934774       86.55369
2017    12      1       0.3059865       71.56852
2017    12      2       0.2915053       68.41546
2017    12      3       0.2987601       69.50793
2017    12      4       0.3237215       74.02509
2017    12      5       0.3361225       76.29401
2017    12      6       0.4211568       90.44848
2017    12      7       0.3475472       78.00798
2017    13      0       0.2735511       64.59254
2017    13      1       0.232439        56.60386
2017    13      2       0.2344686       56.79014
2017    13      3       0.2474995       59.26571
2017    13      4       0.2464318       59.16664
2017    13      5       0.2609631       61.96017
2017    13      6       0.2363309       57.35569
2017    13      7       0.2006859       50.35563
2017    14      0       0.1881997       47.72764
2017    14      1       0.1918793       48.44534
2017    14      2       0.2037857       50.6504
2017    14      3       0.2213894       54.03614
2017    14      4       0.224273        54.69
2017    14      5       0.2287692       55.62063
2017    14      6       0.250588        59.77166
2017    14      7       0.236239        57.07122
2017    15      0       0.1970539       49.40623
2017    15      1       0.193349        48.68372
2017    15      2       0.177128        45.34136
2017    15      3       0.1877563       47.58076
2017    15      4       0.2027727       50.67854
2017    15      5       0.1954139       49.30578
2017    15      6       0.1844324       47.07066
2017    15      7       0.1708986       44.34711
2017    16      0       0.1675103       43.64484
2017    16      1       0.1948529       49.11063
2017    16      2       0.2196513       54.06366
2017    16      3       0.2321035       56.53986
2017    16      4       0.2195547       54.18045
2017    16      5       0.2464709       59.38471
2017    16      6       0.2346937       57.36222
2017    16      7       0.2365191       57.72677
2017    17      0       0.2468658       59.69204
2017    17      1       0.2677501       63.40743
2017    17      2       0.2586342       61.58291
2017    17      3       0.2586662       61.62185
2017    17      4       0.2549343       60.99016
2017    17      5       0.2429063       58.89476
2017    17      6       0.2405516       58.6407
2017    17      7       0.2712458       64.39013
2017    18      0       0.2716966       64.53842
2017    18      1       0.2527556       61.07673
2017    18      2       0.2641608       63.19985
2017    18      3       0.3064937       70.83697
2017    18      4       0.2725923       64.90069
2017    18      5       0.2523263       61.33141
2017    18      6       0.2486969       60.66179
2017    18      7       0.2554323       61.87976
2017    19      0       0.2767506       65.70115
2017    19      1       0.2892503       67.82777
2017    19      2       0.3025416       70.24611
2017    19      3       0.319198        73.34202
2017    19      4       0.3236615       74.24614
2017    19      5       0.2924666       68.7219
2017    19      6       0.2982393       69.8857
2017    19      7       0.3018522       70.50626
2017    20      0       0.3011198       70.43781
2017    20      1       0.2770714       66.03872
2017    20      2       0.3699095       82.27944
2017    20      3       0.4036572       87.42327
2017    20      4       0.3305617       75.28543
2017    20      5       0.3252851       74.42755
2017    20      6       0.3155976       72.722
2017    20      7       0.3343742       75.98814
2017    21      0       0.3586098       80.10704
2017    21      1       0.312102        72.03226
2017    21      2       0.348995        78.32965
2017    21      3       0.3149963       72.11886
2017    21      4       0.2614489       62.25218
2017    21      5       0.2317976       56.63495
2017    21      6       0.2112279       52.78727
2017    21      7       0.2141345       53.38246
2017    22      0       0.2094949       52.55572
2017    22      1       0.1795671       46.67652
2017    22      2       0.1616115       43.06532
2017    22      3       0.1563369       41.90728
2017    22      4       0.1789012       46.46927
2017    22      5       0.1978654       50.28443
2017    22      6       0.2248727       55.59243
2017    22      7       0.267026        63.78277
2017    23      0       0.2976819       69.65947
2017    23      1       0.2901402       68.10385
2017    23      2       0.3604937       80.20637
2017    23      3       0.4072334       88.0729
2017    23      4       0.3915814       85.52104
2017    23      5       0.2868757       67.50021
2017    23      6       0.1823803       47.58669
2017    23      7       0.1015762       30.31604
2017    24      0       0.07615374      24.37316
2017    24      1       0.07111981      23.04488
2017    24      2       0.1141906       32.83777
2017    24      3       0.1315713       36.65101
2017    24      4       0.1171437       33.75502
2017    24      5       0.104266        30.77716
2017    24      6       0.1074992       31.18718
2017    24      7       0.2612894       62.53151
2017    25      0       0.3512754       79.73387
2017    25      1       0.4020374       88.89511
2017    25      2       0.4700864       99.41765
2017    25      3       0.5540877       111.5627
2017    25      4       0.5072752       104.9677
2017    25      5       0.497224        103.7239
2017    25      6       0.5089969       105.602
2017    25      7       0.5702408       114.5658
2017    26      0       0.5964101       118.1041
2017    26      1       0.5210112       107.4069
2017    26      2       0.4551645       97.06905
2017    26      3       0.5596133       112.4198
2017    26      4       0.5820231       115.7319
2017    26      5       0.5798153       115.442
2017    26      6       0.5386357       109.3125
2017    26      7       0.4548574       95.90463
2017    27      0       0.2862516       66.98745
2017    27      1       0.1496144       40.42872
2017    27      2       0.1131416       32.6841
2017    27      3       0.1080404       31.51626
2017    27      4       0.101993        30.16102
2017    27      5       0.09599393      28.79388
2017    27      6       0.07840857      24.76783
2017    27      7       0.08646566      26.56818
2017    28      0       0.1068422       31.13119
2017    28      1       0.1283591       35.78855
2017    28      2       0.1304516       36.26084
2017    28      3       0.1195133       33.98471
2017    28      4       0.1111691       32.23817
2017    28      5       0.1074276       31.44257
2017    28      6       0.1035012       30.59988
2017    28      7       0.09215789      28.09753
2017    29      0       0.08044917      25.4364
2017    29      1       0.0732468       23.75945
2017    29      2       0.07654728      24.53276
2017    29      3       0.07806881      24.87648
2017    29      4       0.07680888      24.55176
2017    29      5       0.07476339      24.05391
2017    29      6       0.07451632      23.97049
2017    29      7       0.07960208      25.1043
2017    30      0       0.08598903      26.48086
2017    30      1       0.08664622      26.55265
2017    30      2       0.09844074      29.16467
2017    30      3       0.1113968       32.02299
2017    30      4       0.1149587       32.90202
2017    30      5       0.1133887       32.64746
2017    30      6       0.1109096       32.11595
2017    30      7       0.1153001       32.9661
2017    31      0       0.1258906       35.08606
2017    31      1       0.1338481       36.73691
2017    31      2       0.142988        38.64289
2017    31      3       0.1522766       40.55108
2017    31      4       0.169778        44.17907
2017    31      5       0.1919321       48.68888
2017    31      6       0.1918225       48.73432
2017    31      7       0.178163        46.23593
2018    1       0       0.3466729       78.80243
2018    1       1       0.3086373       71.60629
2018    1       2       0.2516377       61.03886
2018    1       3       0.2062513       52.33692
2018    1       4       0.183453        47.86353
2018    1       5       0.1544447       41.76255
2018    1       6       0.1279042       36.0566
2018    1       7       0.1264854       35.61048
2018    2       0       0.1158466       33.31313
2018    2       1       0.1016729       30.3145
2018    2       2       0.1019578       30.47594
2018    2       3       0.101651        30.44883
2018    2       4       0.09944476      30.00622
2018    2       5       0.09015574      27.92194
2018    2       6       0.07706731      24.86063
2018    2       7       0.06976302      23.05507
2018    3       0       0.06689032      22.20858
2018    3       1       0.07046435      22.94769
2018    3       2       0.0751387       24.04944
2018    3       3       0.09044841      27.5845
2018    3       4       0.1049517       30.67396
2018    3       5       0.1453737       39.32096
2018    3       6       0.1852131       47.71933
2018    3       7       0.2154532       54.35045
2018    4       0       0.2375623       59.1908
2018    4       1       0.2225915       56.32372
2018    4       2       0.2037313       52.13513
2018    4       3       0.2550955       61.80394
2018    4       4       0.3031328       70.63634
2018    4       5       0.2933455       69.02918
2018    4       6       0.3185275       73.37148
2018    4       7       0.356061        79.77158
2018    5       0       0.3940488       86.19834
2018    5       1       0.3923819       86.02622
2018    5       2       0.3666188       81.7639
2018    5       3       0.40737         88.07412
2018    5       4       0.4443314       94.16406
2018    5       5       0.4951737       102.0276
2018    5       6       0.5096865       104.0735
2018    5       7       0.4660043       97.39969
2018    6       0       0.3629797       80.92591
2018    6       1       0.2977594       69.581
2018    6       2       0.2389817       58.7957
2018    6       3       0.1867894       48.50644
2018    6       4       0.1652039       44.04529
2018    6       5       0.1685704       44.6919
2018    6       6       0.196189        50.09302
2018    6       7       0.2016564       50.90991
2018    7       0       0.1611483       42.74187
2018    7       1       0.1659369       43.95908
2018    7       2       0.2093465       52.99142
2018    7       3       0.3139743       72.52069
2018    7       4       0.4032018       88.05864
2018    7       5       0.4235995       91.87801
2018    7       6       0.3562186       80.90321
2018    7       7       0.3575982       81.0643
2018    8       0       0.404048        88.80545
2018    8       1       0.3369024       77.34886
2018    8       2       0.4372106       93.35163
2018    8       3       0.3833303       84.65859
2018    8       4       0.4109578       89.25163
2018    8       5       0.3838495       84.66788
2018    8       6       0.3119152       72.29203
2018    8       7       0.3108858       71.88921
2018    9       0       0.2424306       59.02941
2018    9       1       0.2299975       56.79961
2018    9       2       0.2508918       60.71742
2018    9       3       0.264548        63.00407
2018    9       4       0.2440652       59.34536
2018    9       5       0.2374558       58.18823
2018    9       6       0.3519225       78.58799
2018    9       7       0.2982777       69.61287
2018    10      0       0.2736883       65.02618
2018    10      1       0.3530454       78.85425
2018    10      2       0.3743003       82.34301
2018    10      3       0.4554768       95.62063
2018    10      4       0.4234739       90.65459
2018    10      5       0.3674307       81.56664
2018    10      6       0.3562818       79.5304
2018    10      7       0.3132221       71.96395
2018    11      0       0.3018382       69.86795
2018    11      1       0.2942916       68.49854
2018    11      2       0.2822782       66.07856
2018    11      3       0.2580643       61.51204
2018    11      4       0.2747841       64.61517
2018    11      5       0.2739188       64.54549
2018    11      6       0.2532902       60.7549
2018    11      7       0.2381153       57.84703
2018    12      0       0.2201846       54.35452
2018    12      1       0.2024812       50.91677
2018    12      2       0.2007976       50.4871
2018    12      3       0.1982941       49.96925
2018    12      4       0.1942799       49.298
2018    12      5       0.1798044       46.38938
2018    12      6       0.162177        42.83361
2018    12      7       0.1465042       39.68819
2018    13      0       0.1343603       37.18096
2018    13      1       0.1162751       33.24064
2018    13      2       0.116723        33.32044
2018    13      3       0.1131632       32.5721
2018    13      4       0.1073895       31.3842
2018    13      5       0.1092493       31.73818
2018    13      6       0.1159637       33.09293
2018    13      7       0.135769        37.26564
2018    14      0       0.1681569       44.12142
2018    14      1       0.1704657       44.82363
2018    14      2       0.1507388       40.7026
2018    14      3       0.1426641       39.05311
2018    14      4       0.135645        37.64363
2018    14      5       0.1498403       40.65017
2018    14      6       0.1511269       40.83937
2018    14      7       0.1479308       40.03397
2018    15      0       0.1625256       42.88601
2018    15      1       0.16739         43.91498
2018    15      2       0.1667657       43.81528
2018    15      3       0.1765663       45.9547
2018    15      4       0.1642309       43.6745
2018    15      5       0.1726796       45.29783
2018    15      6       0.1781647       46.43437
2018    15      7       0.1959256       50.09351
2018    16      0       0.1991939       50.82883
2018    16      1       0.2014721       51.34233
2018    16      2       0.2085655       52.5902
2018    16      3       0.2453818       59.553
2018    16      4       0.2252065       55.91718
2018    16      5       0.2046828       51.87035
2018    16      6       0.2141955       53.71266
2018    16      7       0.2245179       55.65689
2018    17      0       0.2211624       54.91869
2018    17      1       0.239729        58.55158
2018    17      2       0.2859136       67.19658
2018    17      3       0.308057        71.09996
2018    17      4       0.3106033       71.63153
2018    17      5       0.3118379       71.95233
2018    17      6       0.3303398       75.27526
2018    17      7       0.3161944       72.90239
2018    18      0       0.3072576       71.1132
2018    18      1       0.2885231       67.78811
2018    18      2       0.2972402       69.53421
2018    18      3       0.3693433       82.04657
2018    18      4       0.4075918       88.77379
2018    18      5       0.441837        94.4316
2018    18      6       0.467478        98.59381
2018    18      7       0.4651089       98.12896
2018    19      0       0.4437872       94.61326
2018    19      1       0.4549723       96.06838
2018    19      2       0.4181881       90.25784
2018    19      3       0.4111783       88.92469
2018    19      4       0.3328049       75.86926
2018    19      5       0.3137672       72.65809
2018    19      6       0.3345849       76.31679
2018    19      7       0.3820344       84.33477
2018    20      0       0.3447628       77.68338
2018    20      1       0.2420695       58.68884
2018    20      2       0.2287746       55.97082
2018    20      3       0.2255536       55.45373
2018    20      4       0.2175698       54.02619
2018    20      5       0.2008416       50.71375
2018    20      6       0.1624467       43.19228
2018    20      7       0.1321858       36.92377
2018    21      0       0.1156867       33.10028
2018    21      1       0.1045214       30.39773
2018    21      2       0.1220203       34.38869
2018    21      3       0.1355356       37.36759
2018    21      4       0.1726353       44.92429
2018    21      5       0.2026284       51.00049
2018    21      6       0.2440879       59.28713
2018    21      7       0.2593275       62.33626
2018    22      0       0.2175135       54.28237
2018    22      1       0.1715103       45.07515
2018    22      2       0.1788873       46.71001
2018    22      3       0.182482        47.4925
2018    22      4       0.2178017       54.21358
2018    22      5       0.2416945       58.73816
2018    22      6       0.2113389       52.87003
2018    22      7       0.1991838       50.33978
2018    23      0       0.2124488       52.78071
2018    23      1       0.2370088       57.45744
2018    23      2       0.2537325       60.70943
2018    23      3       0.2548813       60.95342
2018    23      4       0.2744797       64.56157
2018    23      5       0.2908204       67.64716
2018    23      6       0.3385655       76.00565
2018    23      7       0.3230755       73.29362
2018    24      0       0.2698409       63.70133
2018    24      1       0.2492986       59.87657
2018    24      2       0.2399745       58.00829
2018    24      3       0.2031624       50.98779
2018    24      4       0.1963453       49.70997
2018    24      5       0.1818117       46.77936
2018    24      6       0.1680181       44.0915
2018    24      7       0.1864858       47.95203
2018    25      0       0.1661287       43.85468
2018    25      1       0.1557684       41.79102
2018    25      2       0.1426845       38.91825
2018    25      3       0.1650747       43.34182
2018    25      4       0.1848557       47.24743
2018    25      5       0.2014494       50.55742
2018    25      6       0.1990219       50.124
2018    25      7       0.2186454       53.93989
2018    26      0       0.2217003       54.49974
2018    26      1       0.2197394       54.10395
2018    26      2       0.2370107       57.11848
2018    26      3       0.2378302       57.16325
2018    26      4       0.216495        53.1522
2018    26      5       0.2157456       53.03583
2018    26      6       0.217332        53.30394
2018    26      7       0.1994728       49.79179
2018    27      0       0.1702514       43.81914
2018    27      1       0.154177        40.62453
2018    27      2       0.1398482       37.89828
2018    27      3       0.1339598       36.84408
2018    27      4       0.1101923       31.92847
2018    27      5       0.1032766       30.2708
2018    27      6       0.1239873       34.59733
2018    27      7       0.143334        38.71601
2018    28      0       0.147124        39.48802
2018    28      1       0.173963        45.11084
2018    28      2       0.2050017       51.4204
2018    28      3       0.2209686       54.66091
2018    28      4       0.2107296       52.98159
2018    28      5       0.1586256       42.64737
2018    28      6       0.1233173       35.10345
2018    28      7       0.1569745       42.00646
2018    29      0       0.2341331       57.42671
2018    29      1       0.2967813       69.31252
2018    29      2       0.3087503       71.58231
2018    29      3       0.3038571       70.96896
2018    29      4       0.3090961       71.88532
2018    29      5       0.3677053       81.90818
2018    29      6       0.4011594       87.52089
2018    29      7       0.3838448       84.60273
2018    30      0       0.3920953       85.89197
2018    30      1       0.3238755       74.07441
2018    30      2       0.3220931       73.82208
2018    30      3       0.305709        70.72305
2018    30      4       0.2771149       65.58451
2018    30      5       0.2672401       63.68582
2018    30      6       0.2331522       57.23967
2018    30      7       0.1864424       48.12558
2018    31      0       0.1433197       39.30536
2018    31      1       0.1464818       40.016
2018    31      2       0.163335        43.43818
2018    31      3       0.1975053       50.148
2018    31      4       0.208164        52.18108
2018    31      5       0.1924819       49.12269
2018    31      6       0.1626608       43.00631
2018    31      7       0.2211282       54.65167
