####################################################################################################
# Month: 12Dec                                                                                     #
# Station: FAIR                                                                                    #
# Frequency: 230 GHz                                                                               #
# Columns are: year    day     segment         tau     Tb (K)                                      #
####################################################################################################
2009    1       0       0.243285        59.0119
2009    1       1       0.2786822       66.16167
2009    1       2       0.3193486       73.80757
2009    1       3       0.4326775       93.46455
2009    1       4       0.4604433       98.26447
2009    1       5       0.4053633       89.75942
2009    1       6       0.3861906       86.53707
2009    1       7       0.3605481       81.77134
2009    2       0       0.366379        82.69018
2009    2       1       0.352883        80.42347
2009    2       2       0.3450015       79.0864
2009    2       3       0.5529516       112.5949
2009    2       4       0.5085425       106.0362
2009    2       5       0.4411441       95.43023
2009    2       6       0.3480331       79.95571
2009    2       7       0.3468047       79.39865
2009    3       0       0.264587        63.49542
2009    3       1       0.2977799       69.71233
2009    3       2       0.2742577       65.26869
2009    3       3       0.2586854       62.16994
2009    3       4       0.2660889       63.52321
2009    3       5       0.2382659       57.98631
2009    3       6       0.199828        50.17343
2009    3       7       0.200445        50.2306
2009    4       0       0.6218098       120.9829
2009    4       1       0.2171103       53.11849
2009    4       2       0.1565293       40.85192
2009    4       3       0.1514003       39.61546
2009    4       4       0.1254015       33.90688
2009    4       5       0.1082793       30.08469
2009    4       6       0.1027685       28.89802
2009    4       7       0.1119721       31.05964
2009    5       0       0.1357038       36.34664
2009    5       1       0.1692707       43.78026
2009    5       2       0.2538973       61.64137
2009    5       3       0.3288337       76.42846
2009    5       4       0.2964846       70.06862
2009    5       5       0.256832        62.15156
2009    5       6       0.3041309       71.97577
2009    5       7       0.3104541       73.52244
2009    6       0       0.2853582       68.98794
2009    6       1       0.243768        60.6948
2009    6       2       0.2513698       62.16174
2009    6       3       0.2704179       65.66834
2009    6       4       0.3174336       74.69433
2009    6       5       0.4575064       100.502
2009    6       6       0.5460631       114.1844
2009    6       7       0.8065851       149.0834
2009    7       0       0.7849309       146.5836
2009    7       1       0.8022551       148.5981
2009    7       2       0.631062        126.5732
2009    7       3       0.4281734       94.85682
2009    7       4       0.3462798       80.07199
2009    7       5       0.3159338       74.25804
2009    7       6       0.3656073       83.87293
2009    7       7       0.3834974       87.58056
2009    8       0       0.3828767       87.47019
2009    8       1       0.4462659       99.11579
2009    8       2       0.4317491       96.74001
2009    8       3       0.4430633       98.74693
2009    8       4       0.4871907       105.7985
2009    8       5       0.4657375       102.6052
2009    8       6       0.333568        79.51127
2009    8       7       0.2310768       59.24779
2009    9       0       0.1716041       46.37397
2009    9       1       0.1609157       44.0112
2009    9       2       0.1641228       44.73458
2009    9       3       0.1602402       43.95272
2009    9       4       0.167132        45.55329
2009    9       5       0.167219        45.45252
2009    9       6       0.1880654       49.59899
2009    9       7       0.2126453       54.69202
2009    10      0       0.2287311       58.10385
2009    10      1       0.2362383       59.72799
2009    10      2       0.2471408       61.81705
2009    10      3       0.2591832       64.03437
2009    10      4       0.2745236       66.93423
2009    10      5       0.2772753       67.27557
2009    10      6       0.2531671       62.29767
2009    10      7       0.2698493       65.66338
2009    11      0       0.3181575       75.03572
2009    11      1       0.3300458       77.44246
2009    11      2       0.3064702       72.95943
2009    11      3       0.2698842       65.58095
2009    11      4       0.2383621       59.24943
2009    11      5       0.2322346       57.9597
2009    11      6       0.2346476       58.39158
2009    11      7       0.2441103       60.21021
2009    12      0       0.2532803       61.91206
2009    12      1       0.2677741       64.58238
2009    12      2       0.2781013       66.52217
2009    12      3       0.3139343       73.06399
2009    12      4       0.3869622       85.74512
2009    12      5       0.3766293       84.25542
2009    12      6       0.3636522       82.16178
2009    12      7       0.3827771       85.28795
2009    13      0       0.3360886       77.20279
2009    13      1       0.3117933       72.72697
2009    13      2       0.3018608       70.77521
2009    13      3       0.3003263       70.308
2009    13      4       0.2455594       59.90102
2009    13      5       0.2120458       53.1697
2009    13      6       0.2118835       53.03028
2009    13      7       0.212483        53.10666
2009    14      0       0.2050099       51.42589
2009    14      1       0.1964847       49.44032
2009    14      2       0.1977769       49.65518
2009    14      3       0.2009065       50.2308
2009    14      4       0.2052243       51.08942
2009    14      5       0.1821372       46.39696
2009    14      6       0.1851202       46.99176
2009    14      7       0.2051259       51.0345
2009    15      0       0.185171        46.82004
2009    15      1       0.1737082       44.32454
2009    15      2       0.2630536       61.98901
2009    15      3       0.1646557       42.10876
2009    15      4       0.2442971       57.93734
2009    15      5       0.2693679       62.44184
2009    15      6       0.1632676       41.34453
2009    15      7       0.1403865       36.56903
2009    16      0       0.1689302       42.62277
2009    16      1       0.2790727       64.34657
2009    16      2       0.3031443       69.10561
2009    16      3       0.3081436       70.30526
2009    16      4       0.2947773       68.21625
2009    16      5       0.3154427       72.32823
2009    16      6       0.2704618       64.14468
2009    16      7       0.2316186       56.6087
2009    17      0       0.2388263       57.67656
2009    17      1       0.3322122       75.42559
2009    17      2       0.2321917       57.11334
2009    17      3       0.235157        57.56508
2009    17      4       0.2333979       56.9328
2009    17      5       0.2164347       53.66673
2009    17      6       0.2092079       52.07676
2009    17      7       0.2164027       53.36955
2009    18      0       0.2256267       55.09555
2009    18      1       0.2852241       66.41725
2009    18      2       0.5167869       105.596
2009    18      3       0.6645675       129.3887
2009    18      4       0.7439051       138.9588
2009    18      5       0.5916924       117.0935
2009    18      6       0.3532517       80.60708
2009    18      7       0.3424548       77.95278
2009    19      0       0.2633644       61.61954
2009    19      1       0.1973764       48.41926
2009    19      2       0.1240591       33.25897
2009    19      3       0.09752557      27.34268
2009    19      4       0.08309939      24.17606
2009    19      5       0.07975359      23.44241
2009    19      6       0.07082097      21.43372
2009    19      7       0.06307386      19.69355
2009    20      0       0.1160943       31.72223
2009    20      1       0.2315643       55.98009
2009    20      2       0.2352192       57.05909
2009    20      3       0.2227184       54.74263
2009    20      4       0.204968        51.11096
2009    20      5       0.1956068       49.14821
2009    20      6       0.1809407       46.19742
2009    20      7       0.1592769       41.79726
2009    21      0       0.1416613       38.17539
2009    21      1       0.1193466       33.23114
2009    21      2       0.1262608       34.81608
2009    21      3       0.1341917       36.6121
2009    21      4       0.1643998       43.2157
2009    21      5       0.2233353       55.79625
2009    21      6       0.3031952       71.97473
2009    21      7       0.3093147       73.50421
2009    22      0       0.3187188       75.60783
2009    22      1       0.2773564       67.77644
2009    22      2       0.2170085       55.49336
2009    22      3       0.2532033       63.07217
2009    22      4       0.2544613       63.15964
2009    22      5       0.3297474       78.61096
2009    22      6       0.389003        88.20226
2009    22      7       0.4141609       92.35496
2009    23      0       0.3974961       89.29038
2009    23      1       0.4231747       93.13123
2009    23      2       0.4014045       89.54258
2009    23      3       0.4030775       89.91865
2009    23      4       0.390987        88.12685
2009    23      5       0.3810548       86.5803
2009    23      6       0.3662539       84.29025
2009    23      7       0.3860546       87.97127
2009    24      0       0.48727         104.8127
2009    24      1       0.4805265       103.247
2009    24      2       0.3881251       87.45484
2009    24      3       0.3140872       74.18526
2009    24      4       0.2740298       66.71264
2009    24      5       0.2740829       66.71252
2009    24      6       0.2782125       67.57222
2009    24      7       0.2815152       68.15806
2009    25      0       0.2964843       70.856
2009    25      1       0.3217667       75.33773
2009    25      2       0.3420381       78.89772
2009    25      3       0.3424802       78.56421
2009    25      4       0.2611708       63.18956
2009    25      5       0.2414881       59.39492
2009    25      6       0.3188398       74.18849
2009    25      7       0.3763815       84.85684
2009    26      0       0.467018        99.83591
2009    26      1       0.4619468       99.08634
2009    26      2       0.5247231       108.4484
2009    26      3       0.4836949       102.0584
2009    26      4       0.5098647       105.9169
2009    26      5       0.5345017       110.0175
2009    26      6       0.4388317       95.96141
2009    26      7       0.4334245       95.19056
2009    27      0       0.4814092       102.6548
2009    27      1       0.3401618       78.76243
2009    27      2       0.4455706       96.78243
2009    27      3       0.3892824       87.67542
2009    27      4       0.3432919       79.24577
2009    27      5       0.335639        77.80107
2009    27      6       0.3698781       84.01224
2009    27      7       0.3502156       80.51101
2009    28      0       0.2992633       71.21573
2009    28      1       0.2760753       66.59451
2009    28      2       0.2857484       68.27555
2009    28      3       0.2955554       70.15384
2009    28      4       0.2721033       65.70725
2009    28      5       0.2494691       61.2862
2009    28      6       0.2516386       61.70994
2009    28      7       0.2551032       62.39628
2009    29      0       0.2517884       61.8664
2009    29      1       0.2415108       59.84475
2009    29      2       0.2404674       59.52446
2009    29      3       0.2375908       58.80739
2009    29      4       0.2132106       53.84178
2009    29      5       0.1866696       48.3002
2009    29      6       0.1711691       45.00404
2009    29      7       0.160945        42.83654
2009    30      0       0.1840994       47.92076
2009    30      1       0.1665389       44.12315
2009    30      2       0.1229271       34.32006
2009    30      3       0.1133471       32.11403
2009    30      4       0.1005335       29.16575
2009    30      5       0.1006943       29.21545
2009    30      6       0.1095837       31.2117
2009    30      7       0.1272847       35.19786
2009    31      0       0.1320802       36.23637
2009    31      1       0.1326291       36.36537
2009    31      2       0.1381386       37.58874
2009    31      3       0.1400931       37.94297
2009    31      4       0.1438155       38.66295
2009    31      5       0.1550587       40.97272
2009    31      6       0.1603421       42.01862
2009    31      7       0.1592761       41.8015
2010    1       0       0.09861786      28.04454
2010    1       1       0.1020351       28.81952
2010    1       2       0.1036945       29.1569
2010    1       3       0.1040531       29.18001
2010    1       4       0.107597        29.92443
2010    1       5       0.1134284       31.21399
2010    1       6       0.110631        30.59816
2010    1       7       0.08775698      25.61949
2010    2       0       0.07140307      21.87822
2010    2       1       0.06113628      19.4923
2010    2       2       0.05855143      18.90788
2010    2       3       0.0594431       19.14084
2010    2       4       0.06349225      20.17792
2010    2       5       0.06360418      20.19419
2010    2       6       0.06877731      21.37684
2010    2       7       0.08538171      25.0597
2010    3       0       0.1123562       30.89994
2010    3       1       0.1408323       36.97161
2010    3       2       0.1271554       34.23022
2010    3       3       0.1070476       29.93895
2010    3       4       0.1246716       33.89431
2010    3       5       0.1618558       42.20892
2010    3       6       0.150633        39.82404
2010    3       7       0.2178677       53.79325
2010    4       0       0.3617065       81.4469
2010    4       1       0.3746024       83.64564
2010    4       2       0.3980772       87.32922
2010    4       3       0.4245345       91.35474
2010    4       4       0.3726393       82.91126
2010    4       5       0.3909005       85.98002
2010    4       6       0.3264038       74.99421
2010    4       7       0.3373342       76.5536
2010    5       0       0.306976        71.20194
2010    5       1       0.2787639       65.65937
2010    5       2       0.2662472       63.04327
2010    5       3       0.2761582       64.82602
2010    5       4       0.2590521       61.66295
2010    5       5       0.2499438       60.07272
2010    5       6       0.241793        58.60911
2010    5       7       0.2315172       56.68925
2010    6       0       0.2194086       54.37815
2010    6       1       0.2066759       51.84215
2010    6       2       0.1913291       48.67921
2010    6       3       0.182458        46.76734
2010    6       4       0.1802134       46.28487
2010    6       5       0.1837994       47.0746
2010    6       6       0.1900633       48.35078
2010    6       7       0.2045246       51.23701
2010    7       0       0.2265574       55.58059
2010    7       1       0.2183007       54.06469
2010    7       2       0.2071106       51.86858
2010    7       3       0.1939192       49.25069
2010    7       4       0.1825839       47.04283
2010    7       5       0.1946427       49.75798
2010    7       6       0.2413959       59.55973
2010    7       7       0.2862421       68.4396
2010    8       0       0.2976659       70.62452
2010    8       1       0.2914601       69.35914
2010    8       2       0.2712534       65.46888
2010    8       3       0.2165227       54.52502
2010    8       4       0.1762358       46.02195
2010    8       5       0.1382372       37.67818
2010    8       6       0.1237023       34.28408
2010    8       7       0.1122872       31.6259
2010    9       0       0.09905205      28.64903
2010    9       1       0.09328544      27.25966
2010    9       2       0.09060612      26.60684
2010    9       3       0.08790492      25.95787
2010    9       4       0.1008382       28.92118
2010    9       5       0.1152728       32.15562
2010    9       6       0.1207504       33.31134
2010    9       7       0.1217315       33.45754
2010    10      0       0.1205068       33.13337
2010    10      1       0.1178527       32.47418
2010    10      2       0.1115184       30.9619
2010    10      3       0.1086687       30.22955
2010    10      4       0.1101656       30.51407
2010    10      5       0.1098928       30.45521
2010    10      6       0.1100705       30.47747
2010    10      7       0.1147331       31.48695
2010    11      0       0.1358464       36.29951
2010    11      1       0.1603236       41.61879
2010    11      2       0.1951533       48.91738
2010    11      3       0.3087452       71.5509
2010    11      4       0.2861166       67.77671
2010    11      5       0.2785741       66.00779
2010    11      6       0.28768         67.57491
2010    11      7       0.2998808       68.8155
2010    12      0       0.3093421       71.90868
2010    12      1       0.2694676       64.06595
2010    12      2       0.2686878       63.79119
2010    12      3       0.2121839       51.85289
2010    12      4       0.1935346       48.16753
2010    12      5       0.1973561       49.10158
2010    12      6       0.1764856       44.8066
2010    12      7       0.111211        31.05629
2010    13      0       0.09045453      25.99286
2010    13      1       0.09017845      25.82104
2010    13      2       0.1109603       30.45225
2010    13      3       0.1847561       46.18608
2010    13      4       0.2408316       57.74716
2010    13      5       0.3446345       77.65903
2010    13      6       0.3922512       85.81546
2010    13      7       0.3907423       85.44374
2010    14      0       0.337072        75.05265
2010    14      1       0.2821628       64.79777
2010    14      2       0.250239        58.73147
2010    14      3       0.1785678       44.43075
2010    14      4       0.1189042       31.84144
2010    14      5       0.1110878       30.11888
2010    14      6       0.1040823       28.6207
2010    14      7       0.0898367       25.50433
2010    15      0       0.07907197      23.05845
2010    15      1       0.07635769      22.39574
2010    15      2       0.08235888      23.71776
2010    15      3       0.08480154      24.33231
2010    15      4       0.07990284      23.31816
2010    15      5       0.07238371      21.66192
2010    15      6       0.07233803      21.68017
2010    15      7       0.07236532      21.7147
2010    16      0       0.07249139      21.78439
2010    16      1       0.07511047      22.39463
2010    16      2       0.07468551      22.28563
2010    16      3       0.07179517      21.61419
2010    16      4       0.07111687      21.51709
2010    16      5       0.07212701      21.83389
2010    16      6       0.07402878      22.51668
2010    16      7       0.07685235      23.34533
2010    17      0       0.08192295      24.63809
2010    17      1       0.08792194      25.73392
2010    17      2       0.08190532      24.76431
2010    17      3       0.08361868      25.17471
2010    17      4       0.09153332      26.59768
2010    17      5       0.09857681      28.21672
2010    17      6       0.09642762      27.73089
2010    17      7       0.08457678      25.07641
2010    18      0       0.07574767      23.03347
2010    18      1       0.07994114      23.97687
2010    18      2       0.07897547      23.70573
2010    18      3       0.08671765      25.43308
2010    18      4       0.09808014      28.04713
2010    18      5       0.1133307       31.45564
2010    18      6       0.1111715       30.94639
2010    18      7       0.1014647       28.80248
2010    19      0       0.1005271       28.66055
2010    19      1       0.1000675       28.64154
2010    19      2       0.09124826      26.65004
2010    19      3       0.08788711      25.89047
2010    19      4       0.09674339      27.96713
2010    19      5       0.1161739       32.55962
2010    19      6       0.1250571       34.62105
2010    19      7       0.1235249       34.03014
2010    20      0       0.1430935       38.54024
2010    20      1       0.1382377       37.6218
2010    20      2       0.1074042       30.62227
2010    20      3       0.1100077       31.15989
2010    20      4       0.1114416       31.38737
2010    20      5       0.1065536       30.51102
2010    20      6       0.1398041       37.30855
2010    20      7       0.162519        42.04645
2010    21      0       0.1693972       43.55285
2010    21      1       0.1708446       43.87268
2010    21      2       0.1842558       46.48471
2010    21      3       0.1934012       48.23705
2010    21      4       0.2672657       62.88087
2010    21      5       0.2205595       53.72971
2010    21      6       0.201316        49.93057
2010    21      7       0.1952846       48.75538
2010    22      0       0.1950507       48.76391
2010    22      1       0.1974156       49.21967
2010    22      2       0.2013741       49.97042
2010    22      3       0.2563268       60.83301
2010    22      4       0.229678        55.53209
2010    22      5       0.2016892       49.86039
2010    22      6       0.2103916       51.52815
2010    22      7       0.1974327       48.83579
2010    23      0       0.1839785       46.11603
2010    23      1       0.1757025       44.36142
2010    23      2       0.1643887       41.91194
2010    23      3       0.1706142       43.63086
2010    23      4       0.1301208       34.6113
2010    23      5       0.1145577       31.33916
2010    23      6       0.1083282       30.02224
2010    23      7       0.1004685       28.66343
2010    24      0       0.09787995      28.07764
2010    24      1       0.1022077       28.99744
2010    24      2       0.1236145       33.73703
2010    24      3       0.1441739       38.17187
2010    24      4       0.1345644       35.71891
2010    24      5       0.1377146       36.40374
2010    24      6       0.1435373       37.664
2010    24      7       0.1748066       44.18972
2010    25      0       0.1798531       45.37315
2010    25      1       0.1742309       44.21257
2010    25      2       0.1911398       47.59569
2010    25      3       0.1956052       48.49774
2010    25      4       0.197925        49.77006
2010    25      5       0.2034862       50.22038
2010    25      6       0.1896211       47.41999
2010    25      7       0.188321        47.10859
2010    26      0       0.2022863       49.87305
2010    26      1       0.192248        47.87885
2010    26      2       0.1852068       46.4381
2010    26      3       0.1713332       43.62923
2010    26      4       0.1658017       42.58538
2010    26      5       0.1793117       45.4938
2010    26      6       0.2048158       50.74799
2010    26      7       0.2175187       53.35279
2010    27      0       0.217077        53.2794
2010    27      1       0.2060102       50.96361
2010    27      2       0.2063358       51.07574
2010    27      3       0.2160492       53.15213
2010    27      4       0.2204708       54.02091
2010    27      5       0.2171769       53.3037
2010    27      6       0.2776986       64.96347
2010    27      7       0.2942541       67.90477
2010    28      0       0.2994841       68.87861
2010    28      1       0.2031274       50.3676
2010    28      2       0.1750677       44.6016
2010    28      3       0.1853369       46.74086
2010    28      4       0.2162928       52.97984
2010    28      5       0.3594989       82.28921
2010    28      6       0.3025599       71.51475
2010    28      7       0.2125249       52.17714
2010    29      0       0.1607783       41.62237
2010    29      1       0.16053         41.57595
2010    29      2       0.1605132       41.64537
2010    29      3       0.1588316       41.33118
2010    29      4       0.1794074       45.51528
2010    29      5       0.1769747       45.037
2010    29      6       0.1624741       42.13258
2010    29      7       0.1922662       48.39898
2010    30      0       0.2055109       51.04486
2010    30      1       0.2416838       58.15257
2010    30      2       0.2727075       64.06258
2010    30      3       0.2492314       59.50478
2010    30      4       0.219911        53.88227
2010    30      5       0.2465823       59.09683
2010    30      6       0.3721892       82.39863
2010    30      7       0.3830755       84.52292
2010    31      0       0.3946883       86.88803
2010    31      1       0.3328282       76.69024
2010    31      2       0.3062628       72.08389
2010    31      3       0.372427        83.72646
2010    31      4       0.5517488       112.812
2010    31      5       0.5535421       114.0528
2010    31      6       0.6452703       126.7345
2010    31      7       0.6349785       124.9903
2011    1       0       0.2704923       64.98919
2011    1       1       0.2662522       64.23163
2011    1       2       0.3391538       77.5981
2011    1       3       0.6105166       120.1932
2011    1       4       0.6359886       123.9955
2011    1       5       0.6369346       124.0634
2011    1       6       0.3398452       77.59808
2011    1       7       0.242748        58.9991
2011    2       0       0.2986866       69.73865
2011    2       1       0.2940319       68.69882
2011    2       2       0.2382901       57.85408
2011    2       3       0.2573893       61.38075
2011    2       4       0.5606841       112.7359
2011    2       5       0.220676        54.50544
2011    2       6       0.2079008       51.78682
2011    2       7       0.2656961       63.08619
2011    3       0       0.5008758       102.9012
2011    3       1       0.4539979       95.60367
2011    3       2       0.1116126       30.88415
2011    3       3       0.09937756      28.18452
2011    3       4       0.1259173       34.13157
2011    3       5       0.1534457       40.06406
2011    3       6       0.2414626       58.3219
2011    3       7       0.3587211       81.55877
2011    4       0       0.4633275       100.3461
2011    4       1       0.6855872       133.6138
2011    4       2       0.6139901       124.6743
2011    4       3       0.7084878       137.6152
2011    4       4       0.7119321       137.8501
2011    4       5       0.5509129       115.184
2011    4       6       0.5662823       117.7536
2011    4       7       0.8469142       152.874
2011    5       0       0.7637404       142.5514
2011    5       1       0.6196182       121.6897
2011    5       2       0.3342598       75.92102
2011    5       3       0.531555        107.7736
2011    5       4       0.5248719       105.8141
2011    5       5       0.4336492       91.29942
2011    5       6       0.3315552       73.90096
2011    5       7       0.4063598       86.37616
2011    6       0       0.312978        70.21543
2011    6       1       0.3364502       74.40118
2011    6       2       0.3311614       73.66769
2011    6       3       0.3879118       83.30969
2011    6       4       0.3034277       68.56862
2011    6       5       0.1798928       44.90561
2011    6       6       0.1021993       28.51575
2011    6       7       0.09516961      27.04085
2011    7       0       0.09938163      28.01018
2011    7       1       0.1189935       32.36389
2011    7       2       0.1776618       44.97717
2011    7       3       0.2182538       53.61083
2011    7       4       0.2193995       54.19695
2011    7       5       0.1993842       50.18199
2011    7       6       0.2261781       55.53146
2011    7       7       0.3641336       81.59448
2011    8       0       0.3891287       86.44226
2011    8       1       0.4076548       89.89163
2011    8       2       0.3969265       88.34888
2011    8       3       0.3860661       86.32537
2011    8       4       0.4550504       97.17166
2011    8       5       0.3833159       85.75162
2011    8       6       0.3211855       74.55102
2011    8       7       0.315866        73.59774
2011    9       0       0.2976172       70.15884
2011    9       1       0.2943759       69.28594
2011    9       2       0.2711256       64.70703
2011    9       3       0.2875361       67.61821
2011    9       4       0.3019778       70.31575
2011    9       5       0.2906195       68.25656
2011    9       6       0.2887753       67.84143
2011    9       7       0.3110161       71.83548
2011    10      0       0.5042706       104.4316
2011    10      1       0.363096        80.95576
2011    10      2       0.4188644       90.42055
2011    10      3       0.373069        82.48586
2011    10      4       0.2636723       62.55895
2011    10      5       0.1338813       36.05847
2011    10      6       0.0920384       26.7907
2011    10      7       0.1111826       31.34228
2011    11      0       0.1379386       37.4868
2011    11      1       0.1514173       40.37865
2011    11      2       0.1975298       50.41668
2011    11      3       0.3183078       73.54772
2011    11      4       0.4557017       97.07282
2011    11      5       0.3123934       72.68206
2011    11      6       0.3291874       75.89272
2011    11      7       0.3817734       85.27649
2011    12      0       0.438896        95.25353
2011    12      1       0.5219562       108.6626
2011    12      2       0.5873327       117.9683
2011    12      3       0.3893919       86.09617
2011    12      4       0.3842411       85.61014
2011    12      5       0.5591422       113.6091
2011    12      6       0.558731        113.4579
2011    12      7       0.4268023       92.43732
2011    13      0       0.4810679       100.7373
2011    13      1       0.5297641       107.9183
2011    13      2       0.3004908       69.38771
2011    13      3       0.4133184       89.21887
2011    13      4       0.4554904       95.92347
2011    13      5       0.3099291       70.97433
2011    13      6       0.2124476       52.20342
2011    13      7       0.2083474       51.27383
2011    14      0       0.1932341       48.105
2011    14      1       0.1837658       46.0772
2011    14      2       0.2198976       53.38675
2011    14      3       0.378077        82.85162
2011    14      4       0.3272762       73.9568
2011    14      5       0.2347269       56.54332
2011    14      6       0.2020493       50.08666
2011    14      7       0.1679682       43.12047
2011    15      0       0.1785642       45.31647
2011    15      1       0.2031775       50.4381
2011    15      2       0.2296375       55.74958
2011    15      3       0.2089502       51.8498
2011    15      4       0.2041478       51.10393
2011    15      5       0.2642796       63.03272
2011    15      6       0.3591828       80.68388
2011    15      7       0.3336892       76.02618
2011    16      0       0.4153195       90.15963
2011    16      1       0.4088169       89.31118
2011    16      2       0.4494831       96.28081
2011    16      3       0.3732346       83.21057
2011    16      4       0.2435516       59.32692
2011    16      5       0.3655665       81.7924
2011    16      6       0.2771399       65.79107
2011    16      7       0.269572        64.39989
2011    17      0       0.2875097       67.88693
2011    17      1       0.3110062       72.0854
2011    17      2       0.3278792       75.00963
2011    17      3       0.259496        62.22472
2011    17      4       0.2215698       54.71708
2011    17      5       0.220632        54.61037
2011    17      6       0.2161317       53.78086
2011    17      7       0.2470008       60.08842
2011    18      0       0.2797148       66.53109
2011    18      1       0.298103        69.82576
2011    18      2       0.3405788       77.68655
2011    18      3       0.3366938       77.26746
2011    18      4       0.3395128       77.624
2011    18      5       0.3866301       85.95261
2011    18      6       0.4091371       90.00506
2011    18      7       0.4639597       99.19058
2011    19      0       0.4113779       90.18623
2011    19      1       0.3015257       70.71378
2011    19      2       0.3603325       81.51073
2011    19      3       0.4078517       89.69016
2011    19      4       0.3899375       86.911
2011    19      5       0.7950286       144.3923
2011    19      6       0.6334445       123.2215
2011    19      7       0.314787        72.66326
2011    20      0       0.1507736       39.87376
2011    20      1       0.1366806       36.77908
2011    20      2       0.2030311       50.72624
2011    20      3       0.2674796       63.39683
2011    20      4       0.3066701       70.83152
2011    20      5       0.2970553       69.11031
2011    20      6       0.3183699       72.76846
2011    20      7       0.3181123       72.84713
2011    21      0       0.2167153       53.62629
2011    21      1       0.2158647       53.13504
2011    21      2       0.3571103       80.05805
2011    21      3       0.4057585       88.47762
2011    21      4       0.4010933       87.81318
2011    21      5       0.4029719       88.61878
2011    21      6       0.5125394       106.1479
2011    21      7       0.7681718       140.1943
2011    22      0       0.6573942       125.4801
2011    22      1       0.4838965       100.5599
2011    22      2       0.3066996       70.5917
2011    22      3       0.2236341       54.61995
2011    22      4       0.2073466       51.36656
2011    22      5       0.1924317       48.3065
2011    22      6       0.1957548       48.99059
2011    22      7       0.2234052       54.62439
2011    23      0       0.316919        72.21931
2011    23      1       0.3495088       78.20493
2011    23      2       0.4176075       90.33043
2011    23      3       0.429428        92.3799
2011    23      4       0.3334194       75.90463
2011    23      5       0.4257902       91.14803
2011    23      6       0.3065705       70.28645
2011    23      7       0.2553896       60.23768
2011    24      0       0.1866117       46.52741
2011    24      1       0.1591487       40.80453
2011    24      2       0.1489035       38.68861
2011    24      3       0.143021        37.46665
2011    24      4       0.1322303       35.22298
2011    24      5       0.1241946       33.55047
2011    24      6       0.12263         33.27998
2011    24      7       0.1315917       35.24536
2011    25      0       0.1435867       37.91315
2011    25      1       0.1672268       42.98079
2011    25      2       0.186508        47.05855
2011    25      3       0.1959304       49.1334
2011    25      4       0.2041833       50.98543
2011    25      5       0.2256648       55.46927
2011    25      6       0.2558493       61.47252
2011    25      7       0.2947818       68.70979
2011    26      0       0.4171609       89.90157
2011    26      1       0.3210441       72.85592
2011    26      2       0.1882846       47.18868
2011    26      3       0.1681959       43.00389
2011    26      4       0.1487353       39.02208
2011    26      5       0.1181816       32.38915
2011    26      6       0.1164628       31.91163
2011    26      7       0.1185304       32.32969
2011    27      0       0.1371432       36.45425
2011    27      1       0.1558339       40.36294
2011    27      2       0.1671771       42.73602
2011    27      3       0.181336        45.68092
2011    27      4       0.2103415       51.69147
2011    27      5       0.233135        56.31545
2011    27      6       0.2561251       60.7868
2011    27      7       0.2739515       64.0493
2011    28      0       0.2120734       52.02424
2011    28      1       0.1939789       48.24028
2011    28      2       0.1523178       39.69687
2011    28      3       0.1354501       36.13956
2011    28      4       0.1501978       39.15459
2011    28      5       0.1771352       44.66712
2011    28      6       0.1648232       42.11029
2011    28      7       0.1471706       38.38441
2011    29      0       0.1572498       40.55441
2011    29      1       0.2080849       51.06593
2011    29      2       0.2338455       56.19548
2011    29      3       0.2603073       61.23075
2011    29      4       0.333832        74.61713
2011    29      5       0.3218612       73.47515
2011    29      6       0.2682352       63.55332
2011    29      7       0.2108477       51.16997
2011    30      0       0.1502826       38.68854
2011    30      1       0.1218776       32.53131
2011    30      2       0.1190069       31.90002
2011    30      3       0.1243063       33.07203
2011    30      4       0.1322579       34.8162
2011    30      5       0.1392033       36.34095
2011    30      6       0.1418147       36.89595
2011    30      7       0.1398704       36.48156
2011    31      0       0.13594         35.64872
2011    31      1       0.1337066       35.19505
2011    31      2       0.1359935       35.70095
2011    31      3       0.1325284       34.8695
2011    31      4       0.1228748       32.62723
2011    31      5       0.1164575       31.17205
2011    31      6       0.1146823       30.80117
2011    31      7       0.1238369       32.74702
2012    1       0       0.0812668       24.11987
2012    1       1       0.0832228       24.52099
2012    1       2       0.0867686       25.28456
2012    1       3       0.09019171      26.05189
2012    1       4       0.09375911      26.84536
2012    1       5       0.1035021       28.96263
2012    1       6       0.1116129       30.74151
2012    1       7       0.1173972       32.00857
2012    2       0       0.1321797       35.26966
2012    2       1       0.1493547       38.96686
2012    2       2       0.1517188       39.40834
2012    2       3       0.1508888       39.24159
2012    2       4       0.1435028       37.61731
2012    2       5       0.1429518       37.39027
2012    2       6       0.1307845       34.75501
2012    2       7       0.1225014       32.89699
2012    3       0       0.1147897       31.16034
2012    3       1       0.109769        30.00378
2012    3       2       0.1021005       28.55921
2012    3       3       0.09512213      27.03497
2012    3       4       0.09604648      27.33513
2012    3       5       0.09044037      26.10924
2012    3       6       0.08651562      24.79679
2012    3       7       0.08273514      24.11941
2012    4       0       0.09403492      26.58339
2012    4       1       0.1070893       29.49718
2012    4       2       0.117059        31.84273
2012    4       3       0.1146743       31.01859
2012    4       4       0.1221308       32.95619
2012    4       5       0.1106516       30.31626
2012    4       6       0.09714401      27.51973
2012    4       7       0.1006151       28.4694
2012    5       0       0.1193683       32.81332
2012    5       1       0.1470035       38.46861
2012    5       2       0.1585918       40.90642
2012    5       3       0.1930479       48.57898
2012    5       4       0.2276398       55.5017
2012    5       5       0.241036        58.08591
2012    5       6       0.2314118       56.25139
2012    5       7       0.1944563       48.82262
2012    6       0       0.1622628       42.32973
2012    6       1       0.1281946       34.77241
2012    6       2       0.1316261       35.01695
2012    6       3       0.1265038       33.95945
2012    6       4       0.129242        34.73661
2012    6       5       0.1536349       40.04582
2012    6       6       0.1967724       48.98043
2012    6       7       0.3098869       70.69208
2012    7       0       0.2968074       68.30292
2012    7       1       0.3005745       68.87673
2012    7       2       0.2682252       62.84557
2012    7       3       0.2086779       51.3095
2012    7       4       0.1420754       37.52063
2012    7       5       0.1412767       37.34588
2012    7       6       0.1434344       37.80022
2012    7       7       0.1440229       37.91811
2012    8       0       0.1393907       36.95844
2012    8       1       0.1266347       34.2376
2012    8       2       0.1281069       34.58419
2012    8       3       0.1270883       34.36739
2012    8       4       0.1204573       32.97829
2012    8       5       0.1149848       31.77087
2012    8       6       0.1025379       29.0369
2012    8       7       0.09327339      27.05447
2012    9       0       0.101676        29.03082
2012    9       1       0.1479147       39.3566
2012    9       2       0.205423        51.224
2012    9       3       0.3283351       74.36566
2012    9       4       0.4499864       95.23315
2012    9       5       0.5016418       103.6895
2012    9       6       0.5083395       104.8599
2012    9       7       0.3847513       84.69868
2012    10      0       0.3900668       85.74999
2012    10      1       0.5163731       106.188
2012    10      2       0.421686        91.05764
2012    10      3       0.4676647       98.79424
2012    10      4       0.5855748       116.4648
2012    10      5       0.5163884       106.1769
2012    10      6       0.3969184       86.99656
2012    10      7       0.3314936       75.39207
2012    11      0       0.3350374       75.944
2012    11      1       0.3141584       72.19387
2012    11      2       0.2814932       66.25024
2012    11      3       0.2933369       68.42746
2012    11      4       0.4930889       102.0151
2012    11      5       0.4349435       92.92719
2012    11      6       0.3836739       84.13203
2012    11      7       0.3965269       86.01624
2012    12      0       0.2931977       67.58837
2012    12      1       0.1777543       44.90306
2012    12      2       0.2323076       56.35453
2012    12      3       0.328745        74.80233
2012    12      4       0.45112         96.33186
2012    12      5       0.531135        109.4505
2012    12      6       0.646635        126.691
2012    12      7       0.6864496       131.5498
2012    13      0       0.661987        128.4832
2012    13      1       0.6265528       122.798
2012    13      2       0.6226796       122.1415
2012    13      3       0.5354589       109.5686
2012    13      4       0.6807074       129.6668
2012    13      5       0.6956001       131.1618
2012    13      6       0.6628709       126.8032
2012    13      7       0.6564763       124.9381
2012    14      0       0.4240379       90.05774
2012    14      1       0.2515521       59.55011
2012    14      2       0.2019099       49.73081
2012    14      3       0.177211        44.66486
2012    14      4       0.1951205       48.27016
2012    14      5       0.2049014       50.2518
2012    14      6       0.2142278       52.25121
2012    14      7       0.224504        54.37746
2012    15      0       0.2333054       56.13175
2012    15      1       0.2843604       65.99098
2012    15      2       0.3846236       83.78116
2012    15      3       0.3607647       79.6349
2012    15      4       0.2612613       61.49927
2012    15      5       0.1924026       47.83866
2012    15      6       0.1489          38.69982
2012    15      7       0.1397944       37.07901
2012    16      0       0.1459984       38.28804
2012    16      1       0.1496306       38.97678
2012    16      2       0.1569029       40.47839
2012    16      3       0.1470059       38.2963
2012    16      4       0.1387013       36.46269
2012    16      5       0.133973        35.39042
2012    16      6       0.1234184       32.86145
2012    16      7       0.1122979       30.45096
2012    17      0       0.1048663       28.82044
2012    17      1       0.09961447      27.66334
2012    17      2       0.09297346      26.19593
2012    17      3       0.09236119      26.1003
2012    17      4       0.09502161      26.76753
2012    17      5       0.1066059       29.41382
2012    17      6       0.1067388       29.4946
2012    17      7       0.09799902      27.59771
2012    18      0       0.09375854      26.70679
2012    18      1       0.08740264      25.34621
2012    18      2       0.07305048      22.08248
2012    18      3       0.07398839      22.36954
2012    18      4       0.07363635      22.31224
2012    18      5       0.06946388      21.19075
2012    18      6       0.06421048      19.8857
2012    18      7       0.06549387      20.16617
2012    19      0       0.08214868      24.01581
2012    19      1       0.09133749      26.08292
2012    19      2       0.1015047       28.32328
2012    19      3       0.1123739       30.62184
2012    19      4       0.1176469       31.73488
2012    19      5       0.121235        32.52833
2012    19      6       0.1208879       32.42319
2012    19      7       0.1202971       32.25136
2012    20      0       0.1190762       31.94188
2012    20      1       0.1289894       34.02255
2012    20      2       0.1382698       36.03115
2012    20      3       0.1338663       35.19587
2012    20      4       0.1133187       30.90055
2012    20      5       0.08982605      25.76474
2012    20      6       0.0821638       24.07429
2012    20      7       0.07887071      23.3567
2012    21      0       0.07353969      22.14734
2012    21      1       0.06978182      21.33458
2012    21      2       0.07164196      21.78315
2012    21      3       0.07176562      21.79292
2012    21      4       0.07160241      21.77314
2012    21      5       0.06924146      21.22649
2012    21      6       0.06761197      20.82919
2012    21      7       0.06351302      19.86985
2012    22      0       0.05909999      18.86602
2012    22      1       0.05705844      18.42144
2012    22      2       0.06083344      19.3097
2012    22      3       0.06750068      20.86429
2012    22      4       0.07785164      23.27443
2012    22      5       0.09062575      26.19395
2012    22      6       0.09792261      27.84125
2012    22      7       0.09951945      28.2192
2012    23      0       0.1008958       28.51605
2012    23      1       0.1021735       28.77019
2012    23      2       0.1072578       29.85593
2012    23      3       0.1128001       31.05119
2012    23      4       0.1182627       32.27898
2012    23      5       0.1234256       33.85471
2012    23      6       0.1361757       36.27848
2012    23      7       0.1334072       35.75946
2012    24      0       0.1190675       32.68477
2012    24      1       0.109101        30.50523
2012    24      2       0.115272        31.79778
2012    24      3       0.1219645       33.27102
2012    24      4       0.1212447       33.21237
2012    24      5       0.1159888       32.1364
2012    24      6       0.1216579       33.31909
2012    24      7       0.1930927       48.76372
2012    25      0       0.1973606       49.58665
2012    25      1       0.2580309       61.96824
2012    25      2       0.2862596       67.51665
2012    25      3       0.2012872       50.7069
2012    25      4       0.171595        44.49188
2012    25      5       0.1562055       41.06672
2012    25      6       0.1657524       43.04305
2012    25      7       0.2065096       51.60771
2012    26      0       0.2154016       53.47221
2012    26      1       0.2415288       59.08063
2012    26      2       0.2858384       67.83895
2012    26      3       0.3563788       80.88747
2012    26      4       0.3879073       86.33447
2012    26      5       0.4074292       89.60144
2012    26      6       0.3919589       87.30048
2012    26      7       0.3293659       76.57791
2012    27      0       0.286912        68.79027
2012    27      1       0.3001729       71.46787
2012    27      2       0.3126597       74.18959
2012    27      3       0.3284253       77.15183
2012    27      4       0.3388699       78.99719
2012    27      5       0.3297751       77.29103
2012    27      6       0.3272563       76.89693
2012    27      7       0.3381524       78.88702
2012    28      0       0.3578449       82.36063
2012    28      1       0.3904116       87.8747
2012    28      2       0.370523        84.43904
2012    28      3       0.3751467       84.98996
2012    28      4       0.3965943       88.34976
2012    28      5       0.4355208       94.74853
2012    28      6       0.4190751       92.35709
2012    28      7       0.4054861       90.10975
2012    29      0       0.3665626       83.45461
2012    29      1       0.3017133       71.93055
2012    29      2       0.274844        66.64718
2012    29      3       0.3108343       73.52049
2012    29      4       0.4046649       90.10912
2012    29      5       0.4964525       105.0458
2012    29      6       0.5852707       118.0977
2012    29      7       0.3849119       86.30697
2012    30      0       0.3067652       72.76096
2012    30      1       0.3036059       71.95724
2012    30      2       0.2616146       64.32257
2012    30      3       0.2959421       70.60067
2012    30      4       0.5524993       114.0401
2012    30      5       0.4863243       104.1849
2012    30      6       0.5129954       109.3455
2012    30      7       0.3819504       87.61862
2012    31      0       0.3543884       82.16072
2012    31      1       0.3974363       89.38693
2012    31      2       0.3256694       76.20412
2012    31      3       0.3529596       80.78833
2012    31      4       0.340346        78.53198
2012    31      5       0.3656783       82.98469
2012    31      6       0.3635322       82.3328
2012    31      7       0.3534785       80.54847
2013    1       0       0.1147226       31.44596
2013    1       1       0.1203483       33.05258
2013    1       2       0.1108243       31.04417
2013    1       3       0.1367663       37.14262
2013    1       4       0.1525648       40.70401
2013    1       5       0.1653519       43.35758
2013    1       6       0.1726052       44.63572
2013    1       7       0.1723356       44.53535
2013    2       0       0.1838781       47.09535
2013    2       1       0.1818002       47.0246
2013    2       2       0.179204        46.79475
2013    2       3       0.1631895       43.47754
2013    2       4       0.1595096       42.88643
2013    2       5       0.1424735       39.15453
2013    2       6       0.1155862       32.99233
2013    2       7       0.09818405      28.88204
2013    3       0       0.0732636       22.59568
2013    3       1       0.07422003      22.64527
2013    3       2       0.1102571       30.76008
2013    3       3       0.1504437       39.6889
2013    3       4       0.139559        37.47003
2013    3       5       0.176075        45.31682
2013    3       6       0.2451229       59.20107
2013    3       7       0.3208823       73.69888
2013    4       0       0.3375092       76.78145
2013    4       1       0.247609        59.77943
2013    4       2       0.2525585       60.67487
2013    4       3       0.2318085       56.88718
2013    4       4       0.1413452       38.20253
2013    4       5       0.1904508       49.09002
2013    4       6       0.2229354       55.95291
2013    4       7       0.1749256       45.80137
2013    5       0       0.1445673       39.03165
2013    5       1       0.09419337      27.39396
2013    5       2       0.09675441      27.86035
2013    5       3       0.107553        30.26143
2013    5       4       0.1259373       34.41904
2013    5       5       0.1844501       46.91295
2013    5       6       0.1704645       44.19881
2013    5       7       0.1673132       43.73247
2013    6       0       0.2021026       51.22851
2013    6       1       0.2750304       66.11531
2013    6       2       0.6580067       129.5011
2013    6       3       1.07048         177.0734
2013    6       4       0.6578592       130.5473
2013    6       5       0.5725774       118.4576
2013    6       6       0.6643997       131.5485
2013    6       7       0.9447081       164.2711
2013    7       0       1.114494        180.5042
2013    7       1       1.171327        185.6413
2013    7       2       1.224231        190.4873
2013    7       3       1.317238        198.0856
2013    7       4       1.810874        226.8382
2013    7       5       1.607772        216.7568
2013    7       6       1.50886         210.9341
2013    7       7       1.317346        198.3765
2013    8       0       1.352326        201.012
2013    8       1       1.05225         176.5098
2013    8       2       1.017071        172.8842
2013    8       3       1.377855        201.3033
2013    8       4       1.112705        179.9214
2013    8       5       1.062425        174.5858
2013    8       6       0.4560402       98.6119
2013    8       7       0.2896657       68.81976
2013    9       0       0.3128488       73.7323
2013    9       1       0.4207321       93.46752
2013    9       2       0.7996361       147.3929
2013    9       3       0.9086141       158.9907
2013    9       4       0.765975        142.6323
2013    9       5       0.3716154       84.19143
2013    9       6       0.2406777       59.1759
2013    9       7       0.2845314       67.40958
2013    10      0       0.3924524       86.67171
2013    10      1       0.5616277       113.5156
2013    10      2       0.6665903       127.7684
2013    10      3       0.596362        117.9153
2013    10      4       0.525317        107.6221
2013    10      5       0.2683652       63.66093
2013    10      6       0.201922        50.14157
2013    10      7       0.2805095       65.22899
2013    11      0       0.1424567       37.71109
2013    11      1       0.09518454      27.26506
2013    11      2       0.09020421      26.0503
2013    11      3       0.09051241      26.0792
2013    11      4       0.09361493      26.80026
2013    11      5       0.07757687      23.13996
2013    11      6       0.06701428      20.60172
2013    11      7       0.07439006      22.20464
2013    12      0       0.08237994      24.01139
2013    12      1       0.07734599      22.90085
2013    12      2       0.07583368      22.58744
2013    12      3       0.08165037      23.88366
2013    12      4       0.08523945      24.69459
2013    12      5       0.08671786      25.05119
2013    12      6       0.09123271      26.11852
2013    12      7       0.0980853       27.72189
2013    13      0       0.1115655       30.87746
2013    13      1       0.12531         33.85312
2013    13      2       0.1542561       40.00088
2013    13      3       0.1591867       41.19982
2013    13      4       0.1983192       48.98227
2013    13      5       0.1560715       40.62514
2013    13      6       0.1373657       36.80594
2013    13      7       0.137942        36.96385
2013    14      0       0.1593686       41.53829
2013    14      1       0.2141484       52.96676
2013    14      2       0.2461293       59.41049
2013    14      3       0.3336879       75.89777
2013    14      4       0.5309769       109.6829
2013    14      5       0.4308533       94.12239
2013    14      6       0.4131496       89.97235
2013    14      7       0.3940601       86.67835
2013    15      0       0.4686983       100.5842
2013    15      1       0.455092        97.49871
2013    15      2       0.3976945       87.7773
2013    15      3       0.4106163       88.54517
2013    15      4       0.3474723       78.14418
2013    15      5       0.2642338       62.54875
2013    15      6       0.2814228       65.62134
2013    15      7       0.2854504       66.1487
2013    16      0       0.2185102       53.24737
2013    16      1       0.1572144       40.05583
2013    16      2       0.1381673       36.02079
2013    16      3       0.1156598       31.20553
2013    16      4       0.08729105      25.21139
2013    16      5       0.08014002      23.62655
2013    16      6       0.08032172      23.66593
2013    16      7       0.0911436       25.923
2013    17      0       0.0951121       27.07173
2013    17      1       0.09935924      28.03844
2013    17      2       0.09952944      27.75397
2013    17      3       0.1179926       31.81275
2013    17      4       0.1297296       34.33138
2013    17      5       0.1438286       37.32997
2013    17      6       0.151352        38.88535
2013    17      7       0.13804         36.09033
2013    18      0       0.2218679       53.35024
2013    18      1       0.2527169       59.62202
2013    18      2       0.2934613       67.37714
2013    18      3       0.345046        76.91017
2013    18      4       0.3532328       78.48566
2013    18      5       0.3186415       72.35986
2013    18      6       0.1649423       42.36206
2013    18      7       0.1408137       37.35332
2013    19      0       0.1221751       33.3616
2013    19      1       0.1124895       31.1922
2013    19      2       0.1183452       32.47579
2013    19      3       0.1563153       40.55514
2013    19      4       0.2910025       67.07889
2013    19      5       0.3112437       71.05894
2013    19      6       0.3055981       70.22353
2013    19      7       0.3390399       76.62996
2013    20      0       0.3118206       71.52829
2013    20      1       0.284745        66.66275
2013    20      2       0.2747012       64.85338
2013    20      3       0.2850934       66.80651
2013    20      4       0.290942        68.03544
2013    20      5       0.2658972       63.67537
2013    20      6       0.2550979       61.66634
2013    20      7       0.2526172       61.14655
2013    21      0       0.253601        61.32181
2013    21      1       0.2400313       58.88645
2013    21      2       0.2767703       66.52564
2013    21      3       0.5812481       118.8917
2013    21      4       0.8153589       149.4589
2013    21      5       0.6189904       122.5972
2013    21      6       0.6550746       128.0761
2013    21      7       0.6660516       130.0133
2013    22      0       0.5034038       106.1092
2013    22      1       0.5190352       107.8014
2013    22      2       0.4500192       97.28598
2013    22      3       0.371807        84.44438
2013    22      4       0.3648194       83.15632
2013    22      5       0.3917415       87.61974
2013    22      6       0.4920433       103.3216
2013    22      7       0.7802042       142.509
2013    23      0       0.6306003       122.6806
2013    23      1       0.5141168       105.3402
2013    23      2       0.3854025       85.00411
2013    23      3       0.3212199       73.09446
2013    23      4       0.2336257       56.08416
2013    23      5       0.1376373       36.10279
2013    23      6       0.1608156       40.85595
2013    23      7       0.1348173       35.32871
2013    24      0       0.1070274       29.34291
2013    24      1       0.1303517       34.40914
2013    24      2       0.1400357       36.57654
2013    24      3       0.09591185      27.29836
2013    24      4       0.09065771      26.0516
2013    24      5       0.08832116      25.61014
2013    24      6       0.08680389      25.29929
2013    24      7       0.08402498      24.72658
2013    25      0       0.08084466      24.06343
2013    25      1       0.07381268      22.46564
2013    25      2       0.07002067      21.57758
2013    25      3       0.07158217      21.92946
2013    25      4       0.07246235      22.16993
2013    25      5       0.0738652       22.49607
2013    25      6       0.07730907      23.27132
2013    25      7       0.07261334      22.16215
2013    26      0       0.07142346      21.8692
2013    26      1       0.07972084      23.78089
2013    26      2       0.08362333      24.63076
2013    26      3       0.0775331       23.19273
2013    26      4       0.07563164      22.70057
2013    26      5       0.07711768      22.99571
2013    26      6       0.07811698      23.18722
2013    26      7       0.08035944      23.67957
2013    27      0       0.07945997      23.47257
2013    27      1       0.07458311      22.36144
2013    27      2       0.071364        21.62859
2013    27      3       0.07093553      21.56746
2013    27      4       0.07163426      21.76014
2013    27      5       0.07081082      21.5997
2013    27      6       0.07025724      21.51384
2013    27      7       0.07118775      21.78912
2013    28      0       0.08924014      26.0339
2013    28      1       0.08700204      25.55635
2013    28      2       0.09498868      27.44053
2013    28      3       0.1375278       36.97664
2013    28      4       0.2611894       62.687
2013    28      5       0.3677601       82.59299
2013    28      6       0.3499648       79.89027
2013    28      7       0.3751428       84.31544
2013    29      0       0.4194479       91.62891
2013    29      1       0.4139351       90.90934
2013    29      2       0.4752425       100.37
2013    29      3       0.6434178       124.7571
2013    29      4       0.6249588       121.9434
2013    29      5       0.5723253       114.6269
2013    29      6       0.4565624       97.14308
2013    29      7       0.3623867       81.348
2013    30      0       0.2767531       65.81171
2013    30      1       0.2633227       63.43742
2013    30      2       0.2444756       59.69834
2013    30      3       0.2305348       57.00623
2013    30      4       0.232304        57.5221
2013    30      5       0.2360797       58.38718
2013    30      6       0.2372404       58.65193
2013    30      7       0.2313607       57.39668
2013    31      0       0.230427        57.20154
2013    31      1       0.2361843       58.32427
2013    31      2       0.2310787       57.27883
2013    31      3       0.2365182       58.3705
2013    31      4       0.2526286       61.47859
2013    31      5       0.2555886       62.00842
2013    31      6       0.2628152       63.38305
2013    31      7       0.2825516       67.22468
2014    1       0       0.4368905       92.97636
2014    1       1       0.3150431       72.20289
2014    1       2       0.2632133       62.59636
2014    1       3       0.211884        52.64671
2014    1       4       0.1591722       41.73659
2014    1       5       0.1381059       37.21395
2014    1       6       0.1407998       37.75984
2014    1       7       0.1385501       37.31618
2014    2       0       0.1355668       36.63318
2014    2       1       0.1638693       42.62551
2014    2       2       0.2763495       65.1242
2014    2       3       0.4244724       92.35393
2014    2       4       0.5455588       112.0413
2014    2       5       0.5704106       115.7614
2014    2       6       0.6270127       123.3339
2014    2       7       0.7064735       133.9196
2014    3       0       0.6943878       132.5306
2014    3       1       0.7099457       134.3457
2014    3       2       0.7240632       136.0806
2014    3       3       0.6842717       130.5387
2014    3       4       0.6158615       121.0481
2014    3       5       0.5475696       111.0594
2014    3       6       0.4566093       97.14155
2014    3       7       0.288107        67.78179
2014    4       0       0.2473521       59.90216
2014    4       1       0.216272        53.53677
2014    4       2       0.2184797       53.88012
2014    4       3       0.2135823       52.96977
2014    4       4       0.2002268       50.29695
2014    4       5       0.1939139       49.02514
2014    4       6       0.1881588       47.84284
2014    4       7       0.169291        43.89573
2014    5       0       0.1559432       41.00189
2014    5       1       0.1783805       45.76587
2014    5       2       0.238294        57.85755
2014    5       3       0.2814501       66.28649
2014    5       4       0.2979546       69.38198
2014    5       5       0.3576998       80.05705
2014    5       6       0.3742449       83.19482
2014    5       7       0.3902535       86.17051
2014    6       0       0.3638876       81.90701
2014    6       1       0.3405281       77.71837
2014    6       2       0.375369        83.63735
2014    6       3       0.3759426       83.4994
2014    6       4       0.3574893       80.07488
2014    6       5       0.3597553       80.54655
2014    6       6       0.357141        80.28818
2014    6       7       0.3229242       74.32504
2014    7       0       0.2858053       67.58452
2014    7       1       0.2704315       64.79163
2014    7       2       0.264749        63.9243
2014    7       3       0.3199042       74.25042
2014    7       4       0.407186        89.93931
2014    7       5       0.4137869       91.52515
2014    7       6       0.4778006       102.0549
2014    7       7       0.5579554       114.7281
2014    8       0       0.6303308       125.6264
2014    8       1       0.4973872       106.3579
2014    8       2       0.5802162       118.5942
2014    8       3       0.7281688       137.9035
2014    8       4       0.4984051       106.1745
2014    8       5       0.4325525       96.14181
2014    8       6       0.4254063       94.937
2014    8       7       0.4326875       95.97807
2014    9       0       0.4278588       95.00265
2014    9       1       0.411515        91.93401
2014    9       2       0.4214098       93.37442
2014    9       3       0.4243044       94.04426
2014    9       4       0.4210929       93.69161
2014    9       5       0.4373593       96.35966
2014    9       6       0.4064187       90.81478
2014    9       7       0.360874        82.48553
2014    10      0       0.3644709       82.93627
2014    10      1       0.3506075       80.30285
2014    10      2       0.4066255       90.17937
2014    10      3       0.4184875       92.10661
2014    10      4       0.4480851       97.14836
2014    10      5       0.479418        102.2774
2014    10      6       0.5165786       108.0123
2014    10      7       0.4994854       105.232
2014    11      0       0.3829341       85.74854
2014    11      1       0.3670997       82.78274
2014    11      2       0.3330502       76.56434
2014    11      3       0.3418894       78.06694
2014    11      4       0.3852247       85.60428
2014    11      5       0.4211312       91.76644
2014    11      6       0.3664351       82.47723
2014    11      7       0.331544        76.26396
2014    12      0       0.3282253       75.68801
2014    12      1       0.3354022       76.954
2014    12      2       0.3500442       79.58877
2014    12      3       0.3466413       78.94066
2014    12      4       0.3247636       74.8015
2014    12      5       0.3151739       72.89195
2014    12      6       0.3076202       71.46373
2014    12      7       0.2941198       68.9345
2014    13      0       0.2917422       68.45708
2014    13      1       0.2800042       66.35474
2014    13      2       0.2633945       63.36811
2014    13      3       0.2564388       62.08369
2014    13      4       0.2665988       64.08931
2014    13      5       0.2715526       65.10782
2014    13      6       0.2640722       63.64322
2014    13      7       0.2758421       65.80328
2014    14      0       0.3526339       80.0738
2014    14      1       0.3653926       82.50279
2014    14      2       0.3831672       85.73898
2014    14      3       0.3448418       78.90659
2014    14      4       0.2841696       67.30245
2014    14      5       0.3164188       73.94307
2014    14      6       0.4517031       98.26392
2014    14      7       0.5498213       113.587
2014    15      0       0.4371104       95.83764
2014    15      1       0.390313        88.17598
2014    15      2       0.4138332       92.36119
2014    15      3       0.4350863       95.93187
2014    15      4       0.4159341       92.70332
2014    15      5       0.39788         89.7209
2014    15      6       0.4806688       103.4737
2014    15      7       0.5138333       108.63
2014    16      0       0.4000938       90.30077
2014    16      1       0.3728841       85.54933
2014    16      2       0.3456304       80.46724
2014    16      3       0.3757102       85.41721
2014    16      4       0.4262324       93.41349
2014    16      5       0.55774         114.1095
2014    16      6       0.5419631       111.9953
2014    16      7       0.4651569       99.45007
2014    17      0       0.4428133       95.61573
2014    17      1       0.2931861       69.66354
2014    17      2       0.3351137       77.74748
2014    17      3       0.398739        88.6919
2014    17      4       0.3879308       86.81619
2014    17      5       0.3751459       84.69505
2014    17      6       0.3695894       83.42651
2014    17      7       0.3973189       88.00916
2014    18      0       0.3726688       83.68063
2014    18      1       0.358126        81.21634
2014    18      2       0.3310448       76.33878
2014    18      3       0.3148228       73.41618
2014    18      4       0.3001013       70.63876
2014    18      5       0.2923073       69.12372
2014    18      6       0.2718328       65.21152
2014    18      7       0.2294139       56.91355
2014    19      0       0.1844801       47.75619
2014    19      1       0.1618669       43.01542
2014    19      2       0.1635059       43.43644
2014    19      3       0.1402339       38.31224
2014    19      4       0.1059584       30.51234
2014    19      5       0.1797672       47.33052
2014    19      6       0.1711203       45.58021
2014    19      7       0.1420762       39.11685
2014    20      0       0.1393346       38.43565
2014    20      1       0.1435288       39.31072
2014    20      2       0.172144        45.65727
2014    20      3       0.2465836       61.15183
2014    20      4       0.2817611       67.97085
2014    20      5       0.2867849       68.79385
2014    20      6       0.2836326       68.17649
2014    20      7       0.2603172       63.78526
2014    21      0       0.2021551       52.10991
2014    21      1       0.2143969       54.82929
2014    21      2       0.2808547       67.96233
2014    21      3       0.3376821       78.37258
2014    21      4       0.4116272       91.6696
2014    21      5       0.3676972       83.88202
2014    21      6       0.3478042       80.31063
2014    21      7       0.3615829       82.75183
2014    22      0       0.362577        82.82962
2014    22      1       0.3762687       85.13842
2014    22      2       0.3920725       87.84186
2014    22      3       0.3964297       88.55258
2014    22      4       0.402356        89.47363
2014    22      5       0.4085497       90.51012
2014    22      6       0.3957385       88.22154
2014    22      7       0.3880892       86.82538
2014    23      0       0.3865653       86.38771
2014    23      1       0.3964746       87.95422
2014    23      2       0.3512712       80.12752
2014    23      3       0.3428468       78.73052
2014    23      4       0.344535        78.9399
2014    23      5       0.3466972       79.11136
2014    23      6       0.3354967       77.11315
2014    23      7       0.3413326       78.16094
2014    24      0       0.3334418       76.65992
2014    24      1       0.2966001       69.81741
2014    24      2       0.2853009       67.63659
2014    24      3       0.294143        69.25507
2014    24      4       0.3109728       72.40802
2014    24      5       0.2686764       64.50968
2014    24      6       0.2441941       59.55599
2014    24      7       0.2425593       59.17733
2014    25      0       0.2498937       60.56254
2014    25      1       0.3191558       73.44356
2014    25      2       0.4147154       90.26439
2014    25      3       0.3769176       83.79147
2014    25      4       0.3312907       75.96894
2014    25      5       0.310255        72.10759
2014    25      6       0.3101672       72.04251
2014    25      7       0.3069751       71.62054
2014    26      0       0.4188508       91.42706
2014    26      1       0.4163838       90.9702
2014    26      2       0.5141234       106.2193
2014    26      3       0.474842        100.1229
2014    26      4       0.6144767       120.3141
2014    26      5       0.6083532       119.4268
2014    26      6       0.5650329       113.5386
2014    26      7       0.3237618       74.06424
2014    27      0       0.2587913       61.81519
2014    27      1       0.2722471       64.2899
2014    27      2       0.289701        67.45094
2014    27      3       0.4169143       89.72782
2014    27      4       0.1682893       43.28013
2014    27      5       0.08845879      25.84537
2014    27      6       0.06546885      20.51811
2014    27      7       0.05879135      18.85841
2014    28      0       0.06307196      19.91765
2014    28      1       0.0619512       19.73224
2014    28      2       0.0658055       20.66258
2014    28      3       0.07840473      23.60771
2014    28      4       0.08887529      25.89945
2014    28      5       0.1015354       28.70423
2014    28      6       0.1337813       36.14653
2014    28      7       0.2233739       55.67516
2014    29      0       0.2946254       69.28647
2014    29      1       0.2573483       62.60749
2014    29      2       0.3040991       71.85473
2014    29      3       0.3831106       86.56051
2014    29      4       0.3981196       88.23811
2014    29      5       0.4171714       92.33438
2014    29      6       0.4261011       94.02344
2014    29      7       0.4964982       105.6565
2014    30      0       0.5438385       112.6133
2014    30      1       0.5415799       112.3743
2014    30      2       0.5914036       119.5107
2014    30      3       0.6433464       126.7407
2014    30      4       0.5747146       118.2552
2014    30      5       0.4360105       97.01307
2014    30      6       0.4892992       105.5854
2014    30      7       0.6342284       126.9639
2014    31      0       0.7539155       142.2841
2014    31      1       0.6286164       126.3541
2014    31      2       0.661837        129.7031
2014    31      3       0.4877273       104.4698
2014    31      4       0.3730686       85.08452
2014    31      5       0.5291268       109.9844
2014    31      6       0.7036047       133.8683
2014    31      7       0.7152807       135.1982
2015    1       0       0.2429133       59.66163
2015    1       1       0.2395902       59.00952
2015    1       2       0.2470185       60.46835
2015    1       3       0.2375009       58.51396
2015    1       4       0.2328741       57.5851
2015    1       5       0.2485424       60.62329
2015    1       6       0.2753612       65.60835
2015    1       7       0.2512047       61.04854
2015    2       0       0.2907417       68.62482
2015    2       1       0.3494365       79.39402
2015    2       2       0.3392481       77.6596
2015    2       3       0.3532535       80.14577
2015    2       4       0.3992404       88.01122
2015    2       5       0.5410149       110.5365
2015    2       6       0.607252        120.0012
2015    2       7       0.5754024       115.2796
2015    3       0       0.5216313       107.4205
2015    3       1       0.5025595       104.4173
2015    3       2       0.39423         86.85028
2015    3       3       0.3313296       75.66774
2015    3       4       0.3572869       80.15024
2015    3       5       0.3624039       81.087
2015    3       6       0.3597932       80.75412
2015    3       7       0.3805514       84.35868
2015    4       0       0.3478057       78.50089
2015    4       1       0.309718        71.56646
2015    4       2       0.2746547       65.03653
2015    4       3       0.2523996       60.71353
2015    4       4       0.265997        63.34101
2015    4       5       0.3879313       85.1657
2015    4       6       0.3880503       85.36491
2015    4       7       0.462633        97.69466
2015    5       0       0.3959059       86.57341
2015    5       1       0.3001707       69.53109
2015    5       2       0.2497774       60.06941
2015    5       3       0.2406481       58.48225
2015    5       4       0.2267034       55.80045
2015    5       5       0.2278311       55.99224
2015    5       6       0.2381913       57.9164
2015    5       7       0.2453072       59.18414
2015    6       0       0.2537301       60.77607
2015    6       1       0.2513103       60.32077
2015    6       2       0.2336655       56.85558
2015    6       3       0.2179092       53.75414
2015    6       4       0.2057685       51.41112
2015    6       5       0.1957401       49.4369
2015    6       6       0.1859552       47.49967
2015    6       7       0.1930086       49.01722
2015    7       0       0.2138311       53.35459
2015    7       1       0.2260093       55.76384
2015    7       2       0.2364063       57.81557
2015    7       3       0.2259608       55.75818
2015    7       4       0.236594        57.85508
2015    7       5       0.2193127       54.24557
2015    7       6       0.2199092       54.31427
2015    7       7       0.1781735       45.85288
2015    8       0       0.1730441       44.86303
2015    8       1       0.1626884       42.66028
2015    8       2       0.1382521       37.31608
2015    8       3       0.1352694       36.61784
2015    8       4       0.1360053       36.76262
2015    8       5       0.1364542       36.8576
2015    8       6       0.1373441       37.02666
2015    8       7       0.1377846       37.08737
2015    9       0       0.1369266       36.89877
2015    9       1       0.1384964       37.28071
2015    9       2       0.1621776       42.4847
2015    9       3       0.2189249       54.43709
2015    9       4       0.2847612       67.65134
2015    9       5       0.3358051       77.34392
2015    9       6       0.3478254       79.38077
2015    9       7       0.4047266       89.19255
2015    10      0       0.3662773       82.33494
2015    10      1       0.3453001       78.37708
2015    10      2       0.3490991       78.87089
2015    10      3       0.3210045       73.97159
2015    10      4       0.2851244       67.52928
2015    10      5       0.272567        65.31369
2015    10      6       0.2950228       69.60765
2015    10      7       0.32048         74.26276
2015    11      0       0.3121389       72.65918
2015    11      1       0.2984008       70.11168
2015    11      2       0.3040094       71.21411
2015    11      3       0.3260038       75.33574
2015    11      4       0.3296476       76.1153
2015    11      5       0.2915808       69.0217
2015    11      6       0.2547194       61.79297
2015    11      7       0.2543599       61.78359
2015    12      0       0.2554232       62.05056
2015    12      1       0.221307        55.35253
2015    12      2       0.1650925       43.57626
2015    12      3       0.1891489       48.44522
2015    12      4       0.227937        56.25071
2015    12      5       0.253681        61.38212
2015    12      6       0.2743188       65.35734
2015    12      7       0.2823567       66.81002
2015    13      0       0.2798748       66.24271
2015    13      1       0.2862225       67.2754
2015    13      2       0.3197138       73.42969
2015    13      3       0.321931        73.82767
2015    13      4       0.3230614       74.11917
2015    13      5       0.3021981       70.43364
2015    13      6       0.2378221       58.10479
2015    13      7       0.1911602       48.65245
2015    14      0       0.1620076       42.55236
2015    14      1       0.1732237       44.96607
2015    14      2       0.2127948       52.76302
2015    14      3       0.3268999       74.56032
2015    14      4       0.3155047       72.77441
2015    14      5       0.317991        73.2294
2015    14      6       0.3258365       74.38353
2015    14      7       0.2927291       68.49102
2015    15      0       0.272281        64.63443
2015    15      1       0.2635411       62.74657
2015    15      2       0.259839        61.98731
2015    15      3       0.2463328       59.35383
2015    15      4       0.2642138       62.7856
2015    15      5       0.3582133       80.08996
2015    15      6       0.2578485       61.47952
2015    15      7       0.2339646       56.95471
2015    16      0       0.2000805       50.33779
2015    16      1       0.1638757       42.63001
2015    16      2       0.3789374       84.03001
2015    16      3       0.443679        94.45591
2015    16      4       0.5234925       106.7267
2015    16      5       0.4370288       93.07581
2015    16      6       0.2726787       64.0781
2015    16      7       0.1777271       45.1788
2015    17      0       0.1652186       42.58184
2015    17      1       0.1802408       45.83847
2015    17      2       0.1686064       43.4587
2015    17      3       0.1667584       42.96609
2015    17      4       0.1828906       46.39289
2015    17      5       0.182839        46.42861
2015    17      6       0.2344712       57.30344
2015    17      7       0.2946619       69.09332
2015    18      0       0.2619226       62.85066
2015    18      1       0.2759009       65.44356
2015    18      2       0.2921579       68.60391
2015    18      3       0.2861509       67.6212
2015    18      4       0.2962683       69.67662
2015    18      5       0.2585395       62.22492
2015    18      6       0.2838668       67.37298
2015    18      7       0.3376537       77.36796
2015    19      0       0.2951494       69.52221
2015    19      1       0.2525956       61.4096
2015    19      2       0.2956085       69.6666
2015    19      3       0.2824671       67.11544
2015    19      4       0.2725945       65.28013
2015    19      5       0.2818951       67.09208
2015    19      6       0.2946801       69.54215
2015    19      7       0.3010607       70.74421
2015    20      0       0.3054945       71.48898
2015    20      1       0.3001127       70.42461
2015    20      2       0.2779883       66.17978
2015    20      3       0.2518417       60.9405
2015    20      4       0.2595149       62.31942
2015    20      5       0.285675        67.22467
2015    20      6       0.2816027       66.65636
2015    20      7       0.281753        66.77554
2015    21      0       0.2919298       68.53788
2015    21      1       0.3170488       72.94163
2015    21      2       0.2752931       65.21453
2015    21      3       0.2688055       63.94706
2015    21      4       0.2624216       62.60991
2015    21      5       0.2589724       61.79929
2015    21      6       0.2376509       57.64033
2015    21      7       0.2373258       57.55246
2015    22      0       0.2247711       54.99415
2015    22      1       0.2243034       54.74625
2015    22      2       0.2192819       53.5889
2015    22      3       0.2175626       53.1835
2015    22      4       0.2286295       55.23619
2015    22      5       0.2740422       63.85628
2015    22      6       0.2708748       63.23629
2015    22      7       0.2440726       58.31611
2015    23      0       0.2941259       67.89138
2015    23      1       0.2921542       67.3055
2015    23      2       0.2006371       49.46711
2015    23      3       0.1354346       35.7706
2015    23      4       0.121698        32.71391
2015    23      5       0.1465148       38.1384
2015    23      6       0.1712305       43.40957
2015    23      7       0.1858484       46.38855
2015    24      0       0.2168389       52.5181
2015    24      1       0.2425009       57.50815
2015    24      2       0.2802936       64.53392
2015    24      3       0.2293668       54.64077
2015    24      4       0.107876        29.53164
2015    24      5       0.06210031      19.27173
2015    24      6       0.063066        19.49263
2015    24      7       0.06314273      19.55567
2015    25      0       0.06137858      19.18901
2015    25      1       0.0588915       18.68213
2015    25      2       0.05546884      17.91732
2015    25      3       0.05365851      17.48805
2015    25      4       0.05593018      18.06819
2015    25      5       0.06025562      19.16937
2015    25      6       0.06072417      19.37096
2015    25      7       0.05715709      18.57858
2015    26      0       0.05751298      18.7026
2015    26      1       0.08674976      25.77715
2015    26      2       0.170691        44.84276
2015    26      3       0.2078965       52.76618
2015    26      4       0.2621125       63.67526
2015    26      5       0.2672677       64.69986
2015    26      6       0.2726364       65.74786
2015    26      7       0.2744334       65.94004
2015    27      0       0.2996917       70.47823
2015    27      1       0.291598        69.03292
2015    27      2       0.2910119       68.99268
2015    27      3       0.2907473       68.72472
2015    27      4       0.2688286       64.40689
2015    27      5       0.218533        54.35661
2015    27      6       0.1980951       50.28131
2015    27      7       0.2369203       58.55279
2015    28      0       0.2043342       51.80951
2015    28      1       0.2588149       62.61855
2015    28      2       0.3016042       70.83176
2015    28      3       0.3085643       72.27597
2015    28      4       0.365871        82.44393
2015    28      5       0.3783637       84.8461
2015    28      6       0.4626239       99.31107
2015    28      7       0.4809147       102.3041
2015    29      0       0.4480749       97.08362
2015    29      1       0.411311        90.87703
2015    29      2       0.3825178       85.91874
2015    29      3       0.3534218       80.78631
2015    29      4       0.4081927       90.12322
2015    29      5       0.4176234       91.78724
2015    29      6       0.418489        92.38131
2015    29      7       0.430528        94.64362
2015    30      0       0.3004823       71.27736
2015    30      1       0.1889942       48.6571
2015    30      2       0.1553673       41.42673
2015    30      3       0.1219855       34.13689
2015    30      4       0.1809676       46.9698
2015    30      5       0.3811834       86.7625
2015    30      6       0.478013        103.3458
2015    30      7       0.3908408       88.60309
2015    31      0       0.3284572       76.75466
2015    31      1       0.2780993       67.22844
2015    31      2       0.2551849       62.51239
2015    31      3       0.2549284       62.23928
2015    31      4       0.3855314       86.61763
2015    31      5       0.6124348       122.209
2015    31      6       0.6657106       129.8377
2015    31      7       0.3975736       89.2169
2016    1       0       0.1177385       32.11859
2016    1       1       0.1503642       39.28693
2016    1       2       0.249214        59.87234
2016    1       3       0.4113009       89.25857
2016    1       4       0.3897737       86.04184
2016    1       5       0.3643786       82.1644
2016    1       6       0.3552765       80.77521
2016    1       7       0.3855365       85.90522
2016    2       0       0.4101496       89.86092
2016    2       1       0.504301        104.4506
2016    2       2       0.3264741       75.02446
2016    2       3       0.3061757       71.34495
2016    2       4       0.5961592       117.8314
2016    2       5       0.5355608       111.8251
2016    2       6       0.3924945       87.93157
2016    2       7       0.325939        75.50388
2016    3       0       0.3587883       80.11541
2016    3       1       0.303437        69.71309
2016    3       2       0.2473344       59.02568
2016    3       3       0.2161302       52.64803
2016    3       4       0.2013264       49.54843
2016    3       5       0.1927679       47.41646
2016    3       6       0.1642019       41.57471
2016    3       7       0.1424611       37.22138
2016    4       0       0.1330644       35.0768
2016    4       1       0.1311584       34.67367
2016    4       2       0.1273944       33.84244
2016    4       3       0.1204031       32.36734
2016    4       4       0.110242        30.23948
2016    4       5       0.1006022       28.17756
2016    4       6       0.09592355      27.37825
2016    4       7       0.1011386       28.56458
2016    5       0       0.1004404       28.55778
2016    5       1       0.09944976      28.38566
2016    5       2       0.09902837      28.22668
2016    5       3       0.1024442       28.73822
2016    5       4       0.1034222       29.04017
2016    5       5       0.1088919       30.36987
2016    5       6       0.1111422       30.94585
2016    5       7       0.1135166       31.51713
2016    6       0       0.1151529       31.89585
2016    6       1       0.1155458       32.00707
2016    6       2       0.1138245       31.64932
2016    6       3       0.1125327       31.32092
2016    6       4       0.1108975       30.91532
2016    6       5       0.1080751       30.25341
2016    6       6       0.1013504       28.69
2016    6       7       0.09360356      26.86023
2016    7       0       0.08686513      25.25765
2016    7       1       0.08211463      24.14557
2016    7       2       0.08300329      24.31563
2016    7       3       0.08249442      24.17867
2016    7       4       0.08299652      24.27251
2016    7       5       0.08446284      24.58835
2016    7       6       0.08581998      24.9414
2016    7       7       0.08995757      25.91022
2016    8       0       0.09360706      26.72394
2016    8       1       0.09603323      27.28824
2016    8       2       0.09518591      27.16207
2016    8       3       0.09750581      27.75507
2016    8       4       0.1039749       29.22421
2016    8       5       0.09724363      27.78004
2016    8       6       0.0787964       23.56568
2016    8       7       0.05684479      18.32912
2016    9       0       0.05349825      17.52747
2016    9       1       0.04917784      16.51144
2016    9       2       0.04901285      16.48235
2016    9       3       0.04985344      16.68149
2016    9       4       0.04559401      15.66283
2016    9       5       0.04321612      15.09213
2016    9       6       0.04840251      16.36691
2016    9       7       0.05352688      17.58259
2016    10      0       0.06513432      20.23917
2016    10      1       0.07627938      22.79705
2016    10      2       0.1073525       29.82255
2016    10      3       0.1214261       33.00732
2016    10      4       0.1401569       37.38873
2016    10      5       0.1538338       40.61364
2016    10      6       0.1858315       47.69388
2016    10      7       0.1930594       49.40688
2016    11      0       0.2148457       53.90763
2016    11      1       0.2153674       54.01892
2016    11      2       0.2158003       54.15542
2016    11      3       0.2315223       57.44752
2016    11      4       0.2146025       54.01314
2016    11      5       0.1834816       47.62559
2016    11      6       0.1589446       42.35469
2016    11      7       0.1147455       32.36291
2016    12      0       0.08973265      26.47793
2016    12      1       0.07863702      23.83695
2016    12      2       0.09161824      26.97631
2016    12      3       0.1108942       31.50511
2016    12      4       0.1211615       33.88644
2016    12      5       0.1244702       34.682
2016    12      6       0.1276165       35.42453
2016    12      7       0.1345912       37.03566
2016    13      0       0.1334187       36.69385
2016    13      1       0.1218605       33.9705
2016    13      2       0.09419342      27.53909
2016    13      3       0.1098476       30.99813
2016    13      4       0.1327899       36.11235
2016    13      5       0.1441474       38.53857
2016    13      6       0.155363        40.87901
2016    13      7       0.145809        38.85452
2016    14      0       0.1291064       35.3447
2016    14      1       0.1428508       38.2413
2016    14      2       0.154146        40.52463
2016    14      3       0.15338         40.39067
2016    14      4       0.182975        46.7434
2016    14      5       0.1946933       49.36949
2016    14      6       0.1871649       48.02226
2016    14      7       0.1682173       44.1413
2016    15      0       0.1513949       40.49397
2016    15      1       0.1434507       38.71499
2016    15      2       0.1313892       35.97341
2016    15      3       0.1196374       33.31651
2016    15      4       0.1251128       34.67686
2016    15      5       0.2634772       63.19982
2016    15      6       0.3954068       87.66744
2016    15      7       0.6714129       130.0142
2016    16      0       0.6129453       121.8519
2016    16      1       0.5248628       108.4688
2016    16      2       0.4402724       95.19871
2016    16      3       0.4468037       95.97039
2016    16      4       0.5294876       108.5496
2016    16      5       0.5996168       118.9164
2016    16      6       0.4280998       93.15992
2016    16      7       0.3450346       78.88717
2016    17      0       0.3202731       74.57297
2016    17      1       0.3045415       71.85919
2016    17      2       0.2653763       64.41629
2016    17      3       0.3410227       78.77559
2016    17      4       0.5632463       114.4465
2016    17      5       0.4938982       104.3377
2016    17      6       0.4612993       99.07878
2016    17      7       0.4844589       102.7634
2016    18      0       0.5818686       117.0632
2016    18      1       0.5204455       107.6741
2016    18      2       0.5972187       118.7196
2016    18      3       0.5195244       107.2003
2016    18      4       0.3812708       84.74123
2016    18      5       0.301302        70.37542
2016    18      6       0.2475276       60.25286
2016    18      7       0.2441209       59.57558
2016    19      0       0.2235658       55.5196
2016    19      1       0.2142397       53.44888
2016    19      2       0.2324579       56.94882
2016    19      3       0.2970177       69.66499
2016    19      4       0.3359563       76.99535
2016    19      5       0.3556171       80.49657
2016    19      6       0.345743        78.93586
2016    19      7       0.3542412       80.57665
2016    20      0       0.2963109       69.98122
2016    20      1       0.2146816       53.59069
2016    20      2       0.342861        78.6842
2016    20      3       0.3293351       76.20856
2016    20      4       0.3118234       72.75628
2016    20      5       0.4445562       95.29211
2016    20      6       0.4704554       99.21532
2016    20      7       0.4528813       96.26636
2016    21      0       0.5260149       107.7964
2016    21      1       0.4967606       102.732
2016    21      2       0.361946        80.78229
2016    21      3       0.3296941       75.16153
2016    21      4       0.2946208       68.51822
2016    21      5       0.2835636       66.438
2016    21      6       0.2754169       64.93192
2016    21      7       0.289448        67.4783
2016    22      0       0.2946526       68.48879
2016    22      1       0.3035718       69.90608
2016    22      2       0.3856285       84.41971
2016    22      3       0.3254872       73.88277
2016    22      4       0.2769398       64.76905
2016    22      5       0.2738883       64.0441
2016    22      6       0.2267291       54.86971
2016    22      7       0.1882364       47.23723
2016    23      0       0.1330034       35.57641
2016    23      1       0.1217601       33.09292
2016    23      2       0.1249266       33.67496
2016    23      3       0.1541579       39.94314
2016    23      4       0.1836797       46.04478
2016    23      5       0.4158443       88.9785
2016    23      6       0.2963019       68.24835
2016    23      7       0.2264234       54.95536
2016    24      0       0.2926626       67.72702
2016    24      1       0.3428379       76.69348
2016    24      2       0.3823667       83.40262
2016    24      3       0.2193377       53.60893
2016    24      4       0.2194433       53.66505
2016    24      5       0.1719833       43.95681
2016    24      6       0.165482        42.56142
2016    24      7       0.1712299       43.67484
2016    25      0       0.2332244       56.58015
2016    25      1       0.2515913       60.28464
2016    25      2       0.3724117       83.10046
2016    25      3       0.3619835       81.39763
2016    25      4       0.3737897       83.49523
2016    25      5       0.3720865       83.25037
2016    25      6       0.345411        78.73113
2016    25      7       0.3417569       78.12363
2016    26      0       0.3376057       77.35016
2016    26      1       0.3208481       74.32861
2016    26      2       0.3182133       73.95204
2016    26      3       0.2979964       70.06403
2016    26      4       0.2713729       64.29871
2016    26      5       0.2557058       61.25995
2016    26      6       0.2521658       60.74522
2016    26      7       0.3307787       75.62967
2016    27      0       0.3912702       86.49104
2016    27      1       0.3714664       83.13036
2016    27      2       0.3458613       78.50199
2016    27      3       0.3385069       76.90926
2016    27      4       0.3063972       70.99816
2016    27      5       0.4178738       90.62071
2016    27      6       0.4257468       91.70764
2016    27      7       0.3933114       86.3033
2016    28      0       0.3402865       76.92121
2016    28      1       0.2891584       67.632
2016    28      2       0.2886956       67.5842
2016    28      3       0.2933102       68.36362
2016    28      4       0.3263446       74.41101
2016    28      5       0.4042078       88.06716
2016    28      6       0.4405065       93.68335
2016    28      7       0.2958724       68.13826
2016    29      0       0.3551348       78.64743
2016    29      1       0.3149623       71.30737
2016    29      2       0.1608362       41.08932
2016    29      3       0.1033368       28.8582
2016    29      4       0.09110667      26.2307
2016    29      5       0.1049987       29.41314
2016    29      6       0.150485        39.46489
2016    29      7       0.2314862       56.53812
2016    30      0       0.4675359       100.1786
2016    30      1       0.7732948       142.8653
2016    30      2       0.8194469       147.846
2016    30      3       0.7740772       141.3032
2016    30      4       0.7112875       133.7151
2016    30      5       0.5859494       116.4899
2016    30      6       0.61756         119.6155
2016    30      7       0.6172014       119.2908
2016    31      0       0.5989738       116.5768
2016    31      1       0.3329001       74.86777
2016    31      2       0.6408255       123.0824
2016    31      3       0.697675        131.0065
2016    31      4       0.7692256       140.1423
2016    31      5       0.7797856       141.3819
2016    31      6       0.8449378       149.1309
2016    31      7       0.6511741       126.7417
2017    1       0       0.2060645       52.15804
2017    1       1       0.2240931       55.73009
2017    1       2       0.2439114       59.49629
2017    1       3       0.25477         61.38766
2017    1       4       0.2591286       62.07646
2017    1       5       0.2351404       57.32551
2017    1       6       0.2347835       57.38969
2017    1       7       0.4061219       88.99217
2017    2       0       0.3662314       82.02395
2017    2       1       0.2589586       62.3541
2017    2       2       0.2456065       59.655
2017    2       3       0.2155152       53.57352
2017    2       4       0.1858801       47.3747
2017    2       5       0.1941577       49.038
2017    2       6       0.2379494       57.96509
2017    2       7       0.4907077       103.3374
2017    3       0       0.6007685       119.3698
2017    3       1       0.4781675       101.4804
2017    3       2       0.4812383       102.4797
2017    3       3       0.4046248       89.46741
2017    3       4       0.4259814       92.57135
2017    3       5       0.4171128       91.08175
2017    3       6       0.4257686       92.76997
2017    3       7       0.3910358       87.67563
2017    4       0       0.4679118       100.2928
2017    4       1       0.5691818       116.159
2017    4       2       0.553396        114.3539
2017    4       3       0.5620258       115.8648
2017    4       4       0.5652062       115.9478
2017    4       5       0.3452045       79.99483
2017    4       6       0.335658        78.32147
2017    4       7       0.339347        78.76377
2017    5       0       0.3477957       80.14562
2017    5       1       0.4232135       93.2104
2017    5       2       0.4976951       103.7413
2017    5       3       0.3499294       79.47526
2017    5       4       0.2126616       53.23185
2017    5       5       0.2110587       52.67681
2017    5       6       0.2830243       67.37123
2017    5       7       0.3008762       70.58698
2017    6       0       0.3212796       74.00233
2017    6       1       0.5662066       114.5763
2017    6       2       0.5735281       116.4376
2017    6       3       0.4892312       103.3133
2017    6       4       0.5713433       115.3745
2017    6       5       0.6605286       128.6795
2017    6       6       0.8592952       153.6466
2017    6       7       0.7646938       142.2465
2017    7       0       0.4109802       90.49686
2017    7       1       0.2308311       57.07686
2017    7       2       0.1896596       48.66975
2017    7       3       0.1393029       37.80477
2017    7       4       0.1159206       32.46237
2017    7       5       0.1091982       30.76667
2017    7       6       0.2952482       69.03006
2017    7       7       0.7260441       137.5039
2017    8       0       0.7784936       144.3393
2017    8       1       0.8249769       149.7674
2017    8       2       0.7887507       145.6375
2017    8       3       0.5407477       113.0607
2017    8       4       0.4822979       103.7847
2017    8       5       0.4737006       102.5455
2017    8       6       0.5026018       106.865
2017    8       7       0.6035056       121.2747
2017    9       0       0.5607808       115.3891
2017    9       1       0.4104239       92.16881
2017    9       2       0.3221344       76.11849
2017    9       3       0.2903311       69.82327
2017    9       4       0.306916        72.83663
2017    9       5       0.3277599       76.77118
2017    9       6       0.313678        74.38163
2017    9       7       0.2792775       67.91568
2017    10      0       0.2826643       68.64441
2017    10      1       0.3319615       78.28225
2017    10      2       0.3325877       78.11571
2017    10      3       0.6516245       128.7072
2017    10      4       0.7179159       137.187
2017    10      5       0.4794227       102.6023
2017    10      6       0.3682096       84.09483
2017    10      7       0.3381577       78.74957
2017    11      0       0.2577355       63.47213
2017    11      1       0.1968988       50.85872
2017    11      2       0.2895476       69.22089
2017    11      3       0.5167355       107.9449
2017    11      4       0.7483146       140.7917
2017    11      5       0.4416522       97.69388
2017    11      6       0.3811079       86.54647
2017    11      7       0.430957        94.65468
2017    12      0       0.4803949       102.578
2017    12      1       0.4059515       90.59527
2017    12      2       0.3177559       74.84916
2017    12      3       0.3444055       79.69996
2017    12      4       0.3043845       71.89764
2017    12      5       0.3058119       71.887
2017    12      6       0.3769092       84.67428
2017    12      7       0.339806        77.93857
2017    13      0       0.3380875       78.19408
2017    13      1       0.3376717       78.67622
2017    13      2       0.3650293       83.65506
2017    13      3       0.3565045       82.12609
2017    13      4       0.3067222       73.19879
2017    13      5       0.2643827       64.92811
2017    13      6       0.270564        65.51529
2017    13      7       0.5981386       122.1365
2017    14      0       0.5884991       119.848
2017    14      1       0.4825068       103.9027
2017    14      2       0.3965285       89.52752
2017    14      3       0.3284467       77.06113
2017    14      4       0.3085075       73.20088
2017    14      5       0.3272476       76.70022
2017    14      6       0.4744071       101.5614
2017    14      7       0.5225865       109.1264
2017    15      0       0.4876087       103.7114
2017    15      1       0.4723115       100.9103
2017    15      2       0.5351495       110.2681
2017    15      3       0.5653689       114.8739
2017    15      4       0.5986257       120.3017
2017    15      5       0.5401647       111.8651
2017    15      6       0.4538766       98.36452
2017    15      7       0.3005455       71.25422
2017    16      0       0.2455143       60.65726
2017    16      1       0.2563407       62.43561
2017    16      2       0.3609358       81.62396
2017    16      3       0.4642936       99.21084
2017    16      4       0.4675285       99.7138
2017    16      5       0.3534364       80.85926
2017    16      6       0.3620562       82.20521
2017    16      7       0.3793773       85.19269
2017    17      0       0.3887761       86.5995
2017    17      1       0.3783355       84.3599
2017    17      2       0.3478088       78.89112
2017    17      3       0.3183047       73.43371
2017    17      4       0.2746299       65.22827
2017    17      5       0.2646682       63.27381
2017    17      6       0.2640082       63.0588
2017    17      7       0.2730094       64.70202
2017    18      0       0.3582004       80.29204
2017    18      1       0.4772927       99.8763
2017    18      2       0.4767923       99.72413
2017    18      3       0.4764637       99.64287
2017    18      4       0.4105093       89.09336
2017    18      5       0.3733159       82.65862
2017    18      6       0.3329834       75.58183
2017    18      7       0.3710948       82.23953
2017    19      0       0.1767004       45.45563
2017    19      1       0.1643633       42.76369
2017    19      2       0.1989584       49.69509
2017    19      3       0.186644        47.11286
2017    19      4       0.2695094       64.10326
2017    19      5       0.3241391       75.04613
2017    19      6       0.4390404       95.19932
2017    19      7       0.4241531       92.95051
2017    20      0       0.4887015       103.276
2017    20      1       0.7010203       132.9597
2017    20      2       0.5929171       117.7982
2017    20      3       0.4150142       89.77283
2017    20      4       0.5352802       108.5335
2017    20      5       0.6631915       126.1832
2017    20      6       0.6183542       119.953
2017    20      7       0.6399268       122.9034
2017    21      0       0.5071356       104.1657
2017    21      1       0.3359599       75.97716
2017    21      2       0.234763        56.88457
2017    21      3       0.1559227       40.83584
2017    21      4       0.197015        49.52635
2017    21      5       0.2198287       54.34474
2017    21      6       0.2094396       52.46648
2017    21      7       0.2074707       52.33266
2017    22      0       0.1920311       49.28963
2017    22      1       0.174989        45.82797
2017    22      2       0.1442519       39.17799
2017    22      3       0.1277704       35.47771
2017    22      4       0.1704282       45.26434
2017    22      5       0.10693         30.83335
2017    22      6       0.09952924      29.03037
2017    22      7       0.08777278      26.04943
2017    23      0       0.08886264      26.29019
2017    23      1       0.09339931      27.47154
2017    23      2       0.105787        30.61144
2017    23      3       0.10494         30.58486
2017    23      4       0.09969021      29.44176
2017    23      5       0.09459514      28.30982
2017    23      6       0.08552676      26.11923
2017    23      7       0.0773552       24.09696
2017    24      0       0.07767064      24.15424
2017    24      1       0.0722321       22.79185
2017    24      2       0.07238751      22.86694
2017    24      3       0.07363115      23.20312
2017    24      4       0.07277598      22.92835
2017    24      5       0.0828266       25.35316
2017    24      6       0.0993198       29.2541
2017    24      7       0.1054349       30.64965
2017    25      0       0.09966892      29.31269
2017    25      1       0.08991374      27.11548
2017    25      2       0.09658653      28.7131
2017    25      3       0.1041608       30.4173
2017    25      4       0.1169096       33.2143
2017    25      5       0.1573664       42.16862
2017    25      6       0.1953509       50.14674
2017    25      7       0.2371704       58.56105
2017    26      0       0.2697932       64.73216
2017    26      1       0.2787634       66.77634
2017    26      2       0.3563543       81.13676
2017    26      3       0.332952        76.93553
2017    26      4       0.2578486       62.74396
2017    26      5       0.2112246       53.30998
2017    26      6       0.2016541       51.32034
2017    26      7       0.1745374       45.61326
2017    27      0       0.1299285       35.80796
2017    27      1       0.1205947       33.64351
2017    27      2       0.1277076       35.14065
2017    27      3       0.1394084       37.64944
2017    27      4       0.138892        37.46923
2017    27      5       0.1456976       38.86106
2017    27      6       0.1747494       44.8085
2017    27      7       0.1790515       45.88067
2017    28      0       0.1571142       41.44434
2017    28      1       0.1546357       40.80943
2017    28      2       0.1540557       40.54017
2017    28      3       0.1559978       40.87068
2017    28      4       0.169062        43.63722
2017    28      5       0.1839067       46.74803
2017    28      6       0.1885419       47.69813
2017    28      7       0.1886684       47.73848
2017    29      0       0.1966165       49.44276
2017    29      1       0.2060642       51.39063
2017    29      2       0.192209        48.55287
2017    29      3       0.1757157       45.21258
2017    29      4       0.162193        42.45902
2017    29      5       0.1515641       40.1773
2017    29      6       0.1430227       38.25623
2017    29      7       0.1313676       35.6777
2017    30      0       0.1253589       34.27231
2017    30      1       0.1210778       33.2647
2017    30      2       0.1136049       31.61645
2017    30      3       0.1056938       29.83531
2017    30      4       0.10362         29.33883
2017    30      5       0.1507333       39.84019
2017    30      6       0.2194841       54.15814
2017    30      7       0.2208307       54.45779
2017    31      0       0.2496116       60.1787
2017    31      1       0.215039        53.43902
2017    31      2       0.2049899       51.44978
2017    31      3       0.2225037       55.22869
2017    31      4       0.2282004       56.43433
2017    31      5       0.2742496       65.60463
2017    31      6       0.3060065       71.52382
2017    31      7       0.3251633       75.05571
2018    1       0       0.2390773       58.69895
2018    1       1       0.1980206       50.33366
2018    1       2       0.1535224       40.92871
2018    1       3       0.1347733       36.42197
2018    1       4       0.2711173       65.07489
2018    1       5       0.4524207       98.16251
2018    1       6       0.4612938       99.79633
2018    1       7       0.4638153       100.2054
2018    2       0       0.4474152       97.61142
2018    2       1       0.391739        87.99108
2018    2       2       0.4050809       90.00129
2018    2       3       0.629985        124.1915
2018    2       4       0.3353129       77.13815
2018    2       5       0.2284555       56.52189
2018    2       6       0.2035299       51.28913
2018    2       7       0.1886322       47.89334
2018    3       0       0.2675329       64.24666
2018    3       1       0.2452584       60.11492
2018    3       2       0.2334073       57.74124
2018    3       3       0.262655        63.20508
2018    3       4       0.455658        97.43486
2018    3       5       0.6803301       130.8857
2018    3       6       0.6176229       120.9988
2018    3       7       0.3357052       75.95132
2018    4       0       0.2854738       67.02201
2018    4       1       0.5094663       105.2523
2018    4       2       0.3948291       86.87663
2018    4       3       0.2326191       57.07861
2018    4       4       0.174284        45.1264
2018    4       5       0.1506764       39.988
2018    4       6       0.1291928       35.2742
2018    4       7       0.1523541       40.64527
2018    5       0       0.1271785       35.0975
2018    5       1       0.5151322       107.2854
2018    5       2       0.480624        102.6921
2018    5       3       0.3866113       87.11014
2018    5       4       0.2912286       69.675
2018    5       5       0.3694153       83.18212
2018    5       6       0.3728486       84.1639
2018    5       7       0.3439971       78.89581
2018    6       0       0.2994385       70.68854
2018    6       1       0.2808593       67.22086
2018    6       2       0.4423503       96.41757
2018    6       3       0.4577042       99.30735
2018    6       4       0.4153551       92.06967
2018    6       5       0.380855        85.78365
2018    6       6       0.3583137       81.48851
2018    6       7       0.3491743       79.67902
2018    7       0       0.4448978       96.23889
2018    7       1       0.482024        102.5361
2018    7       2       0.5921144       119.0182
2018    7       3       0.5706566       116.4982
2018    7       4       0.5477556       113.0922
2018    7       5       0.7096941       135.2015
2018    7       6       0.5682941       115.964
2018    7       7       0.4446261       97.19144
2018    8       0       0.4383329       96.25475
2018    8       1       0.4406548       96.51685
2018    8       2       0.5018156       106.182
2018    8       3       0.5809847       117.9998
2018    8       4       0.6597415       128.5112
2018    8       5       0.6017544       120.6704
2018    8       6       0.5316188       110.4903
2018    8       7       0.5530805       113.6747
2018    9       0       0.4651857       100.272
2018    9       1       0.414022        92.16184
2018    9       2       0.6077321       121.0363
2018    9       3       0.5677262       115.2317
2018    9       4       0.437098        95.76639
2018    9       5       0.3279846       76.21023
2018    9       6       0.2626733       63.66495
2018    9       7       0.276323        65.98631
2018    10      0       0.2919389       68.80001
2018    10      1       0.5517492       111.8672
2018    10      2       0.4144765       90.00488
2018    10      3       0.1970114       49.69455
2018    10      4       0.1532231       40.60823
2018    10      5       0.164857        43.02721
2018    10      6       0.2059031       51.72465
2018    10      7       0.3217796       74.57727
2018    11      0       0.3467668       79.01794
2018    11      1       0.2366571       58.3626
2018    11      2       0.2464584       60.46386
2018    11      3       0.3401543       78.56146
2018    11      4       0.3782465       85.37252
2018    11      5       0.3803775       85.64728
2018    11      6       0.430519        93.57645
2018    11      7       0.448071        95.83334
2018    12      0       0.4437879       95.05144
2018    12      1       0.4875475       102.112
2018    12      2       0.5016798       104.1551
2018    12      3       0.4838326       101.3145
2018    12      4       0.4685852       99.11294
2018    12      5       0.3972959       87.22137
2018    12      6       0.5106259       105.4342
2018    12      7       0.4907444       102.1167
2018    13      0       0.4014009       87.49541
2018    13      1       0.4373924       93.26403
2018    13      2       0.312499        71.67418
2018    13      3       0.3084396       70.80313
2018    13      4       0.3211896       72.99127
2018    13      5       0.2720432       64.63922
2018    13      6       0.201737        50.02494
2018    13      7       0.2312688       55.76424
2018    14      0       0.3380643       75.7067
2018    14      1       0.2387026       57.13216
2018    14      2       0.1971148       48.67889
2018    14      3       0.1443934       37.68108
2018    14      4       0.1195139       32.41902
2018    14      5       0.112947        30.9456
2018    14      6       0.1842514       46.02354
2018    14      7       0.2150948       52.48385
2018    15      0       0.1940347       48.2386
2018    15      1       0.1768288       44.78546
2018    15      2       0.2684659       63.09853
2018    15      3       0.3437646       77.10386
2018    15      4       0.3940796       86.00817
2018    15      5       0.3019598       69.73517
2018    15      6       0.2837589       66.86358
2018    15      7       0.2659874       63.71593
2018    16      0       0.1769724       45.62595
2018    16      1       0.1235593       33.81153
2018    16      2       0.1199942       33.06121
2018    16      3       0.1325452       35.73627
2018    16      4       0.1667608       43.12589
2018    16      5       0.1980134       49.68421
2018    16      6       0.1772708       45.41532
2018    16      7       0.176227        45.25735
2018    17      0       0.2228533       55.12673
2018    17      1       0.2417217       59.30311
2018    17      2       0.2994853       70.78666
2018    17      3       0.3632284       82.98773
2018    17      4       0.3998373       89.48784
2018    17      5       0.4323911       95.17235
2018    17      6       0.3507471       80.71953
2018    17      7       0.4780961       101.9717
2018    18      0       0.3850257       86.40577
2018    18      1       0.4284352       92.96038
2018    18      2       0.3679355       82.87208
2018    18      3       0.6093378       120.8002
2018    18      4       0.5502315       112.3782
2018    18      5       0.5808728       116.6146
2018    18      6       0.4797079       101.3352
2018    18      7       0.4625513       98.74411
2018    19      0       0.4191419       91.74713
2018    19      1       0.4013663       88.87832
2018    19      2       0.3925577       89.73526
2018    19      3       0.3248575       77.11611
2018    19      4       0.2730861       66.82788
2018    19      5       0.2822163       68.40872
2018    19      6       0.4142187       92.55368
2018    19      7       0.5664185       115.3516
2018    20      0       0.3882979       86.15278
2018    20      1       0.3373759       76.01712
2018    20      2       0.4055541       88.00504
2018    20      3       0.3646808       81.14519
2018    20      4       0.2132612       52.60912
2018    20      5       0.207059        51.44991
2018    20      6       0.1994          50.0128
2018    20      7       0.2039109       51.0006
2018    21      0       0.2011651       50.48517
2018    21      1       0.2099018       52.24144
2018    21      2       0.2226505       54.70923
2018    21      3       0.2097085       52.11529
2018    21      4       0.1984829       49.61676
2018    21      5       0.1882308       47.51906
2018    21      6       0.1625403       42.17209
2018    21      7       0.130082        35.20856
2018    22      0       0.1988401       49.4284
2018    22      1       0.3230759       73.61145
2018    22      2       0.3440115       77.48791
2018    22      3       0.3525073       79.16811
2018    22      4       0.3455262       78.22199
2018    22      5       0.3441489       78.08846
2018    22      6       0.3184647       73.50844
2018    22      7       0.2970948       69.81749
2018    23      0       0.2888332       68.42089
2018    23      1       0.2794158       66.64647
2018    23      2       0.2743812       65.63401
2018    23      3       0.2587866       62.5461
2018    23      4       0.2400783       58.92597
2018    23      5       0.2404752       58.93452
2018    23      6       0.2425147       59.24167
2018    23      7       0.2333997       57.37987
2018    24      0       0.2205757       54.72262
2018    24      1       0.2110122       52.73342
2018    24      2       0.2049231       51.4522
2018    24      3       0.1981051       50.04053
2018    24      4       0.1867716       47.65088
2018    24      5       0.1769267       45.52377
2018    24      6       0.1728644       44.58984
2018    24      7       0.1659956       43.10692
2018    25      0       0.1506455       39.77984
2018    25      1       0.1493455       39.45538
2018    25      2       0.1581288       41.31547
2018    25      3       0.1643145       42.62397
2018    25      4       0.1483013       39.13965
2018    25      5       0.1546028       40.58914
2018    25      6       0.1867804       47.63161
2018    25      7       0.212735        53.1336
2018    26      0       0.1899613       48.61986
2018    26      1       0.1785214       46.29656
2018    26      2       0.209048        52.80777
2018    26      3       0.2315044       57.41625
2018    26      4       0.2239045       55.88535
2018    26      5       0.18735         48.18554
2018    26      6       0.1581147       41.7962
2018    26      7       0.1521474       40.38671
2018    27      0       0.1615735       42.31036
2018    27      1       0.1802241       46.19696
2018    27      2       0.1857952       47.32604
2018    27      3       0.1833106       46.79762
2018    27      4       0.1848183       47.16649
2018    27      5       0.2759718       65.55992
2018    27      6       0.3297871       75.87229
2018    27      7       0.2948097       69.39712
2018    28      0       0.2525209       61.26278
2018    28      1       0.241276        59.02389
2018    28      2       0.2629124       63.11218
2018    28      3       0.342195        77.4833
2018    28      4       0.3229879       74.1454
2018    28      5       0.3510187       79.08078
2018    28      6       0.3178705       73.18526
2018    28      7       0.3318217       75.59781
2018    29      0       0.3380676       76.83175
2018    29      1       0.2866825       67.60273
2018    29      2       0.2728646       65.00572
2018    29      3       0.2691756       64.3324
2018    29      4       0.2466753       60.09588
2018    29      5       0.2230521       55.43368
2018    29      6       0.226396        55.85807
2018    29      7       0.2155293       53.51018
2018    30      0       0.1998536       49.98883
2018    30      1       0.1997406       49.78329
2018    30      2       0.3133245       71.99044
2018    30      3       0.1973041       49.92963
2018    30      4       0.2724185       65.31448
2018    30      5       0.3320526       76.43003
2018    30      6       0.3863072       85.91451
2018    30      7       0.3838184       85.33124
2018    31      0       0.3308391       76.06451
2018    31      1       0.2907881       68.9946
2018    31      2       0.287054        68.69204
2018    31      3       0.3690236       83.36386
2018    31      4       0.4338782       94.71514
2018    31      5       0.3462815       79.69338
2018    31      6       0.3245237       75.91487
2018    31      7       0.4253507       92.70474
