####################################################################################################
# Month: 10Oct                                                                                     #
# Station: BLDR                                                                                    #
# Frequency: 230 GHz                                                                               #
# Columns are: year    day     tau     Tb (K)                                                      #
####################################################################################################
2009    1       0.20461691      52.4990875
2009    2       0.13109031      36.48365125
2009    3       0.23344691      58.55561
2009    4       0.40406476      90.5179375
2009    5       0.51093842      107.48298
2009    6       0.19891764      49.85436
2009    7       0.22705558      54.562435
2009    8       0.36798759      85.00906125
2009    9       0.27900692      66.95586125
2009    10      0.32726306      76.5110575
2009    11      0.29627566      71.50334125
2009    12      0.29587725      72.05535125
2009    13      0.42102729      93.96536875
2009    14      0.47754456      105.2219475
2009    15      0.39029982      89.51853375
2009    16      0.27937141      68.36036375
2009    17      0.22209224      57.1929975
2009    18      0.18850535      50.8356
2009    19      0.40323994      92.69493
2009    20      0.389313        89.233225
2009    21      0.60017508      121.6760375
2009    22      0.27545072      63.444175
2009    23      0.29142014      70.15999625
2009    24      0.35557428      82.17666625
2009    25      0.33990621      77.99868875
2009    26      0.14647448      38.46683875
2009    27      0.30516266      72.23800375
2009    28      0.47851579      101.1620125
2009    29      0.33841914      76.6202425
2009    30      0.29902259      69.3517125
2009    31      0.24829616      61.41544125
2010    1       0.29536382      73.74089375
2010    2       0.46884121      105.0150775
2010    3       0.36879446      86.46549625
2010    4       0.46758919      102.665415
2010    5       0.56594561      118.81762875
2010    6       0.75972002      146.1237
2010    7       0.55587346      118.5215875
2010    8       0.44838455      99.58384875
2010    9       0.2769263       67.03845875
2010    10      0.54901724      114.12142125
2010    11      0.45712225      99.4537925
2010    12      0.50771374      107.77299125
2010    13      0.3396946       80.3049225
2010    14      0.22054732      57.38706375
2010    15      0.17647442      48.039755
2010    16      0.21572205      56.2611725
2010    17      0.29918212      72.7935925
2010    18      0.56606116      117.2504875
2010    19      0.38583628      84.498755
2010    20      0.25978164      65.48076375
2010    21      0.2831732       70.38502875
2010    22      0.57827306      118.3707475
2010    23      0.55020071      114.070275
2010    24      0.38887422      88.118375
2010    25      0.49953285      107.22968375
2010    26      0.16136299      42.639645
2010    27      0.13919782      37.8128525
2010    28      0.09805087      28.7183525
2010    29      0.16166556      44.26171625
2010    30      0.18909182      50.407775
2010    31      0.27610742      66.6070375
2011    1       0.46236072      103.95894
2011    2       0.6113928       126.375425
2011    3       0.69198027      138.095925
2011    4       0.60685924      125.4431
2011    5       0.63400214      129.6288125
2011    6       0.5259568       113.25242625
2011    7       0.15077757      40.810625
2011    8       0.4882119       103.07848125
2011    9       0.35658162      82.19170625
2011    10      0.27521487      66.47841125
2011    11      0.40395122      90.50244125
2011    12      0.27629819      66.82543125
2011    13      0.24315726      61.06723
2011    14      0.37009172      86.6078375
2011    15      0.27777158      69.06768875
2011    16      0.3254646       78.434775
2011    17      0.41336011      93.35261
2011    18      0.18605646      48.6943825
2011    19      0.16414544      44.5618275
2011    20      0.23111748      59.23876375
2011    21      0.24161774      61.41335625
2011    22      0.36184565      83.70541375
2011    23      0.22467226      57.8777125
2011    24      0.15391295      42.52002625
2011    25      0.31332581      75.33991125
2011    26      0.56305684      114.1214275
2011    27      0.14139753      37.40966
2011    28      0.12315151      34.5686275
2011    29      0.17968612      46.80911125
2011    30      0.2664343       65.82567625
2011    31      0.20558474      53.94029125
2012    1       0.50039235      107.961005
2012    2       0.28437728      70.9270625
2012    3       0.24567184      63.30846875
2012    4       0.28976659      70.56833625
2012    5       0.3012304       71.77386625
2012    6       0.18778336      48.64034875
2012    7       0.12398045      34.57634375
2012    8       0.14669409      40.47712625
2012    9       0.18157465      48.28477125
2012    10      0.24248541      61.1707625
2012    11      0.43515758      97.48771625
2012    12      0.46659768      103.32178
2012    13      0.3825931       85.03498
2012    14      0.37275902      85.41603625
2012    15      0.27388306      68.5542625
2012    16      0.28753098      70.20001125
2012    17      0.23437296      57.20493625
2012    18      0.16157043      43.6986625
2012    19      0.22195264      57.36391625
2012    20      0.32409644      77.32779125
2012    21      0.23330581      60.03095125
2012    22      0.34431055      82.2731125
2012    23      0.27364319      68.57194625
2012    24      0.38094184      88.07366375
2012    25      0.36988144      81.54183875
2012    26      0.23189266      55.85272875
2012    27      0.19637718      49.950455
2012    28      0.30749216      73.29901125
2012    29      0.32192376      76.15942875
2012    30      0.28424932      69.6235825
2012    31      0.2806219       69.29976625
2013    1       0.3271882       80.1218525
2013    2       0.3452282       82.38971375
2013    3       0.43304824      98.13814
2013    4       0.54163322      110.840675
2013    5       0.24456074      59.32602125
2013    6       0.26276168      64.38131375
2013    7       0.21365256      55.6365525
2013    8       0.20593         54.4076425
2013    9       0.38320245      88.99946875
2013    10      0.5064827       108.5496475
2013    11      0.46601978      99.87578625
2013    12      0.305185        72.01513375
2013    13      0.35369689      81.92139625
2013    14      0.46917211      101.7350175
2013    15      0.31800412      74.37849875
2013    16      0.2617128       63.64220125
2013    17      0.20652206      52.45274125
2013    18      0.30915956      71.75643875
2013    19      0.21265171      54.22132875
2013    20      0.2789521       66.36543125
2013    21      0.27995281      66.27140875
2013    22      0.32755368      77.72328875
2013    23      0.21648072      56.1171875
2013    24      0.19113308      50.81096375
2013    25      0.28729977      70.170095
2013    26      0.31070816      74.61745625
2013    27      0.22013544      56.62587125
2013    28      0.36078848      83.65751625
2013    29      0.28669731      69.78450875
2013    30      0.32932194      75.43745625
2013    31      0.2371225       58.08622125
2014    1       0.51540083      108.951195
2014    2       0.27641479      66.84035625
2014    3       0.22869901      57.9167225
2014    4       0.29763414      72.14371875
2014    5       0.36553705      85.30662125
2014    6       0.27574977      68.494475
2014    7       0.33249792      80.57483125
2014    8       0.31017169      75.52368625
2014    9       0.57139836      116.73439625
2014    10      0.74614484      141.5157375
2014    11      0.4222655       94.9534825
2014    12      0.42487929      94.25217375
2014    13      0.24447952      59.51436
2014    14      0.2227892       57.5029875
2014    15      0.15056572      42.0070625
2014    16      0.2686556       66.43583
2014    17      0.37462121      86.5454175
2014    18      0.37573615      87.53453875
2014    19      0.46548859      102.80527
2014    20      0.44989916      100.8217475
2014    21      0.59980396      123.9301875
2014    22      0.62064515      124.78907375
2014    23      0.36613304      85.09384625
2014    24      0.37525025      86.94877
2014    25      0.1764391       48.22813625
2014    26      0.33520891      81.1497425
2014    27      0.37726726      87.11827
2014    28      0.13898441      38.12052625
2014    29      0.1907511       50.28383625
2014    30      0.32989615      78.2757175
2014    31      0.26297646      65.599055
2015    1       0.74932629      145.1781
2015    2       0.6809903       136.6650775
2015    3       0.55138832      115.03704875
2015    4       0.50279872      108.84226375
2015    5       0.52617992      113.9710175
2015    6       0.73999298      143.944925
2015    7       0.49408592      107.511815
2015    8       0.49337896      108.70370375
2015    9       0.56004156      117.3871075
2015    10      0.42180835      95.98746
2015    11      0.31682554      77.93992875
2015    12      0.20161954      53.34874125
2015    13      0.26227645      66.21407
2015    14      0.23580174      61.22053375
2015    15      0.2506902       63.8644475
2015    16      0.35708472      84.62042625
2015    17      0.41309415      94.8567575
2015    18      0.58931366      122.7073625
2015    19      0.67519078      135.0886875
2015    20      0.45524081      100.386415
2015    21      0.85149156      154.635775
2015    22      0.57382275      118.24550625
2015    23      0.50445         107.02488875
2015    24      0.2821274       68.04344625
2015    25      0.26526306      65.4314025
2015    26      0.44808475      97.87463375
2015    27      0.26839975      65.8616875
2015    28      0.16265783      43.12760625
2015    29      0.28402229      67.49147375
2015    30      0.4670079       100.86093125
2015    31      0.23786702      59.66066125
2016    1       0.64252068      130.5746375
2016    2       0.58750882      123.09925
2016    3       0.52171315      112.17369125
2016    4       0.24715285      60.943345
2016    5       0.22600658      57.2265175
2016    6       0.43123545      94.5669975
2016    7       0.19221634      49.8661575
2016    8       0.22620918      58.275825
2016    9       0.27206854      67.5724375
2016    10      0.37082255      86.538365
2016    11      0.55553171      116.02004375
2016    12      0.3864665       84.954525
2016    13      0.32157539      76.58203
2016    14      0.36859834      86.668685
2016    15      0.3948849       91.9249075
2016    16      0.34023141      81.81597125
2016    17      0.34517619      82.871925
2016    18      0.34972528      82.13158875
2016    19      0.25681508      62.69511875
2016    20      0.12622133      34.952265
2016    21      0.19413248      51.0819225
2016    22      0.18721061      50.26367125
2016    23      0.25151931      63.96297125
2016    24      0.31986736      77.44170875
2016    25      0.48912892      106.62979
2016    26      0.3731682       86.65599875
2016    27      0.27350558      68.40886625
2016    28      0.31384066      76.37953125
2016    29      0.49513229      108.50660375
2016    30      0.41870742      95.87875625
2016    31      0.4082765       94.42971125
2017    1       0.46368718      101.77888
2017    2       0.71650676      137.5884
2017    3       0.45222165      98.4804825
2017    4       0.43578029      99.23844375
2017    5       0.48513426      108.00403875
2017    6       0.47114182      101.407965
2017    7       0.2312368       59.38192375
2017    8       0.22867955      59.2355475
2017    9       0.51709901      108.30311125
2017    10      0.14746406      39.5675625
2017    11      0.10297457      30.7083875
2017    12      0.20638838      54.478665
2017    13      0.24155472      61.28915125
2017    14      0.1696938       45.770015
2017    15      0.13869022      38.003935
2017    16      0.132559        37.41010875
2017    17      0.13448426      37.78067375
2017    18      0.17735701      47.72812375
2017    19      0.2232974       57.70172375
2017    20      0.37475245      88.11482875
2017    21      0.30005399      70.53947375
2017    22      0.28647491      69.1126675
2017    23      0.36059188      84.6697675
2017    24      0.21652619      55.49774625
2017    25      0.25605486      64.907665
2017    26      0.26183634      63.100135
2017    27      0.18320699      47.11504375
2017    28      0.39765099      89.54420375
2017    29      0.26293031      65.85491625
2017    30      0.36779318      84.71938625
2017    31      0.32090264      75.29685875
2018    1       0.4047556       92.019885
2018    2       0.73836774      143.3648375
2018    3       0.62242254      126.0898775
2018    4       0.69157602      137.7294125
2018    5       0.38054809      87.652995
2018    6       0.57072941      116.90943
2018    7       0.51569868      110.22455
2018    8       0.6963851       135.0713875
2018    9       0.43454124      95.899595
2018    10      0.41816924      92.4942525
2018    11      0.40065552      88.71229
2018    12      0.25838281      62.84051
2018    13      0.20446312      53.662075
2018    14      0.32261704      74.932825
2018    15      0.08636286      25.174325
2018    16      0.15071168      41.2270725
2018    17      0.23339446      59.0270575
2018    18      0.25844327      64.89376125
2018    19      0.30661125      72.26181125
2018    20      0.21365021      55.63968625
2018    21      0.2053817       54.06515
2018    22      0.32929292      78.15378875
2018    23      0.57419822      118.5697875
2018    24      0.66073616      131.060925
2018    25      0.36614659      84.954145
2018    26      0.37171059      85.49321625
2018    27      0.38362632      88.58601125
2018    28      0.41184325      93.9684875
2018    29      0.20156936      53.2759
2018    30      0.45569468      98.031625
2018    31      0.33405175      75.51870625
