####################################################################################################
# Month: 10Oct                                                                                     #
# Station: BLDR                                                                                    #
# Frequency: 230 GHz                                                                               #
# Columns are: year    day     segment         tau     Tb (K)                                      #
####################################################################################################
2009    1       0       0.2014116       53.1462
2009    1       1       0.1880532       50.03071
2009    1       2       0.1568333       42.99133
2009    1       3       0.143442        39.67708
2009    1       4       0.1925404       49.55626
2009    1       5       0.2385222       58.65905
2009    1       6       0.2534714       61.92527
2009    1       7       0.2626612       64.0068
2009    2       0       0.1998249       51.59367
2009    2       1       0.1251585       35.20592
2009    2       2       0.1275907       35.62969
2009    2       3       0.1317624       36.53224
2009    2       4       0.1149621       32.84212
2009    2       5       0.09495954      28.32893
2009    2       6       0.1146621       32.94301
2009    2       7       0.1398022       38.79363
2009    3       0       0.1635334       44.26617
2009    3       1       0.1986143       51.80068
2009    3       2       0.2078507       53.65181
2009    3       3       0.2467116       61.33437
2009    3       4       0.2336532       58.84578
2009    3       5       0.2364154       59.41713
2009    3       6       0.2460125       61.21593
2009    3       7       0.3347842       77.91301
2009    4       0       0.3855756       86.99372
2009    4       1       0.3598586       82.60446
2009    4       2       0.317865        75.0594
2009    4       3       0.3455035       80.00934
2009    4       4       0.4565008       99.70263
2009    4       5       0.374256        86.56998
2009    4       6       0.4134243       93.53557
2009    4       7       0.5795343       119.6684
2009    5       0       0.8077886       149.7273
2009    5       1       0.7557956       144.137
2009    5       2       0.569273        119.6605
2009    5       3       0.4620815       102.9866
2009    5       4       0.3293787       78.99842
2009    5       5       0.2869671       70.43977
2009    5       6       0.3827831       87.89675
2009    5       7       0.4934398       106.0175
2009    6       0       0.5003896       106.6362
2009    6       1       0.2936126       70.12897
2009    6       2       0.1745341       45.93011
2009    6       3       0.1334167       37.02447
2009    6       4       0.1124472       32.23527
2009    6       5       0.1139669       32.67271
2009    6       6       0.1300352       36.61707
2009    6       7       0.1329388       37.59008
2009    7       0       0.1159015       33.84954
2009    7       1       0.0852643       26.51686
2009    7       2       0.06289183      20.94096
2009    7       3       0.08059947      25.37225
2009    7       4       0.153068        42.65552
2009    7       5       0.2198506       57.07655
2009    7       6       0.5264997       111.371
2009    7       7       0.5723692       118.7168
2009    8       0       0.4574178       102.0381
2009    8       1       0.334962        80.5258
2009    8       2       0.306456        74.73432
2009    8       3       0.2850543       70.42215
2009    8       4       0.2863072       70.38539
2009    8       5       0.3506986       82.05537
2009    8       6       0.4246845       94.28936
2009    8       7       0.4983203       105.622
2009    9       0       0.4821415       103.2304
2009    9       1       0.3222503       76.05498
2009    9       2       0.2176399       55.7043
2009    9       3       0.2286575       57.70817
2009    9       4       0.1881825       49.08007
2009    9       5       0.2266017       57.14091
2009    9       6       0.2529153       62.46246
2009    9       7       0.3136667       74.2656
2009    10      0       0.3909312       87.97125
2009    10      1       0.3624213       83.0136
2009    10      2       0.4282846       94.33603
2009    10      3       0.3476683       80.56096
2009    10      4       0.2806428       68.2819
2009    10      5       0.2395317       60.13076
2009    10      6       0.2508246       62.35276
2009    10      7       0.3178          75.4412
2009    11      0       0.3394923       79.41149
2009    11      1       0.3196441       75.89063
2009    11      2       0.2950849       71.45244
2009    11      3       0.284263        69.37373
2009    11      4       0.2582817       64.23535
2009    11      5       0.2588099       64.25991
2009    11      6       0.2891706       70.25831
2009    11      7       0.3254588       77.14487
2009    12      0       0.2985698       72.45828
2009    12      1       0.2899059       70.77574
2009    12      2       0.3287951       78.22087
2009    12      3       0.3301023       78.68852
2009    12      4       0.2896511       70.94862
2009    12      5       0.2631956       65.66546
2009    12      6       0.2617063       65.54543
2009    12      7       0.3050919       74.13989
2009    13      0       0.3005365       73.54066
2009    13      1       0.3277312       78.63394
2009    13      2       0.3365798       79.87976
2009    13      3       0.4092674       92.35263
2009    13      4       0.6254738       125.6948
2009    13      5       0.4446976       97.96804
2009    13      6       0.422481        95.17042
2009    13      7       0.501451        108.4827
2009    14      0       0.4219662       95.74659
2009    14      1       0.3955535       90.9103
2009    14      2       0.4439578       99.31059
2009    14      3       0.5281525       113.294
2009    14      4       0.5093632       110.9605
2009    14      5       0.4999213       109.6868
2009    14      6       0.5405008       115.7491
2009    14      7       0.4809412       106.1177
2009    15      0       0.4889623       107.449
2009    15      1       0.3524496       83.51755
2009    15      2       0.36458         85.49871
2009    15      3       0.4285627       96.46317
2009    15      4       0.360172        84.28128
2009    15      5       0.2862791       70.13429
2009    15      6       0.4037958       91.5364
2009    15      7       0.4375971       97.26787
2009    16      0       0.3455952       81.18759
2009    16      1       0.2488472       62.44969
2009    16      2       0.2574591       64.15192
2009    16      3       0.2680928       66.38755
2009    16      4       0.2383968       60.26922
2009    16      5       0.2479513       62.116
2009    16      6       0.2948141       71.38991
2009    16      7       0.3338148       78.93103
2009    17      0       0.3310477       78.55369
2009    17      1       0.2679691       66.57092
2009    17      2       0.2049865       53.6251
2009    17      3       0.1882057       50.04633
2009    17      4       0.1959336       51.8017
2009    17      5       0.1795287       48.27611
2009    17      6       0.1895232       50.88698
2009    17      7       0.2195434       57.78315
2009    18      0       0.2223173       58.55052
2009    18      1       0.1889895       51.36714
2009    18      2       0.1408914       40.37245
2009    18      3       0.1509146       42.55546
2009    18      4       0.195177        52.32179
2009    18      5       0.1776334       48.51424
2009    18      6       0.1640804       45.37087
2009    18      7       0.2680392       67.63233
2009    19      0       0.3369101       81.14749
2009    19      1       0.3999916       92.54572
2009    19      2       0.3731267       87.67925
2009    19      3       0.4095647       93.94454
2009    19      4       0.3896923       90.44821
2009    19      5       0.487106        106.1909
2009    19      6       0.4335601       98.08673
2009    19      7       0.395968        91.5166
2009    20      0       0.3464569       82.77795
2009    20      1       0.3493505       83.18238
2009    20      2       0.3290464       79.40156
2009    20      3       0.3062553       75.13103
2009    20      4       0.3220515       77.99182
2009    20      5       0.4324452       96.20066
2009    20      6       0.47838         103.8989
2009    20      7       0.5505182       115.2815
2009    21      0       0.5697323       118.1045
2009    21      1       0.5241477       111.1099
2009    21      2       0.536735        113.2135
2009    21      3       0.5852432       119.7878
2009    21      4       0.6150792       123.8239
2009    21      5       0.6357286       126.7795
2009    21      6       0.678434        131.822
2009    21      7       0.6563006       128.7672
2009    22      0       0.6019994       120.8046
2009    22      1       0.5021035       105.7729
2009    22      2       0.3806489       85.89962
2009    22      3       0.2528819       62.30132
2009    22      4       0.1382993       38.16115
2009    22      5       0.07466424      23.38069
2009    22      6       0.09585248      28.56104
2009    22      7       0.157156        42.67208
2009    23      0       0.2689721       65.8354
2009    23      1       0.3866053       87.13997
2009    23      2       0.3238741       76.37142
2009    23      3       0.267649        65.78361
2009    23      4       0.2919548       70.53417
2009    23      5       0.2593033       64.0655
2009    23      6       0.2553325       63.52588
2009    23      7       0.27767         68.02402
2009    24      0       0.2908717       70.27456
2009    24      1       0.2834984       69.18706
2009    24      2       0.352986        82.31473
2009    24      3       0.4146552       93.30797
2009    24      4       0.5409833       113.1751
2009    24      5       0.2520873       63.67328
2009    24      6       0.3099874       74.696
2009    24      7       0.3995249       90.78463
2009    25      0       0.2824373       69.13975
2009    25      1       0.2003568       52.02469
2009    25      2       0.2640206       64.40059
2009    25      3       0.4164622       91.97433
2009    25      4       0.3883552       87.07381
2009    25      5       0.3779831       85.16382
2009    25      6       0.4322776       93.75855
2009    25      7       0.3573569       80.45397
2009    26      0       0.3372261       76.49231
2009    26      1       0.2098639       52.38761
2009    26      2       0.1223008       33.9919
2009    26      3       0.09215315      27.20705
2009    26      4       0.06305586      20.32108
2009    26      5       0.05990475      19.37877
2009    26      6       0.1087782       30.93882
2009    26      7       0.1785131       47.01717
2009    27      0       0.2272298       57.63727
2009    27      1       0.292809        70.86291
2009    27      2       0.3204198       76.36304
2009    27      3       0.2787406       68.20783
2009    27      4       0.219424        55.93071
2009    27      5       0.2756766       66.58223
2009    27      6       0.3733968       84.34421
2009    27      7       0.4536047       97.97583
2009    28      0       0.5085618       106.7672
2009    28      1       0.4453159       97.44883
2009    28      2       0.5027068       105.3923
2009    28      3       0.395149        87.82996
2009    28      4       0.4325964       93.84432
2009    28      5       0.4625722       98.21991
2009    28      6       0.6181171       121.4319
2009    28      7       0.4631071       98.36168
2009    29      0       0.4145824       90.16952
2009    29      1       0.3079959       71.86882
2009    29      2       0.3011649       70.62252
2009    29      3       0.3633956       81.0432
2009    29      4       0.3435396       77.3765
2009    29      5       0.3336946       75.39123
2009    29      6       0.3204058       73.08087
2009    29      7       0.3225743       73.40928
2009    30      0       0.2785164       65.26127
2009    30      1       0.2916799       67.7969
2009    30      2       0.2592481       61.82772
2009    30      3       0.1781111       45.78586
2009    30      4       0.1341567       36.21928
2009    30      5       0.3864669       86.32317
2009    30      6       0.4496487       98.5759
2009    30      7       0.4143529       93.0236
2009    31      0       0.3946243       89.74069
2009    31      1       0.3825509       87.71015
2009    31      2       0.3079398       74.17096
2009    31      3       0.2410204       60.65161
2009    31      4       0.1889512       49.67537
2009    31      5       0.1462276       40.68547
2009    31      6       0.1432641       40.04873
2009    31      7       0.181791        48.64055
2010    1       0       0.3022229       75.79602
2010    1       1       0.2908232       73.27597
2010    1       2       0.2791571       70.7367
2010    1       3       0.2680558       68.26905
2010    1       4       0.2512061       64.68911
2010    1       5       0.2773188       69.90891
2010    1       6       0.3127264       76.95429
2010    1       7       0.3814003       90.2971
2010    2       0       0.47347         106.2091
2010    2       1       0.518339        113.1098
2010    2       2       0.5362329       115.6464
2010    2       3       0.4828221       107.4859
2010    2       4       0.4317981       99.1584
2010    2       5       0.4151933       96.12072
2010    2       6       0.4157111       96.0891
2010    2       7       0.4771632       106.3012
2010    3       0       0.5079164       110.712
2010    3       1       0.4367063       99.0662
2010    3       2       0.3198161       78.08118
2010    3       3       0.2701617       68.26836
2010    3       4       0.2907125       72.39176
2010    3       5       0.3069497       75.56909
2010    3       6       0.3513111       83.88778
2010    3       7       0.4667819       103.7476
2010    4       0       0.604374        124.4602
2010    4       1       0.5138462       111.7662
2010    4       2       0.3840678       90.49437
2010    4       3       0.3099528       76.43445
2010    4       4       0.3144295       76.95228
2010    4       5       0.3764338       88.42222
2010    4       6       0.5306743       113.8271
2010    4       7       0.7069351       138.9665
2010    5       0       0.7486531       144.4386
2010    5       1       0.609753        126.3541
2010    5       2       0.5318649       115.1811
2010    5       3       0.4702754       105.3165
2010    5       4       0.3954283       92.15143
2010    5       5       0.4670016       104.2693
2010    5       6       0.5899143       122.9579
2010    5       7       0.7146743       139.8721
2010    6       0       0.7551707       145.1668
2010    6       1       0.7652338       146.2771
2010    6       2       0.7177427       140.7484
2010    6       3       0.6855648       136.9843
2010    6       4       0.7448686       144.9551
2010    6       5       0.9223087       166.0147
2010    6       6       0.8025771       151.9269
2010    6       7       0.6842938       136.9163
2010    7       0       0.6736258       135.7922
2010    7       1       0.6522611       132.5296
2010    7       2       0.6187995       128.2496
2010    7       3       0.4810683       107.152
2010    7       4       0.5070238       111.5796
2010    7       5       0.5018803       110.8054
2010    7       6       0.4680457       105.2458
2010    7       7       0.5442832       116.8185
2010    8       0       0.5350123       115.2706
2010    8       1       0.4654381       104.6531
2010    8       2       0.4389038       100.2949
2010    8       3       0.5587534       118.8347
2010    8       4       0.4760625       103.6638
2010    8       5       0.341406        79.89471
2010    8       6       0.2824901       69.49808
2010    8       7       0.4890102       104.5609
2010    9       0       0.3884746       88.30197
2010    9       1       0.2196703       56.53478
2010    9       2       0.2179087       56.02636
2010    9       3       0.2173255       55.95162
2010    9       4       0.2145273       55.2868
2010    9       5       0.2097356       54.22504
2010    9       6       0.2830444       69.1554
2010    9       7       0.464724        100.8257
2010    10      0       0.4581323       100.0714
2010    10      1       0.397562        89.63427
2010    10      2       0.5798197       118.8732
2010    10      3       0.5089125       109.0282
2010    10      4       0.5356241       112.7128
2010    10      5       0.5170135       110.298
2010    10      6       0.6588071       131.3815
2010    10      7       0.7362667       140.972
2010    11      0       0.7335047       140.0532
2010    11      1       0.6118178       124.3602
2010    11      2       0.514148        110.1323
2010    11      3       0.4228122       95.38149
2010    11      4       0.3365365       79.92074
2010    11      5       0.312946        75.59491
2010    11      6       0.38241         88.51573
2010    11      7       0.3428028       81.67177
2010    12      0       0.3421249       81.5506
2010    12      1       0.3423774       81.54755
2010    12      2       0.404664        92.67098
2010    12      3       0.5380283       114.2002
2010    12      4       0.7790735       146.8335
2010    12      5       0.6394862       128.0874
2010    12      6       0.5622852       117.0056
2010    12      7       0.4536704       100.2881
2010    13      0       0.4464356       99.20306
2010    13      1       0.4100505       93.33846
2010    13      2       0.3789822       87.87506
2010    13      3       0.3518724       82.72697
2010    13      4       0.3162423       76.09789
2010    13      5       0.2736676       68.01538
2010    13      6       0.270674        67.5245
2010    13      7       0.2696322       67.65806
2010    14      0       0.2598037       65.6953
2010    14      1       0.2374926       60.89081
2010    14      2       0.222053        57.68943
2010    14      3       0.2071742       54.48105
2010    14      4       0.2023094       53.41243
2010    14      5       0.2034183       53.68558
2010    14      6       0.2125861       55.76659
2010    14      7       0.2195413       57.47532
2010    15      0       0.2173145       57.11629
2010    15      1       0.2039016       54.26909
2010    15      2       0.1830766       49.76047
2010    15      3       0.1730798       47.3908
2010    15      4       0.162945        44.93812
2010    15      5       0.145088        40.82114
2010    15      6       0.1495208       41.84988
2010    15      7       0.1768691       48.17225
2010    16      0       0.1872197       50.4641
2010    16      1       0.1827886       49.41081
2010    16      2       0.1831922       49.40439
2010    16      3       0.1975076       52.41956
2010    16      4       0.2073658       54.51111
2010    16      5       0.2387339       61.19945
2010    16      6       0.2421778       61.90648
2010    16      7       0.2867908       70.77348
2010    17      0       0.3244735       77.98039
2010    17      1       0.305722        74.54996
2010    17      2       0.2860996       70.68327
2010    17      3       0.273951        68.17021
2010    17      4       0.2556652       64.30514
2010    17      5       0.2614686       65.37292
2010    17      6       0.2905721       71.20568
2010    17      7       0.395505        90.08117
2010    18      0       0.5650334       117.0764
2010    18      1       0.5996106       122.5368
2010    18      2       0.5354089       113.2761
2010    18      3       0.5629687       117.4899
2010    18      4       0.5207575       111.2335
2010    18      5       0.4734376       103.5192
2010    18      6       0.5247045       111.1277
2010    18      7       0.7465681       141.7443
2010    19      0       0.8198903       150.7579
2010    19      1       0.6617852       132.0716
2010    19      2       0.4229181       95.58994
2010    19      3       0.1872217       50.16268
2010    19      4       0.1073473       31.43053
2010    19      5       0.2594918       64.7602
2010    19      6       0.3015162       73.06536
2010    19      7       0.3265196       78.15183
2010    20      0       0.3233473       77.74039
2010    20      1       0.28944         71.4112
2010    20      2       0.2680614       67.24388
2010    20      3       0.2296845       59.36414
2010    20      4       0.2262415       58.7471
2010    20      5       0.2453291       62.63757
2010    20      6       0.2434032       62.31335
2010    20      7       0.2527461       64.38848
2010    21      0       0.2694854       67.79591
2010    21      1       0.2805744       69.91095
2010    21      2       0.2884027       71.49365
2010    21      3       0.2741158       68.75588
2010    21      4       0.2260318       58.90783
2010    21      5       0.2475302       63.16734
2010    21      6       0.2901152       72.09768
2010    21      7       0.3891301       90.95099
2010    22      0       0.4810971       106.0708
2010    22      1       0.4462259       99.94908
2010    22      2       0.4795629       105.2976
2010    22      3       0.5928934       121.4299
2010    22      4       0.5538416       115.3581
2010    22      5       0.5009147       107.9186
2010    22      6       0.7694353       143.6927
2010    22      7       0.8022136       147.2492
2010    23      0       0.687051        133.6546
2010    23      1       0.6112088       123.2598
2010    23      2       0.5138019       108.7754
2010    23      3       0.4620181       100.5363
2010    23      4       0.5161729       109.1923
2010    23      5       0.5011537       107.1044
2010    23      6       0.6093317       122.9497
2010    23      7       0.5008676       107.0897
2010    24      0       0.4307801       95.97025
2010    24      1       0.4329272       96.13177
2010    24      2       0.4194959       93.9987
2010    24      3       0.3352182       79.33318
2010    24      4       0.2891424       70.33501
2010    24      5       0.2649236       65.31944
2010    24      6       0.3861681       88.21785
2010    24      7       0.5523383       115.6408
2010    25      0       0.565794        118.6082
2010    25      1       0.5489937       116.9865
2010    25      2       0.5514771       117.984
2010    25      3       0.5444734       116.8594
2010    25      4       0.5121197       111.3149
2010    25      5       0.61516         125.4934
2010    25      6       0.4406169       96.25383
2010    25      7       0.217628        54.33724
2010    26      0       0.188783        48.41671
2010    26      1       0.1876704       48.33281
2010    26      2       0.1611567       42.73161
2010    26      3       0.1303103       36.0714
2010    26      4       0.1184229       33.48532
2010    26      5       0.1160348       32.88107
2010    26      6       0.1983472       50.42044
2010    26      7       0.1901786       48.7778
2010    27      0       0.1455933       39.26788
2010    27      1       0.1543353       41.05019
2010    27      2       0.1753591       45.52436
2010    27      3       0.1554401       41.38615
2010    27      4       0.1430619       38.73768
2010    27      5       0.1077885       30.85466
2010    27      6       0.103134        29.86149
2010    27      7       0.1288704       35.82041
2010    28      0       0.1100631       31.71371
2010    28      1       0.05984329      19.77021
2010    28      2       0.0630163       20.40934
2010    28      3       0.07180413      22.43959
2010    28      4       0.07796392      23.96736
2010    28      5       0.0936719       27.61622
2010    28      6       0.1425816       39.17657
2010    28      7       0.1654627       44.65382
2010    29      0       0.1368127       38.28813
2010    29      1       0.1218036       34.66552
2010    29      2       0.1272837       36.163
2010    29      3       0.1619695       44.38515
2010    29      4       0.1827322       49.20212
2010    29      5       0.1708719       46.76149
2010    29      6       0.1763211       48.06274
2010    29      7       0.2155298       56.56558
2010    30      0       0.1854854       49.96386
2010    30      1       0.1572932       43.35241
2010    30      2       0.1474122       40.96953
2010    30      3       0.1481398       41.2256
2010    30      4       0.1964123       52.31656
2010    30      5       0.2257427       58.45448
2010    30      6       0.2243302       58.04432
2010    30      7       0.2279188       58.93544
2010    31      0       0.2682616       66.66809
2010    31      1       0.3427638       80.21977
2010    31      2       0.50741         107.7235
2010    31      3       0.2181843       55.92381
2010    31      4       0.1903          50.11409
2010    31      5       0.1850657       48.63373
2010    31      6       0.2132965       54.79211
2010    31      7       0.2835775       68.7812
2011    1       0       0.4915848       109.0814
2011    1       1       0.4583398       103.7466
2011    1       2       0.4299648       99.19546
2011    1       3       0.4358473       99.98746
2011    1       4       0.4333378       99.12038
2011    1       5       0.4291055       98.02192
2011    1       6       0.4691642       104.6979
2011    1       7       0.5515416       117.8204
2011    2       0       0.6532268       132.1307
2011    2       1       0.7202215       140.9806
2011    2       2       0.6598037       133.3343
2011    2       3       0.5514007       117.9652
2011    2       4       0.5957077       124.0767
2011    2       5       0.5580206       118.7586
2011    2       6       0.5538194       118.446
2011    2       7       0.598942        125.3113
2011    3       0       0.6723959       135.4833
2011    3       1       0.7231669       142.0487
2011    3       2       0.7374968       144.2416
2011    3       3       0.6750359       136.3275
2011    3       4       0.6577079       133.8971
2011    3       5       0.6395673       131.1264
2011    3       6       0.6868033       137.1068
2011    3       7       0.7436682       144.536
2011    4       0       0.6996909       138.5578
2011    4       1       0.5369736       115.4157
2011    4       2       0.5067574       111.1394
2011    4       3       0.5465972       117.7599
2011    4       4       0.5913009       124.2285
2011    4       5       0.5243627       114.2408
2011    4       6       0.6190921       127.7408
2011    4       7       0.8300991       154.4619
2011    5       0       0.8039471       152.227
2011    5       1       0.6940628       138.0623
2011    5       2       0.6514042       132.5413
2011    5       3       0.5955496       124.7515
2011    5       4       0.5794263       121.7441
2011    5       5       0.5306123       114.3759
2011    5       6       0.5995066       125.0895
2011    5       7       0.6175082       128.2389
2011    6       0       0.5391895       115.7953
2011    6       1       0.5707539       120.4605
2011    6       2       0.5874684       122.9678
2011    6       3       0.5374496       115.3282
2011    6       4       0.4674496       104.1993
2011    6       5       0.4125217       94.99431
2011    6       6       0.5266948       113.494
2011    6       7       0.5661269       118.78
2011    7       0       0.2137811       54.96945
2011    7       1       0.2298708       58.03517
2011    7       2       0.1553536       42.20266
2011    7       3       0.09337621      27.73727
2011    7       4       0.09628007      28.38197
2011    7       5       0.1068517       30.89738
2011    7       6       0.1373632       38.13042
2011    7       7       0.1733439       46.13068
2011    8       0       0.2795623       67.49253
2011    8       1       0.3804171       85.94311
2011    8       2       0.4927645       104.7165
2011    8       3       0.5736134       117.2723
2011    8       4       0.62125         124.3513
2011    8       5       0.5417076       111.8391
2011    8       6       0.5895178       118.689
2011    8       7       0.4268625       94.32401
2011    9       0       0.3597028       82.97349
2011    9       1       0.3755756       85.82427
2011    9       2       0.3602671       83.21798
2011    9       3       0.318479        75.47329
2011    9       4       0.3518813       81.31027
2011    9       5       0.3207063       75.46598
2011    9       6       0.333502        78.04304
2011    9       7       0.4325389       95.22533
2011    10      0       0.4602175       99.91841
2011    10      1       0.3917369       88.56947
2011    10      2       0.2931808       70.89158
2011    10      3       0.2130139       54.87418
2011    10      4       0.1874508       49.42387
2011    10      5       0.1797551       47.72612
2011    10      6       0.2052052       53.38353
2011    10      7       0.2711588       67.04013
2011    11      0       0.292563        71.12159
2011    11      1       0.2829326       69.12874
2011    11      2       0.3117078       74.31366
2011    11      3       0.4684219       101.0169
2011    11      4       0.5251431       110.2618
2011    11      5       0.4435473       98.09081
2011    11      6       0.4024059       91.62763
2011    11      7       0.5048882       108.4584
2011    12      0       0.38259         88.29637
2011    12      1       0.4613944       101.8272
2011    12      2       0.3706236       86.06186
2011    12      3       0.330803        78.64109
2011    12      4       0.1925847       50.77715
2011    12      5       0.1386435       38.54831
2011    12      6       0.1635496       44.38186
2011    12      7       0.1701967       46.06961
2011    13      0       0.1599977       43.75565
2011    13      1       0.1608897       43.66405
2011    13      2       0.1797875       47.76409
2011    13      3       0.2246475       57.16896
2011    13      4       0.2562245       63.97822
2011    13      5       0.2872895       70.71996
2011    13      6       0.3164548       76.72622
2011    13      7       0.3599669       84.76069
2011    14      0       0.3850046       89.20022
2011    14      1       0.3676418       85.99275
2011    14      2       0.4087899       93.29061
2011    14      3       0.4062268       93.07076
2011    14      4       0.3722661       87.26072
2011    14      5       0.3263642       78.66602
2011    14      6       0.3312843       79.67459
2011    14      7       0.3631561       85.70703
2011    15      0       0.362846        85.60521
2011    15      1       0.2974277       73.31455
2011    15      2       0.2477774       63.45725
2011    15      3       0.2236169       58.34913
2011    15      4       0.1885207       50.57212
2011    15      5       0.2387463       61.4385
2011    15      6       0.3041641       74.55348
2011    15      7       0.3590735       85.25127
2011    16      0       0.3113406       76.52229
2011    16      1       0.2499397       64.23885
2011    16      2       0.2209829       58.00232
2011    16      3       0.3104258       76.08823
2011    16      4       0.3367008       80.84357
2011    16      5       0.3825473       88.98507
2011    16      6       0.3949011       91.29878
2011    16      7       0.3968786       91.49909
2011    17      0       0.3856863       89.13904
2011    17      1       0.4532892       100.2727
2011    17      2       0.4006074       92.36405
2011    17      3       0.3563011       84.21576
2011    17      4       0.5019229       108.831
2011    17      5       0.4793967       103.7746
2011    17      6       0.4205645       93.91714
2011    17      7       0.3091128       74.30659
2011    18      0       0.2568141       63.87661
2011    18      1       0.1800815       47.62349
2011    18      2       0.1782385       47.06275
2011    18      3       0.2102979       53.88071
2011    18      4       0.1955078       50.56639
2011    18      5       0.156403        42.17766
2011    18      6       0.149486        40.70583
2011    18      7       0.1616229       43.66162
2011    19      0       0.1624032       43.99065
2011    19      1       0.1619726       43.87814
2011    19      2       0.1483412       40.87489
2011    19      3       0.1549534       42.44039
2011    19      4       0.1553832       42.67363
2011    19      5       0.1553178       42.79068
2011    19      6       0.1709415       46.27645
2011    19      7       0.2038506       53.56979
2011    20      0       0.2195797       57.00609
2011    20      1       0.2037716       53.57076
2011    20      2       0.2055898       53.70936
2011    20      3       0.2549083       63.77923
2011    20      4       0.2360914       59.98017
2011    20      5       0.2192401       56.92306
2011    20      6       0.2344728       60.31596
2011    20      7       0.2752861       68.62548
2011    21      0       0.273357        68.26768
2011    21      1       0.2536905       64.20221
2011    21      2       0.2267783       58.36436
2011    21      3       0.2247422       57.89199
2011    21      4       0.2414394       61.14957
2011    21      5       0.2403727       60.83009
2011    21      6       0.2298248       58.76566
2011    21      7       0.242737        61.83529
2011    22      0       0.2948641       72.12887
2011    22      1       0.3243205       77.52161
2011    22      2       0.4416401       97.31565
2011    22      3       0.4887809       104.9206
2011    22      4       0.4154505       93.4564
2011    22      5       0.305717        73.85835
2011    22      6       0.3056777       73.93744
2011    22      7       0.3183144       76.50439
2011    23      0       0.3119261       75.01859
2011    23      1       0.2765935       68.41588
2011    23      2       0.2342357       60.23248
2011    23      3       0.2031336       53.69615
2011    23      4       0.2088963       54.86933
2011    23      5       0.1878451       50.35276
2011    23      6       0.1764074       47.84473
2011    23      7       0.1983404       52.59178
2011    24      0       0.1911853       50.96105
2011    24      1       0.1790364       48.26791
2011    24      2       0.1712179       46.46564
2011    24      3       0.1752802       47.35901
2011    24      4       0.152947        42.30162
2011    24      5       0.1083048       31.98003
2011    24      6       0.1007269       30.34875
2011    24      7       0.1526051       42.4762
2011    25      0       0.234961        60.45691
2011    25      1       0.2764876       69.0293
2011    25      2       0.274223        68.65386
2011    25      3       0.2983686       73.25135
2011    25      4       0.3250519       78.0441
2011    25      5       0.2836517       69.97709
2011    25      6       0.3364894       79.74908
2011    25      7       0.4773733       103.5576
2011    26      0       0.6792453       132.697
2011    26      1       0.682508        132.2519
2011    26      2       0.6166487       122.212
2011    26      3       0.5313841       110.259
2011    26      4       0.5471642       111.4592
2011    26      5       0.5313411       108.966
2011    26      6       0.4962751       103.5135
2011    26      7       0.4198882       91.61282
2011    27      0       0.3398161       78.19608
2011    27      1       0.2279343       57.14435
2011    27      2       0.1168381       33.40302
2011    27      3       0.05355296      18.17502
2011    27      4       0.04075137      14.77871
2011    27      5       0.05651631      18.6111
2011    27      6       0.1046313       29.85036
2011    27      7       0.1911398       49.11864
2011    28      0       0.1975136       51.0074
2011    28      1       0.1599432       42.98685
2011    28      2       0.1160583       33.07783
2011    28      3       0.1002811       29.38578
2011    28      4       0.08345623      25.45457
2011    28      5       0.07885058      24.40496
2011    28      6       0.1035236       30.24703
2011    28      7       0.1455855       39.9846
2011    29      0       0.152388        41.28857
2011    29      1       0.1464403       39.51125
2011    29      2       0.1269056       35.22704
2011    29      3       0.1228862       34.28417
2011    29      4       0.1559246       41.4224
2011    29      5       0.2514709       61.60057
2011    29      6       0.2361557       59.56354
2011    29      7       0.2453177       61.57535
2011    30      0       0.2665778       65.81538
2011    30      1       0.2452095       61.68681
2011    30      2       0.2976628       71.71998
2011    30      3       0.3201382       75.77569
2011    30      4       0.2456942       61.67141
2011    30      5       0.2352011       59.77965
2011    30      6       0.2378219       60.47359
2011    30      7       0.2831689       69.6829
2011    31      0       0.2596971       65.27743
2011    31      1       0.2171821       56.63276
2011    31      2       0.1897863       50.83434
2011    31      3       0.1718796       46.77042
2011    31      4       0.166514        45.5346
2011    31      5       0.1658985       45.3073
2011    31      6       0.2043292       53.63363
2011    31      7       0.2693911       67.53185
2012    1       0       0.531873        113.5194
2012    1       1       0.4803118       105.6977
2012    1       2       0.5485865       116.452
2012    1       3       0.6405519       129.6566
2012    1       4       0.6663972       133.395
2012    1       5       0.4548367       101.6146
2012    1       6       0.3445463       82.43787
2012    1       7       0.3360354       80.91487
2012    2       0       0.3466441       82.97549
2012    2       1       0.3240636       78.68969
2012    2       2       0.2946645       72.89604
2012    2       3       0.300991        74.38578
2012    2       4       0.3103367       76.29409
2012    2       5       0.2502199       64.10789
2012    2       6       0.2147479       56.98845
2012    2       7       0.2333505       61.07907
2012    3       0       0.253589        65.21272
2012    3       1       0.2376692       61.79675
2012    3       2       0.2331887       60.93939
2012    3       3       0.2629345       67.17184
2012    3       4       0.2052426       54.66852
2012    3       5       0.221255        58.14137
2012    3       6       0.258144        65.7443
2012    3       7       0.2933517       72.79286
2012    4       0       0.3106628       75.79127
2012    4       1       0.404758        92.41292
2012    4       2       0.3006124       73.4539
2012    4       3       0.1720061       46.5212
2012    4       4       0.1972615       51.7575
2012    4       5       0.281484        69.06137
2012    4       6       0.3076251       74.38492
2012    4       7       0.3437228       81.16361
2012    5       0       0.3651286       84.9684
2012    5       1       0.4011199       91.1939
2012    5       2       0.3397609       80.23931
2012    5       3       0.407044        91.83101
2012    5       4       0.3469864       81.13015
2012    5       5       0.1735782       46.50738
2012    5       6       0.1734991       46.08991
2012    5       7       0.2027261       52.23087
2012    6       0       0.2185132       55.5301
2012    6       1       0.2219627       55.93083
2012    6       2       0.2386648       59.33038
2012    6       3       0.2105428       53.99592
2012    6       4       0.1472184       40.17111
2012    6       5       0.1158262       32.78092
2012    6       6       0.183054        47.47289
2012    6       7       0.1664848       43.91064
2012    7       0       0.151987        40.78562
2012    7       1       0.1331118       36.66583
2012    7       2       0.1290327       35.71778
2012    7       3       0.1062958       30.59128
2012    7       4       0.1057828       30.40624
2012    7       5       0.1059003       30.52231
2012    7       6       0.1149065       32.56462
2012    7       7       0.1448267       39.35707
2012    8       0       0.1499768       40.81906
2012    8       1       0.1448105       39.79142
2012    8       2       0.1524459       41.72436
2012    8       3       0.1553167       42.53359
2012    8       4       0.145178        40.29967
2012    8       5       0.1440461       40.04472
2012    8       6       0.1384347       38.7487
2012    8       7       0.143344        39.85549
2012    9       0       0.1373097       38.37599
2012    9       1       0.1362571       38.17649
2012    9       2       0.1755511       47.2445
2012    9       3       0.1791285       48.00978
2012    9       4       0.1815728       48.18987
2012    9       5       0.2097427       54.12007
2012    9       6       0.2073536       54.06388
2012    9       7       0.2256817       58.09759
2012    10      0       0.2327896       59.4902
2012    10      1       0.2203321       56.90747
2012    10      2       0.2122845       55.24792
2012    10      3       0.2080533       54.37161
2012    10      4       0.2062272       54.06017
2012    10      5       0.2021986       53.16625
2012    10      6       0.2685582       66.68861
2012    10      7       0.3894398       89.43387
2012    11      0       0.5230351       111.2492
2012    11      1       0.4876644       105.8662
2012    11      2       0.4192275       95.18735
2012    11      3       0.435191        98.0635
2012    11      4       0.3949763       90.8613
2012    11      5       0.390195        90.02073
2012    11      6       0.4136041       93.94844
2012    11      7       0.4173672       94.70501
2012    12      0       0.4320843       97.30273
2012    12      1       0.4596573       102.1967
2012    12      2       0.4807985       105.7233
2012    12      3       0.4713161       104.2806
2012    12      4       0.4439608       99.83337
2012    12      5       0.4927373       108.4145
2012    12      6       0.547272        115.6108
2012    12      7       0.4049551       93.21224
2012    13      0       0.4108171       94.02285
2012    13      1       0.5835965       119.9013
2012    13      2       0.252894        63.34875
2012    13      3       0.1800149       47.89026
2012    13      4       0.1891399       49.75856
2012    13      5       0.2660562       65.24522
2012    13      6       0.6722762       131.3452
2012    13      7       0.50595         108.7677
2012    14      0       0.4329061       96.76491
2012    14      1       0.5810914       119.565
2012    14      2       0.4725236       103.748
2012    14      3       0.3790247       87.61751
2012    14      4       0.3166625       76.20702
2012    14      5       0.2591086       64.77649
2012    14      6       0.2473892       62.55527
2012    14      7       0.2933661       72.09409
2012    15      0       0.2970843       73.01275
2012    15      1       0.2757776       68.78351
2012    15      2       0.2552925       64.55199
2012    15      3       0.259756        65.56276
2012    15      4       0.2525224       64.35717
2012    15      5       0.2544157       64.83205
2012    15      6       0.2841332       70.87826
2012    15      7       0.3120828       76.45561
2012    16      0       0.2739746       68.69059
2012    16      1       0.3181394       75.95182
2012    16      2       0.2440931       62.56821
2012    16      3       0.2226028       58.43544
2012    16      4       0.1537543       43.1123
2012    16      5       0.2355028       60.61907
2012    16      6       0.3528004       83.90066
2012    16      7       0.4993804       108.322
2012    17      0       0.4452239       101.1441
2012    17      1       0.562799        118.8805
2012    17      2       0.2285742       58.35164
2012    17      3       0.09273924      28.17374
2012    17      4       0.1506209       41.20869
2012    17      5       0.1215476       34.41271
2012    17      6       0.125665        35.23663
2012    17      7       0.1478138       40.23148
2012    18      0       0.1553555       42.04355
2012    18      1       0.1366015       37.92948
2012    18      2       0.1550962       42.06685
2012    18      3       0.1643308       44.16979
2012    18      4       0.1526865       41.80395
2012    18      5       0.1549996       42.35534
2012    18      6       0.1734973       46.6177
2012    18      7       0.199996        52.60264
2012    19      0       0.218242        56.52377
2012    19      1       0.2407249       61.25755
2012    19      2       0.2499435       63.52884
2012    19      3       0.2901878       71.82693
2012    19      4       0.2664191       66.9422
2012    19      5       0.1847091       49.81556
2012    19      6       0.1479092       41.02318
2012    19      7       0.1774855       47.9933
2012    20      0       0.2148479       55.59773
2012    20      1       0.2854463       69.19354
2012    20      2       0.3323871       79.14102
2012    20      3       0.3713501       86.7087
2012    20      4       0.4081321       93.25003
2012    20      5       0.3800487       87.98296
2012    20      6       0.2923403       71.63988
2012    20      7       0.308219        75.10847
2012    21      0       0.2937833       72.28132
2012    21      1       0.2444945       62.43138
2012    21      2       0.2214413       57.49424
2012    21      3       0.2284318       59.01017
2012    21      4       0.2150696       56.15975
2012    21      5       0.1934352       51.57058
2012    21      6       0.2103082       55.45517
2012    21      7       0.2594826       65.845
2012    22      0       0.3319283       80.05953
2012    22      1       0.3725741       87.65105
2012    22      2       0.3565619       84.75573
2012    22      3       0.298247        73.6874
2012    22      4       0.2982238       73.6151
2012    22      5       0.3656114       86.43649
2012    22      6       0.3808721       88.88811
2012    22      7       0.3504658       83.09149
2012    23      0       0.2995551       73.74047
2012    23      1       0.3147613       76.95683
2012    23      2       0.2399373       61.79762
2012    23      3       0.2377326       61.53015
2012    23      4       0.2477662       63.42169
2012    23      5       0.2500181       63.79807
2012    23      6       0.2790151       69.86277
2012    23      7       0.3203598       77.46797
2012    24      0       0.3288143       79.31335
2012    24      1       0.324145        78.12577
2012    24      2       0.3917473       90.55472
2012    24      3       0.4145061       94.44106
2012    24      4       0.3540774       83.65848
2012    24      5       0.3611882       84.5099
2012    24      6       0.3896192       89.62193
2012    24      7       0.4834372       104.3641
2012    25      0       0.6729969       131.695
2012    25      1       0.5416121       111.4344
2012    25      2       0.3645241       82.11477
2012    25      3       0.3399709       77.60777
2012    25      4       0.2645992       63.57092
2012    25      5       0.220018        54.60314
2012    25      6       0.2596775       62.36657
2012    25      7       0.2956528       68.94214
2012    26      0       0.363245        81.2186
2012    26      1       0.3794334       83.98436
2012    26      2       0.3402069       77.334
2012    26      3       0.2035191       51.20261
2012    26      4       0.1666415       43.49827
2012    26      5       0.1338459       36.4458
2012    26      6       0.134057        36.47681
2012    26      7       0.1341925       36.66138
2012    27      0       0.1406086       38.17046
2012    27      1       0.1646272       43.18013
2012    27      2       0.2377215       57.99493
2012    27      3       0.2558256       61.81416
2012    27      4       0.1893598       48.76315
2012    27      5       0.18655         48.20862
2012    27      6       0.192427        49.45978
2012    27      7       0.2038977       52.01241
2012    28      0       0.2350915       58.42318
2012    28      1       0.2935294       70.00585
2012    28      2       0.3559396       81.81485
2012    28      3       0.3739524       85.54882
2012    28      4       0.298836        72.34265
2012    28      5       0.2735633       67.5924
2012    28      6       0.3472244       81.25625
2012    28      7       0.2818007       69.40809
2012    29      0       0.2551387       63.9259
2012    29      1       0.2907396       71.103
2012    29      2       0.2377549       60.44106
2012    29      3       0.2280326       58.10714
2012    29      4       0.3119303       74.73605
2012    29      5       0.3653376       84.45698
2012    29      6       0.4330812       96.2807
2012    29      7       0.4533752       100.2246
2012    30      0       0.4195894       94.59076
2012    30      1       0.3309046       79.36617
2012    30      2       0.2980546       73.27543
2012    30      3       0.2607945       65.66666
2012    30      4       0.2595918       65.12997
2012    30      5       0.2071184       53.87015
2012    30      6       0.2207673       56.67259
2012    30      7       0.277174        68.41693
2012    31      0       0.30878         74.78738
2012    31      1       0.324631        77.58411
2012    31      2       0.3233561       77.1835
2012    31      3       0.2747814       68.24655
2012    31      4       0.2260091       58.51561
2012    31      5       0.2159591       56.45411
2012    31      6       0.2733598       68.32069
2012    31      7       0.2980987       73.30618
2013    1       0       0.3985793       94.43608
2013    1       1       0.3037068       76.15286
2013    1       2       0.2561757       66.07735
2013    1       3       0.2734949       69.50188
2013    1       4       0.2910347       72.98634
2013    1       5       0.3381413       82.18212
2013    1       6       0.33616         81.95731
2013    1       7       0.4202129       97.68088
2013    2       0       0.4906484       109.6491
2013    2       1       0.432564        99.45315
2013    2       2       0.3097379       76.05688
2013    2       3       0.257557        65.45787
2013    2       4       0.2637493       66.84151
2013    2       5       0.2814081       70.07847
2013    2       6       0.3182889       77.40816
2013    2       7       0.407872        94.17257
2013    3       0       0.4772403       106.0611
2013    3       1       0.5152685       112.2291
2013    3       2       0.5159958       112.4309
2013    3       3       0.3481925       83.22536
2013    3       4       0.359278        85.51526
2013    3       5       0.3318568       80.64223
2013    3       6       0.3963527       92.40997
2013    3       7       0.5202013       112.5912
2013    4       0       0.6869578       136.5003
2013    4       1       0.6924963       137.4386
2013    4       2       0.8054745       151.898
2013    4       3       0.7925822       149.3372
2013    4       4       0.4190604       93.13118
2013    4       5       0.274038        66.06745
2013    4       6       0.3528348       80.04
2013    4       7       0.3096218       72.31267
2013    5       0       0.2967299       69.91409
2013    5       1       0.2356404       58.07382
2013    5       2       0.2310417       56.99747
2013    5       3       0.2537066       61.58492
2013    5       4       0.3228141       75.15648
2013    5       5       0.3782977       84.96462
2013    5       6       0.1132421       32.30784
2013    5       7       0.1250134       35.60893
2013    6       0       0.09834699      29.50171
2013    6       1       0.09425797      28.23113
2013    6       2       0.1554874       42.11035
2013    6       3       0.2813617       69.32651
2013    6       4       0.3619973       85.41958
2013    6       5       0.4071603       93.53652
2013    6       6       0.3554676       83.97522
2013    6       7       0.3480142       82.94949
2013    7       0       0.3588851       84.95516
2013    7       1       0.2848792       70.79789
2013    7       2       0.2318053       59.98222
2013    7       3       0.1992467       53.04031
2013    7       4       0.1744988       47.56655
2013    7       5       0.1409219       39.97331
2013    7       6       0.1386978       39.54819
2013    7       7       0.1802857       49.22879
2013    8       0       0.2213463       58.42438
2013    8       1       0.2192349       58.02113
2013    8       2       0.163576        45.42839
2013    8       3       0.1523301       42.51052
2013    8       4       0.1704327       46.59173
2013    8       5       0.1767156       47.94972
2013    8       6       0.2193229       57.46641
2013    8       7       0.3244815       78.86886
2013    9       0       0.3691076       87.18404
2013    9       1       0.3891956       90.70334
2013    9       2       0.3721819       87.44059
2013    9       3       0.3774354       87.98928
2013    9       4       0.3591129       84.527
2013    9       5       0.3458407       82.01808
2013    9       6       0.3588434       84.66442
2013    9       7       0.4939021       107.469
2013    10      0       0.5891911       121.8946
2013    10      1       0.4509906       100.7323
2013    10      2       0.3631577       85.48183
2013    10      3       0.4042006       92.66645
2013    10      4       0.4538721       101.2553
2013    10      5       0.5414921       114.6722
2013    10      6       0.5768067       119.2499
2013    10      7       0.6721507       132.4446
2013    11      0       0.754822        142.8739
2013    11      1       0.414381        91.85614
2013    11      2       0.4120816       91.58588
2013    11      3       0.3589334       82.67534
2013    11      4       0.3789517       86.40526
2013    11      5       0.3839614       87.55767
2013    11      6       0.4708272       101.6598
2013    11      7       0.5541999       114.3923
2013    12      0       0.5258166       110.4613
2013    12      1       0.4277062       95.1623
2013    12      2       0.3305109       77.92328
2013    12      3       0.2284579       57.98054
2013    12      4       0.1889016       49.65501
2013    12      5       0.2060822       53.09553
2013    12      6       0.2429482       61.04846
2013    12      7       0.2910564       70.79465
2013    13      0       0.3393629       80.03605
2013    13      1       0.3094475       74.82904
2013    13      2       0.2318957       59.37783
2013    13      3       0.2588492       64.81721
2013    13      4       0.315407        76.03725
2013    13      5       0.319025        76.93955
2013    13      6       0.4208396       95.46634
2013    13      7       0.6347482       127.8679
2013    14      0       0.6050193       124.0401
2013    14      1       0.6425822       129.4104
2013    14      2       0.5288517       112.9858
2013    14      3       0.3775044       87.70289
2013    14      4       0.3407793       80.49955
2013    14      5       0.423306        93.59019
2013    14      6       0.4245393       94.02435
2013    14      7       0.4107947       91.62686
2013    15      0       0.4438243       96.94387
2013    15      1       0.3663371       83.931
2013    15      2       0.3392283       79.03135
2013    15      3       0.2769774       67.04476
2013    15      4       0.2276663       57.11001
2013    15      5       0.2624687       63.81465
2013    15      6       0.2706522       65.57429
2013    15      7       0.3568787       81.57806
2013    16      0       0.3171356       74.36353
2013    16      1       0.2922562       69.82546
2013    16      2       0.284313        68.24482
2013    16      3       0.2670933       64.66857
2013    16      4       0.2124816       53.97798
2013    16      5       0.1908588       49.45266
2013    16      6       0.2623448       63.73911
2013    16      7       0.2672191       64.86548
2013    17      0       0.2131581       54.44016
2013    17      1       0.1411474       38.87381
2013    17      2       0.124793        35.01924
2013    17      3       0.1842039       47.8503
2013    17      4       0.2146969       54.31437
2013    17      5       0.2575206       63.03913
2013    17      6       0.2209378       55.76337
2013    17      7       0.2957188       70.32155
2013    18      0       0.3517119       80.52682
2013    18      1       0.3295115       76.62557
2013    18      2       0.3500769       80.19884
2013    18      3       0.378337        85.24645
2013    18      4       0.4274981       92.57269
2013    18      5       0.2640372       63.26361
2013    18      6       0.2196629       54.7561
2013    18      7       0.152441        40.86143
2013    19      0       0.165858        43.85512
2013    19      1       0.1895293       49.01792
2013    19      2       0.2076441       53.0202
2013    19      3       0.2351407       59.0007
2013    19      4       0.2365953       59.26528
2013    19      5       0.2319692       58.29887
2013    19      6       0.212413        54.54723
2013    19      7       0.2220641       56.76531
2013    20      0       0.2028039       52.50631
2013    20      1       0.1798759       47.25317
2013    20      2       0.1733159       46.12013
2013    20      3       0.1985894       51.69533
2013    20      4       0.2542078       62.78674
2013    20      5       0.3351466       77.79035
2013    20      6       0.410655        90.74612
2013    20      7       0.4770223       102.0253
2013    21      0       0.5265481       109.5821
2013    21      1       0.3455779       79.15959
2013    21      2       0.1619117       43.28193
2013    21      3       0.1817278       47.43034
2013    21      4       0.2141249       54.35965
2013    21      5       0.206012        52.72406
2013    21      6       0.259712        63.71419
2013    21      7       0.3440081       79.91941
2013    22      0       0.3406248       79.61873
2013    22      1       0.3076031       73.63833
2013    22      2       0.3487801       81.49537
2013    22      3       0.3576576       83.17176
2013    22      4       0.3167072       75.78183
2013    22      5       0.2928252       71.41449
2013    22      6       0.318521        76.40625
2013    22      7       0.3377104       80.25955
2013    23      0       0.2952664       72.26678
2013    23      1       0.2101871       54.80427
2013    23      2       0.1838434       49.07158
2013    23      3       0.1976236       52.11535
2013    23      4       0.2009319       52.89243
2013    23      5       0.1941434       51.48385
2013    23      6       0.2156518       56.12474
2013    23      7       0.2341982       60.1785
2013    24      0       0.2302412       59.42695
2013    24      1       0.2231562       57.82112
2013    24      2       0.2068079       54.32486
2013    24      3       0.179156        48.32844
2013    24      4       0.1494854       41.79202
2013    24      5       0.1419794       40.07919
2013    24      6       0.1686705       45.94496
2013    24      7       0.229568        58.77017
2013    25      0       0.2633522       65.66082
2013    25      1       0.2684263       66.59172
2013    25      2       0.2827744       69.38423
2013    25      3       0.3053596       73.7428
2013    25      4       0.2838712       69.61186
2013    25      5       0.2661032       66.04054
2013    25      6       0.2854911       69.73926
2013    25      7       0.3430202       80.58953
2013    26      0       0.3861591       88.34632
2013    26      1       0.3488011       81.44199
2013    26      2       0.3002702       72.41059
2013    26      3       0.3134768       75.11742
2013    26      4       0.3194633       76.5279
2013    26      5       0.2706052       67.23248
2013    26      6       0.2657625       66.32843
2013    26      7       0.2811271       69.53452
2013    27      0       0.2737186       68.12174
2013    27      1       0.2270324       58.59985
2013    27      2       0.1889593       50.42132
2013    27      3       0.188353        50.20473
2013    27      4       0.1725405       46.70915
2013    27      5       0.1576947       43.27923
2013    27      6       0.2153311       55.82974
2013    27      7       0.3374539       79.84121
2013    28      0       0.3515309       82.23145
2013    28      1       0.3325178       78.67572
2013    28      2       0.3588691       83.44782
2013    28      3       0.3920948       88.77491
2013    28      4       0.4204525       93.74861
2013    28      5       0.3685452       85.35627
2013    28      6       0.3191431       76.44183
2013    28      7       0.3431544       80.58352
2013    29      0       0.3057972       73.98145
2013    29      1       0.2552903       64.39579
2013    29      2       0.2547465       64.3264
2013    29      3       0.2535975       63.83307
2013    29      4       0.2145669       55.56339
2013    29      5       0.2481017       62.4256
2013    29      6       0.3653617       84.46036
2013    29      7       0.3961167       89.29001
2013    30      0       0.3526208       81.55941
2013    30      1       0.4952962       105.1588
2013    30      2       0.5564816       114.4838
2013    30      3       0.2591305       64.09065
2013    30      4       0.2006564       51.87589
2013    30      5       0.1606915       43.15113
2013    30      6       0.2309304       58.07875
2013    30      7       0.3787681       85.10122
2013    31      0       0.4081552       90.07494
2013    31      1       0.2805506       67.35429
2013    31      2       0.1913572       49.52983
2013    31      3       0.2223216       55.66335
2013    31      4       0.2040608       52.28301
2013    31      5       0.1054387       30.80966
2013    31      6       0.139403        38.75885
2013    31      7       0.3456929       80.21584
2014    1       0       0.7246706       139.1671
2014    1       1       0.5926263       121.5502
2014    1       2       0.4084511       93.11007
2014    1       3       0.3900929       89.97824
2014    1       4       0.3764895       87.23655
2014    1       5       0.3969471       90.8481
2014    1       6       0.5602365       116.6984
2014    1       7       0.6736926       133.0209
2014    2       0       0.5154272       110.6911
2014    2       1       0.3426592       80.66781
2014    2       2       0.2825095       68.76523
2014    2       3       0.2249943       57.14929
2014    2       4       0.2262871       57.53644
2014    2       5       0.1621041       43.86061
2014    2       6       0.1935805       50.73256
2014    2       7       0.2637564       65.31981
2014    3       0       0.29332         71.16243
2014    3       1       0.2803398       68.65783
2014    3       2       0.2633957       65.2564
2014    3       3       0.2457026       61.59886
2014    3       4       0.1929898       50.73915
2014    3       5       0.1547718       42.01014
2014    3       6       0.1860956       48.91056
2014    3       7       0.2129768       54.99841
2014    4       0       0.1912683       50.75695
2014    4       1       0.1895288       50.37007
2014    4       2       0.2601676       65.3217
2014    4       3       0.3128334       75.85848
2014    4       4       0.3213904       77.58235
2014    4       5       0.3155343       76.27074
2014    4       6       0.358105        83.93972
2014    4       7       0.4322453       97.04974
2014    5       0       0.4416955       98.5816
2014    5       1       0.453049        100.0363
2014    5       2       0.4087028       92.88552
2014    5       3       0.3734217       87.06702
2014    5       4       0.3405304       81.22006
2014    5       5       0.2817614       70.04601
2014    5       6       0.3139809       76.43416
2014    5       7       0.3111547       76.1823
2014    6       0       0.3029563       74.33438
2014    6       1       0.275968        68.43213
2014    6       2       0.2647502       66.2339
2014    6       3       0.2370514       60.6372
2014    6       4       0.2295814       59.18628
2014    6       5       0.2261071       58.26449
2014    6       6       0.2916787       72.25997
2014    6       7       0.3779051       88.60745
2014    7       0       0.3841523       89.89426
2014    7       1       0.3544419       84.74474
2014    7       2       0.347005        83.50333
2014    7       3       0.3220499       78.77517
2014    7       4       0.2950089       73.46115
2014    7       5       0.3157559       77.42679
2014    7       6       0.3086552       76.06475
2014    7       7       0.3329143       80.72846
2014    8       0       0.3634411       86.38999
2014    8       1       0.3491244       83.62687
2014    8       2       0.316554        77.29815
2014    8       3       0.286992        71.21377
2014    8       4       0.2723865       68.01324
2014    8       5       0.254906        64.25399
2014    8       6       0.2833993       69.86248
2014    8       7       0.3545702       83.531
2014    9       0       0.3865396       89.37207
2014    9       1       0.427032        95.71854
2014    9       2       0.4478306       99.07636
2014    9       3       0.507984        108.3302
2014    9       4       0.547054        114.2862
2014    9       5       0.6568324       130.9866
2014    9       6       0.831062        151.9517
2014    9       7       0.7668523       144.1535
2014    10      0       0.8406114       152.8227
2014    10      1       0.8271512       151.2606
2014    10      2       0.7467094       141.6837
2014    10      3       0.6392327       127.3437
2014    10      4       0.7036412       136.0936
2014    10      5       0.806518        149.3036
2014    10      6       0.7966693       149.0477
2014    10      7       0.6086255       124.5703
2014    11      0       0.5088388       109.549
2014    11      1       0.4328666       97.48922
2014    11      2       0.380116        88.34162
2014    11      3       0.3759177       87.27902
2014    11      4       0.3437635       81.22838
2014    11      5       0.3406179       80.74825
2014    11      6       0.4390156       98.12337
2014    11      7       0.5569879       116.869
2014    12      0       0.5103973       110.0696
2014    12      1       0.3737665       86.91521
2014    12      2       0.3332837       78.58817
2014    12      3       0.3516248       81.43866
2014    12      4       0.3551527       82.50182
2014    12      5       0.4303422       95.65513
2014    12      6       0.5468691       113.5102
2014    12      7       0.497598        105.3386
2014    13      0       0.4613412       99.29645
2014    13      1       0.3949776       88.68786
2014    13      2       0.1951812       50.47319
2014    13      3       0.2037507       52.15519
2014    13      4       0.1778512       46.74434
2014    13      5       0.1614598       43.26599
2014    13      6       0.1683466       44.97179
2014    13      7       0.1929279       50.52007
2014    14      0       0.2003948       52.43035
2014    14      1       0.2089606       54.40353
2014    14      2       0.2308218       59.03693
2014    14      3       0.2363975       60.23607
2014    14      4       0.2171776       56.24829
2014    14      5       0.2070873       54.26094
2014    14      6       0.2233731       57.98203
2014    14      7       0.2581009       65.42576
2014    15      0       0.2462648       63.22341
2014    15      1       0.1742111       47.8063
2014    15      2       0.1363141       39.10567
2014    15      3       0.1213796       35.45461
2014    15      4       0.1067025       31.85299
2014    15      5       0.1055424       31.43987
2014    15      6       0.1229197       35.63243
2014    15      7       0.1911916       51.54122
2014    16      0       0.2424991       62.16641
2014    16      1       0.1307373       37.85632
2014    16      2       0.1496498       42.31745
2014    16      3       0.2165304       57.42384
2014    16      4       0.2790479       69.53765
2014    16      5       0.2988693       73.09402
2014    16      6       0.4181843       94.50591
2014    16      7       0.4137267       94.58504
2014    17      0       0.4721695       103.9717
2014    17      1       0.531339        112.7077
2014    17      2       0.3841597       88.79743
2014    17      3       0.3190258       77.00488
2014    17      4       0.2939711       72.27926
2014    17      5       0.301869        73.49097
2014    17      6       0.3238904       77.64472
2014    17      7       0.3705452       86.46668
2014    18      0       0.4012295       92.13982
2014    18      1       0.3919791       90.77112
2014    18      2       0.3858493       89.61536
2014    18      3       0.3785442       88.12747
2014    18      4       0.3538949       83.58611
2014    18      5       0.3245933       78.15292
2014    18      6       0.3490457       82.60157
2014    18      7       0.4207532       95.28194
2014    19      0       0.4431275       99.03761
2014    19      1       0.4360554       98.03865
2014    19      2       0.4498342       100.36
2014    19      3       0.4778312       104.655
2014    19      4       0.4978045       107.7176
2014    19      5       0.4711796       103.6814
2014    19      6       0.4580399       101.7602
2014    19      7       0.4900364       107.1917
2014    20      0       0.4992169       108.8734
2014    20      1       0.472449        104.8151
2014    20      2       0.4460736       100.6559
2014    20      3       0.410469        94.64687
2014    20      4       0.3860118       90.30288
2014    20      5       0.3737556       87.98711
2014    20      6       0.4320378       98.19762
2014    20      7       0.5791796       121.0951
2014    21      0       0.6689413       133.8767
2014    21      1       0.6382774       130.0681
2014    21      2       0.5446475       116.8641
2014    21      3       0.4887662       107.8428
2014    21      4       0.5047929       110.1115
2014    21      5       0.557267        117.9762
2014    21      6       0.6523765       131.2847
2014    21      7       0.7433629       143.4174
2014    22      0       0.7942831       149.1352
2014    22      1       0.7431305       142.9122
2014    22      2       0.5335882       113.7518
2014    22      3       0.3151557       76.44439
2014    22      4       0.5217145       112.168
2014    22      5       0.6703321       132.7027
2014    22      6       0.7080658       137.3081
2014    22      7       0.6788913       133.8902
2014    23      0       0.5074083       109.6412
2014    23      1       0.402324        92.12254
2014    23      2       0.3240831       77.85301
2014    23      3       0.2674185       66.71512
2014    23      4       0.2687695       67.16613
2014    23      5       0.3169858       76.61633
2014    23      6       0.3914353       90.24104
2014    23      7       0.4506398       100.3954
2014    24      0       0.4478462       100.6519
2014    24      1       0.440087        99.41338
2014    24      2       0.5514889       116.1605
2014    24      3       0.3846638       89.68514
2014    24      4       0.3348375       79.89071
2014    24      5       0.3049047       73.64953
2014    24      6       0.2545704       64.66596
2014    24      7       0.2836035       71.47304
2014    25      0       0.273271        69.54485
2014    25      1       0.2277827       60.00745
2014    25      2       0.1613614       45.21572
2014    25      3       0.1212262       35.70965
2014    25      4       0.1201867       35.35773
2014    25      5       0.133413        38.5222
2014    25      6       0.1636839       45.52066
2014    25      7       0.2105879       55.94683
2014    26      0       0.2407756       62.68288
2014    26      1       0.3080815       76.58992
2014    26      2       0.2444825       63.37948
2014    26      3       0.2759714       69.9677
2014    26      4       0.3855227       91.45438
2014    26      5       0.3654826       87.4688
2014    26      6       0.3946703       93.05838
2014    26      7       0.4666847       104.5964
2014    27      0       0.3799895       89.31643
2014    27      1       0.4194323       96.01604
2014    27      2       0.4500896       100.9297
2014    27      3       0.4821018       105.737
2014    27      4       0.3760575       87.26744
2014    27      5       0.3061955       73.624
2014    27      6       0.3047427       72.8088
2014    27      7       0.2995292       71.24675
2014    28      0       0.180794        47.58023
2014    28      1       0.0908564       27.27121
2014    28      2       0.09261289      27.34984
2014    28      3       0.134462        36.82757
2014    28      4       0.1513855       40.92366
2014    28      5       0.1375304       37.92433
2014    28      6       0.1370103       38.08181
2014    28      7       0.1872238       49.00556
2014    29      0       0.2178322       55.71246
2014    29      1       0.2110576       54.49176
2014    29      2       0.1935951       51.00564
2014    29      3       0.1790399       47.97489
2014    29      4       0.1640005       44.74889
2014    29      5       0.1776511       47.36
2014    29      6       0.1742189       46.69442
2014    29      7       0.2086135       54.28263
2014    30      0       0.249146        62.72327
2014    30      1       0.3189822       76.28836
2014    30      2       0.372921        86.20776
2014    30      3       0.3790975       87.43498
2014    30      4       0.3384466       79.96787
2014    30      5       0.3183312       75.9766
2014    30      6       0.3241519       77.30026
2014    30      7       0.3380928       80.30664
2014    31      0       0.3615162       84.68158
2014    31      1       0.3460319       81.76343
2014    31      2       0.2918839       71.49788
2014    31      3       0.2322371       59.66411
2014    31      4       0.2206245       57.15209
2014    31      5       0.2072701       54.30306
2014    31      6       0.2040634       53.94214
2014    31      7       0.2401846       61.78815
2015    1       0       0.7067201       138.8979
2015    1       1       0.6577478       133.4001
2015    1       2       0.6367534       131.0316
2015    1       3       0.7135162       141.4439
2015    1       4       0.724177        142.7517
2015    1       5       0.7498004       146.4649
2015    1       6       0.8556183       158.6043
2015    1       7       0.9502771       168.8304
2015    2       0       0.8929537       163.5077
2015    2       1       0.7899428       152.4237
2015    2       2       0.7761458       151.2076
2015    2       3       0.7004949       141.8523
2015    2       4       0.6538463       135.0582
2015    2       5       0.628799        130.2545
2015    2       6       0.3745161       89.29292
2015    2       7       0.6312238       129.7237
2015    3       0       0.9839204       171.85
2015    3       1       0.6857636       137.8154
2015    3       2       0.5422817       116.6782
2015    3       3       0.526118        113.2394
2015    3       4       0.4349791       98.14755
2015    3       5       0.3697504       86.78766
2015    3       6       0.3842941       89.45198
2015    3       7       0.4839993       106.3262
2015    4       0       0.6273242       128.0323
2015    4       1       0.6989318       138.6862
2015    4       2       0.6057118       126.1871
2015    4       3       0.4439208       100.8097
2015    4       4       0.3641806       86.31941
2015    4       5       0.3558374       84.756
2015    4       6       0.3891777       90.8652
2015    4       7       0.5373055       115.0822
2015    5       0       0.6131984       126.8798
2015    5       1       0.6223923       129.0075
2015    5       2       0.4711437       106.0703
2015    5       3       0.4243685       98.05864
2015    5       4       0.4487766       101.8418
2015    5       5       0.5108225       111.8432
2015    5       6       0.5145069       112.4542
2015    5       7       0.6042305       125.6127
2015    6       0       0.7097366       140.0573
2015    6       1       0.7234667       142.2232
2015    6       2       0.7207119       141.96
2015    6       3       0.7909654       150.8976
2015    6       4       0.7450322       145.0179
2015    6       5       0.6318732       129.8584
2015    6       6       0.7664325       147.2379
2015    6       7       0.8317253       154.3071
2015    7       0       0.7586399       146.0961
2015    7       1       0.5968678       124.5341
2015    7       2       0.4590415       102.8814
2015    7       3       0.4180972       95.61632
2015    7       4       0.4240227       96.57087
2015    7       5       0.4260799       96.94352
2015    7       6       0.4188066       95.82581
2015    7       7       0.4511318       101.6264
2015    8       0       0.4994783       109.8715
2015    8       1       0.5109164       111.9619
2015    8       2       0.4658244       104.92
2015    8       3       0.4662831       104.888
2015    8       4       0.4499576       101.8862
2015    8       5       0.4367723       99.30753
2015    8       6       0.4815337       106.7833
2015    8       7       0.6362659       130.0112
2015    9       0       0.7125387       140.2982
2015    9       1       0.8088111       152.2811
2015    9       2       0.6809861       136.6882
2015    9       3       0.4875123       108.2574
2015    9       4       0.4396197       100.0975
2015    9       5       0.3662828       86.87608
2015    9       6       0.3984455       92.37028
2015    9       7       0.5861363       122.2281
2015    10      0       0.648213        132.1629
2015    10      1       0.5974987       125.2332
2015    10      2       0.4931095       109.5318
2015    10      3       0.4287029       98.82276
2015    10      4       0.3301747       80.8168
2015    10      5       0.2733964       69.65216
2015    10      6       0.287091        72.81453
2015    10      7       0.3162806       78.86553
2015    11      0       0.3338941       82.35528
2015    11      1       0.3119033       78.08305
2015    11      2       0.2421741       63.61241
2015    11      3       0.2351488       61.85257
2015    11      4       0.2395411       62.69525
2015    11      5       0.2637149       67.87107
2015    11      6       0.405245        95.2637
2015    11      7       0.502983        111.7861
2015    12      0       0.3711082       88.28677
2015    12      1       0.1484333       42.2356
2015    12      2       0.1561216       43.78068
2015    12      3       0.1751455       48.00117
2015    12      4       0.1803578       48.86976
2015    12      5       0.1774945       48.02051
2015    12      6       0.1860661       50.24517
2015    12      7       0.2182293       57.35027
2015    13      0       0.291309        71.97651
2015    13      1       0.3115299       76.10551
2015    13      2       0.3352038       80.95754
2015    13      3       0.3135613       76.93236
2015    13      4       0.2470631       63.34378
2015    13      5       0.1923246       51.64713
2015    13      6       0.1946004       52.33429
2015    13      7       0.2126195       56.41544
2015    14      0       0.2370861       61.60267
2015    14      1       0.2245987       58.87142
2015    14      2       0.2234747       58.62642
2015    14      3       0.2257342       59.17364
2015    14      4       0.2344617       61.03784
2015    14      5       0.2305232       60.0721
2015    14      6       0.2404182       62.10315
2015    14      7       0.2701171       68.27703
2015    15      0       0.2849561       71.24765
2015    15      1       0.2621261       66.55558
2015    15      2       0.2194451       57.50635
2015    15      3       0.2110148       55.65841
2015    15      4       0.2092174       55.12484
2015    15      5       0.238946        61.37899
2015    15      6       0.2730943       68.43312
2015    15      7       0.3067218       75.01064
2015    16      0       0.3839302       89.46786
2015    16      1       0.421903        95.92095
2015    16      2       0.3988568       91.98467
2015    16      3       0.3678955       86.62204
2015    16      4       0.3252828       78.9587
2015    16      5       0.3001102       74.1934
2015    16      6       0.3047688       75.19866
2015    16      7       0.3539305       84.61713
2015    17      0       0.400053        92.95029
2015    17      1       0.3952918       92.18769
2015    17      2       0.3846162       90.30194
2015    17      3       0.3891771       91.01712
2015    17      4       0.404814        93.47459
2015    17      5       0.4213857       96.01608
2015    17      6       0.420255        95.84025
2015    17      7       0.4891604       107.0661
2015    18      0       0.5424167       115.6942
2015    18      1       0.4898388       107.7475
2015    18      2       0.4924284       108.3503
2015    18      3       0.5721161       121.1734
2015    18      4       0.586578        123.0163
2015    18      5       0.6282092       128.4787
2015    18      6       0.6601943       133.2329
2015    18      7       0.7427278       143.9656
2015    19      0       0.73944         143.7853
2015    19      1       0.6072597       126.4094
2015    19      2       0.5772451       122.312
2015    19      3       0.6381102       130.8309
2015    19      4       0.7631269       146.5591
2015    19      5       0.7543017       144.8673
2015    19      6       0.6893699       136.2026
2015    19      7       0.6326727       129.7429
2015    20      0       0.4913816       108.7952
2015    20      1       0.3109752       76.50856
2015    20      2       0.2501581       63.70703
2015    20      3       0.3960305       91.28061
2015    20      4       0.4447977       99.57952
2015    20      5       0.5010178       109.3544
2015    20      6       0.5519469       116.9819
2015    20      7       0.6956187       136.8841
2015    21      0       0.8784429       158.9963
2015    21      1       0.9812975       170.0936
2015    21      2       0.9361593       165.0128
2015    21      3       1.10638         182.4884
2015    21      4       0.8836402       159.5237
2015    21      5       0.6834136       134.8796
2015    21      6       0.6739665       133.473
2015    21      7       0.6686325       132.6188
2015    22      0       0.5645207       118.2224
2015    22      1       0.5093286       109.9151
2015    22      2       0.4453278       99.43745
2015    22      3       0.4626734       102.1327
2015    22      4       0.5437847       114.3291
2015    22      5       0.7207838       138.672
2015    22      6       0.7669288       144.1674
2015    22      7       0.5772342       119.0879
2015    23      0       0.5586362       116.5217
2015    23      1       0.6760052       131.9466
2015    23      2       0.6338848       127.0782
2015    23      3       0.527863        112.0946
2015    23      4       0.43841         97.33968
2015    23      5       0.3603174       83.35928
2015    23      6       0.3761124       86.41115
2015    23      7       0.464371        101.4479
2015    24      0       0.4636446       101.2835
2015    24      1       0.3927553       89.50235
2015    24      2       0.3035345       73.31273
2015    24      3       0.2360276       59.89855
2015    24      4       0.180368        47.99077
2015    24      5       0.1763385       47.01084
2015    24      6       0.2105006       54.29566
2015    24      7       0.2938501       71.05317
2015    25      0       0.3145632       75.14851
2015    25      1       0.2878676       70.29856
2015    25      2       0.2467481       62.31324
2015    25      3       0.2377745       60.07752
2015    25      4       0.2805062       67.66817
2015    25      5       0.2377598       59.57472
2015    25      6       0.2349938       59.41692
2015    25      7       0.2818913       68.95358
2015    26      0       0.3341392       78.51856
2015    26      1       0.3614971       83.096
2015    26      2       0.3292559       77.52612
2015    26      3       0.4405074       96.69629
2015    26      4       0.514869        108.952
2015    26      5       0.5012133       107.2529
2015    26      6       0.5388376       113.6293
2015    26      7       0.5643585       117.3259
2015    27      0       0.3549262       83.70266
2015    27      1       0.2362465       60.71657
2015    27      2       0.1760358       47.43917
2015    27      3       0.2567503       63.84359
2015    27      4       0.2114831       54.25456
2015    27      5       0.2411077       60.47947
2015    27      6       0.3273309       77.29362
2015    27      7       0.3433175       79.16386
2015    28      0       0.2636033       64.14512
2015    28      1       0.288444        69.36776
2015    28      2       0.2221312       56.53271
2015    28      3       0.1225429       34.95919
2015    28      4       0.08971827      27.21943
2015    28      5       0.08769017      26.73369
2015    28      6       0.1031082       30.60634
2015    28      7       0.1240246       35.45661
2015    29      0       0.1336332       37.18541
2015    29      1       0.1433304       38.79566
2015    29      2       0.2201136       55.3679
2015    29      3       0.3205249       75.5239
2015    29      4       0.3984191       89.10655
2015    29      5       0.3506254       81.03231
2015    29      6       0.3023624       72.46318
2015    29      7       0.4031693       90.45688
2015    30      0       0.411591        92.0712
2015    30      1       0.4250852       94.13976
2015    30      2       0.4348983       95.87292
2015    30      3       0.5088899       107.7818
2015    30      4       0.6123594       122.5971
2015    30      5       0.5015981       106.5503
2015    30      6       0.4442472       97.80043
2015    30      7       0.3973941       90.07394
2015    31      0       0.2232711       57.36392
2015    31      1       0.121845        34.76043
2015    31      2       0.2118191       54.43949
2015    31      3       0.3374563       79.55956
2015    31      4       0.2242306       57.41014
2015    31      5       0.1713456       46.08094
2015    31      6       0.248834        62.55144
2015    31      7       0.3641345       85.11937
2016    1       0       0.9096361       163.5614
2016    1       1       0.6945118       138.4771
2016    1       2       0.6109313       127.1344
2016    1       3       0.5764795       122.0351
2016    1       4       0.543119        117.0409
2016    1       5       0.5283466       114.8248
2016    1       6       0.6080024       126.4395
2016    1       7       0.6691387       135.0839
2016    2       0       0.7148433       141.3538
2016    2       1       0.6587369       133.9669
2016    2       2       0.5826561       123.2406
2016    2       3       0.5224789       114.1923
2016    2       4       0.4660221       104.8597
2016    2       5       0.4686612       105.0127
2016    2       6       0.5828284       122.731
2016    2       7       0.7038437       139.437
2016    3       0       0.7680129       148.127
2016    3       1       0.6559414       134.073
2016    3       2       0.6003863       126.4503
2016    3       3       0.4302125       97.96216
2016    3       4       0.5562443       119.5058
2016    3       5       0.4309137       98.97997
2016    3       6       0.4038561       93.40445
2016    3       7       0.328138        78.88685
2016    4       0       0.227898        58.32934
2016    4       1       0.1783357       47.45939
2016    4       2       0.209788        54.17936
2016    4       3       0.1910065       49.99853
2016    4       4       0.187542        48.98215
2016    4       5       0.2360455       58.82047
2016    4       6       0.3776615       85.38705
2016    4       7       0.3689456       84.39047
2016    5       0       0.2700806       66.12771
2016    5       1       0.1958214       51.059
2016    5       2       0.1854015       48.78822
2016    5       3       0.2024307       52.38164
2016    5       4       0.2277156       57.69328
2016    5       5       0.2088653       53.97965
2016    5       6       0.2290237       58.07573
2016    5       7       0.2887138       69.70691
2016    6       0       0.3590545       82.59997
2016    6       1       0.476347        102.5991
2016    6       2       0.5010434       106.8212
2016    6       3       0.3817353       87.31476
2016    6       4       0.5646521       115.6301
2016    6       5       0.4204246       92.84085
2016    6       6       0.3686226       83.71885
2016    6       7       0.3780041       85.01115
2016    7       0       0.3061602       72.51051
2016    7       1       0.2326795       58.39125
2016    7       2       0.1686937       45.02817
2016    7       3       0.1573383       42.72817
2016    7       4       0.1567212       42.56581
2016    7       5       0.1433971       39.59017
2016    7       6       0.1719135       45.8426
2016    7       7       0.2008272       52.27258
2016    8       0       0.2105891       54.6285
2016    8       1       0.2075658       54.15503
2016    8       2       0.2104898       55.00441
2016    8       3       0.228731        58.95674
2016    8       4       0.2380095       60.82316
2016    8       5       0.2453885       62.36559
2016    8       6       0.2325222       59.6776
2016    8       7       0.2363775       60.59557
2016    9       0       0.2545286       64.24106
2016    9       1       0.2445326       62.2021
2016    9       2       0.2279897       58.65519
2016    9       3       0.2532748       63.76839
2016    9       4       0.2577522       64.83809
2016    9       5       0.2705127       67.50527
2016    9       6       0.3012444       73.57699
2016    9       7       0.3667133       85.79241
2016    10      0       0.4630298       102.472
2016    10      1       0.4725945       104.5633
2016    10      2       0.4168483       95.11589
2016    10      3       0.3549981       83.8012
2016    10      4       0.3206599       77.62425
2016    10      5       0.2976982       73.49317
2016    10      6       0.2925034       72.50015
2016    10      7       0.3482482       82.73696
2016    11      0       0.3974004       91.1057
2016    11      1       0.4047909       92.27335
2016    11      2       0.5044277       108.3912
2016    11      3       0.6983895       137.647
2016    11      4       0.6045613       124.3917
2016    11      5       0.7008031       137.823
2016    11      6       0.6074528       124.1969
2016    11      7       0.526428        112.3315
2016    12      0       0.4983498       108.1062
2016    12      1       0.6934874       136.8506
2016    12      2       0.7047437       137.6576
2016    12      3       0.4944735       107.169
2016    12      4       0.205426        54.26343
2016    12      5       0.1494804       41.76728
2016    12      6       0.1540919       42.75525
2016    12      7       0.1916793       51.06684
2016    13      0       0.222777        57.60221
2016    13      1       0.2499353       63.10559
2016    13      2       0.2777327       68.34155
2016    13      3       0.3447889       80.58538
2016    13      4       0.4030796       91.01596
2016    13      5       0.3866845       88.68344
2016    13      6       0.3585351       84.11659
2016    13      7       0.32907         79.20552
2016    14      0       0.3290142       79.28984
2016    14      1       0.3012985       74.1523
2016    14      2       0.2660568       66.87048
2016    14      3       0.3994543       92.14982
2016    14      4       0.4305678       98.20412
2016    14      5       0.4183143       96.26208
2016    14      6       0.3695204       87.51073
2016    14      7       0.4345604       98.91011
2016    15      0       0.3728411       88.23768
2016    15      1       0.2928457       72.6641
2016    15      2       0.3631629       86.26013
2016    15      3       0.4432449       100.8203
2016    15      4       0.4460495       101.2908
2016    15      5       0.3910341       91.52358
2016    15      6       0.3964175       92.33607
2016    15      7       0.4534835       102.2666
2016    16      0       0.4151745       95.88666
2016    16      1       0.3681523       87.2572
2016    16      2       0.3278661       79.88184
2016    16      3       0.2878425       72.20722
2016    16      4       0.2555907       65.33302
2016    16      5       0.3111409       76.16289
2016    16      6       0.3410742       82.11007
2016    16      7       0.4150101       95.68887
2016    17      0       0.3966191       92.34178
2016    17      1       0.4024307       93.40895
2016    17      2       0.3776123       89.44993
2016    17      3       0.3062874       76.37042
2016    17      4       0.2639859       67.50812
2016    17      5       0.2909373       72.60716
2016    17      6       0.3229778       78.56485
2016    17      7       0.400559        92.72419
2016    18      0       0.3466639       82.75322
2016    18      1       0.2425272       61.97212
2016    18      2       0.2773336       68.88431
2016    18      3       0.3336135       79.59939
2016    18      4       0.3853273       88.62518
2016    18      5       0.3742435       86.45083
2016    18      6       0.3662243       85.22906
2016    18      7       0.4718689       103.5386
2016    19      0       0.4363907       97.74137
2016    19      1       0.3468178       81.60096
2016    19      2       0.324503        77.05788
2016    19      3       0.2294629       58.36477
2016    19      4       0.1408752       39.02495
2016    19      5       0.106947        31.1234
2016    19      6       0.1787915       47.18236
2016    19      7       0.2907325       69.46526
2016    20      0       0.2477531       61.1344
2016    20      1       0.1668095       44.42612
2016    20      2       0.1261872       35.46198
2016    20      3       0.09142889      27.40146
2016    20      4       0.06881559      21.94738
2016    20      5       0.06420856      20.72604
2016    20      6       0.09829138      28.77985
2016    20      7       0.1462764       39.74089
2016    21      0       0.1874836       48.76546
2016    21      1       0.2298716       57.94905
2016    21      2       0.266366        66.38703
2016    21      3       0.2541124       64.54293
2016    21      4       0.1811712       48.98727
2016    21      5       0.1414109       39.86803
2016    21      6       0.1344559       38.29542
2016    21      7       0.1581882       43.86019
2016    22      0       0.1499351       42.06941
2016    22      1       0.1478887       41.4771
2016    22      2       0.1711669       46.61585
2016    22      3       0.1760236       47.77173
2016    22      4       0.1712268       46.73448
2016    22      5       0.1971253       52.65376
2016    22      6       0.2310981       60.008
2016    22      7       0.2532204       64.77904
2016    23      0       0.260286        66.06598
2016    23      1       0.2664275       67.16388
2016    23      2       0.2354462       60.70136
2016    23      3       0.2078535       54.77053
2016    23      4       0.2217606       57.74478
2016    23      5       0.2366857       60.96414
2016    23      6       0.2613645       66.1901
2016    23      7       0.3223305       78.103
2016    24      0       0.3374917       81.04582
2016    24      1       0.287638        71.57006
2016    24      2       0.268445        67.65162
2016    24      3       0.2828421       70.43776
2016    24      4       0.3205776       77.74539
2016    24      5       0.3370465       80.75965
2016    24      6       0.340533        81.28921
2016    24      7       0.384365        89.03416
2016    25      0       0.3847419       89.44088
2016    25      1       0.4069537       93.50794
2016    25      2       0.4702864       104.0467
2016    25      3       0.4733925       104.5235
2016    25      4       0.4791146       105.1229
2016    25      5       0.6240167       126.651
2016    25      6       0.5075534       110.244
2016    25      7       0.5669722       119.5014
2016    26      0       0.5819331       121.199
2016    26      1       0.4998956       108.8688
2016    26      2       0.40095         92.47069
2016    26      3       0.3486596       83.34725
2016    26      4       0.3013772       74.33966
2016    26      5       0.2888718       71.81944
2016    26      6       0.2821645       70.56756
2016    26      7       0.2814938       70.63559
2016    27      0       0.2586883       65.97734
2016    27      1       0.2312564       59.97719
2016    27      2       0.2431937       62.06265
2016    27      3       0.2507705       63.76567
2016    27      4       0.2627784       66.1694
2016    27      5       0.2787431       69.35439
2016    27      6       0.3308037       79.66233
2016    27      7       0.3318105       80.30196
2016    28      0       0.3415907       81.97574
2016    28      1       0.3063365       75.07348
2016    28      2       0.2610402       66.13978
2016    28      3       0.2850385       70.9074
2016    28      4       0.3101991       75.6984
2016    28      5       0.3266113       78.80433
2016    28      6       0.312441        75.73977
2016    28      7       0.367468        86.69735
2016    29      0       0.4415369       99.80999
2016    29      1       0.4868138       106.8212
2016    29      2       0.5336596       113.9004
2016    29      3       0.507966        110.5717
2016    29      4       0.4924053       108.2737
2016    29      5       0.4346416       99.09234
2016    29      6       0.5096666       111.4628
2016    29      7       0.5543685       118.1207
2016    30      0       0.4464299       101.2499
2016    30      1       0.3803655       89.6689
2016    30      2       0.315274        77.35162
2016    30      3       0.3193976       78.1978
2016    30      4       0.3911574       91.50143
2016    30      5       0.4974554       109.3296
2016    30      6       0.5128672       111.8327
2016    30      7       0.4867124       107.8981
2016    31      0       0.4825232       107.4259
2016    31      1       0.4588276       103.1217
2016    31      2       0.4279797       97.71431
2016    31      3       0.3821081       90.6108
2016    31      4       0.3106452       76.97711
2016    31      5       0.3217437       78.9588
2016    31      6       0.4118174       95.37937
2016    31      7       0.4705671       105.2497
2017    1       0       0.6586785       131.9913
2017    1       1       0.498251        108.811
2017    1       2       0.5952028       122.2727
2017    1       3       0.3928998       91.37796
2017    1       4       0.3366998       80.92241
2017    1       5       0.3297153       79.30292
2017    1       6       0.4188174       95.14905
2017    1       7       0.4792328       104.4037
2017    2       0       0.4805893       104.467
2017    2       1       0.7378468       140.6496
2017    2       2       0.7814905       145.7342
2017    2       3       0.7983452       147.6856
2017    2       4       0.8028229       149.0337
2017    2       5       0.658247        130.9625
2017    2       6       0.634543        128.2574
2017    2       7       0.8381694       153.9172
2017    3       0       0.8370525       153.877
2017    3       1       0.6488902       130.5163
2017    3       2       0.3786037       88.26628
2017    3       3       0.2802611       69.79226
2017    3       4       0.3282194       78.56659
2017    3       5       0.3803987       88.1679
2017    3       6       0.3699616       86.8184
2017    3       7       0.394386        91.83913
2017    4       0       0.4364637       99.45167
2017    4       1       0.444736        101.0021
2017    4       2       0.4211392       97.32116
2017    4       3       0.5066392       112.301
2017    4       4       0.4704334       106.7964
2017    4       5       0.2573064       66.55436
2017    4       6       0.3185596       79.09026
2017    4       7       0.6309648       131.3906
2017    5       0       0.6360611       132.3439
2017    5       1       0.5603779       121.2218
2017    5       2       0.4591833       104.6869
2017    5       3       0.4085249       95.67921
2017    5       4       0.4430656       101.461
2017    5       5       0.3729198       88.86892
2017    5       6       0.4141243       96.20008
2017    5       7       0.5868172       123.5705
2017    6       0       0.8006784       152.1999
2017    6       1       0.8292298       156.1443
2017    6       2       0.5411638       117.6011
2017    6       3       0.3440028       83.14999
2017    6       4       0.2847291       71.24626
2017    6       5       0.2488754       63.71862
2017    6       6       0.3018002       73.85055
2017    6       7       0.4186551       93.353
2017    7       0       0.2523958       63.03295
2017    7       1       0.1524146       42.24957
2017    7       2       0.1623456       44.69326
2017    7       3       0.1893322       50.64942
2017    7       4       0.2648078       66.73381
2017    7       5       0.2505095       63.73458
2017    7       6       0.2676678       67.5804
2017    7       7       0.3104211       76.3814
2017    8       0       0.2537106       64.95218
2017    8       1       0.1305062       37.88352
2017    8       2       0.1723057       47.30851
2017    8       3       0.2400183       62.09219
2017    8       4       0.2390617       61.72469
2017    8       5       0.2377428       61.12647
2017    8       6       0.2600385       65.83916
2017    8       7       0.2960526       72.95766
2017    9       0       0.3665462       86.3793
2017    9       1       0.7138507       138.7544
2017    9       2       0.6013887       122.302
2017    9       3       0.487454        104.5005
2017    9       4       0.4977159       105.1014
2017    9       5       0.5519706       112.4147
2017    9       6       0.4843751       102.1877
2017    9       7       0.4334909       94.78489
2017    10      0       0.3022223       71.69338
2017    10      1       0.2420327       60.18345
2017    10      2       0.1931537       50.53736
2017    10      3       0.1268251       36.02963
2017    10      4       0.07966361      24.81748
2017    10      5       0.05931192      19.57854
2017    10      6       0.07733579      23.99952
2017    10      7       0.09916739      29.70114
2017    11      0       0.1255017       36.40558
2017    11      1       0.122286        35.66156
2017    11      2       0.09112472      28.07975
2017    11      3       0.07733583      24.5481
2017    11      4       0.07090608      22.9103
2017    11      5       0.0773879       24.4215
2017    11      6       0.09885166      29.5009
2017    11      7       0.1604027       44.13941
2017    12      0       0.1853047       49.94232
2017    12      1       0.1658375       45.56502
2017    12      2       0.1668995       45.96833
2017    12      3       0.2121729       56.01499
2017    12      4       0.2253951       58.47776
2017    12      5       0.188648        50.57166
2017    12      6       0.232172        60.26635
2017    12      7       0.2746773       69.02289
2017    13      0       0.2569164       65.21364
2017    13      1       0.3030001       74.20123
2017    13      2       0.3121026       75.4615
2017    13      3       0.2836858       69.91612
2017    13      4       0.2402831       61.18795
2017    13      5       0.1869874       49.9823
2017    13      6       0.1596095       43.81115
2017    13      7       0.1898529       50.53932
2017    14      0       0.2174829       56.55438
2017    14      1       0.229879        59.22248
2017    14      2       0.219524        57.19364
2017    14      3       0.1816826       49.39238
2017    14      4       0.08630074      26.93926
2017    14      5       0.09048847      27.69955
2017    14      6       0.1804218       48.01548
2017    14      7       0.1517709       41.14295
2017    15      0       0.09310945      27.93103
2017    15      1       0.06262765      20.56909
2017    15      2       0.06200863      20.40464
2017    15      3       0.08279174      25.3557
2017    15      4       0.1343368       37.35099
2017    15      5       0.2148228       55.13395
2017    15      6       0.2377699       60.07544
2017    15      7       0.2220548       57.21064
2017    16      0       0.2063439       54.16692
2017    16      1       0.1672098       45.68415
2017    16      2       0.1282425       36.78778
2017    16      3       0.1193365       34.51176
2017    16      4       0.1123921       32.58969
2017    16      5       0.1033476       30.33631
2017    16      6       0.109791        32.03753
2017    16      7       0.1138086       33.16673
2017    17      0       0.1178225       34.05185
2017    17      1       0.1051337       30.83923
2017    17      2       0.1189864       34.08094
2017    17      3       0.1454387       40.25517
2017    17      4       0.144936        40.23897
2017    17      5       0.1306668       36.98569
2017    17      6       0.1428623       39.70609
2017    17      7       0.1700277       46.08745
2017    18      0       0.184159        49.44059
2017    18      1       0.1927753       51.48211
2017    18      2       0.2163695       56.32768
2017    18      3       0.1949413       51.55393
2017    18      4       0.1672374       45.21039
2017    18      5       0.1374202       38.38982
2017    18      6       0.1551646       42.7241
2017    18      7       0.1707888       46.69637
2017    19      0       0.1630569       45.18731
2017    19      1       0.163717        45.55051
2017    19      2       0.1670947       46.35616
2017    19      3       0.1688884       46.59915
2017    19      4       0.2080149       54.70613
2017    19      5       0.2727632       67.84432
2017    19      6       0.3023659       73.91304
2017    19      7       0.3404782       81.45717
2017    20      0       0.3406305       81.55508
2017    20      1       0.3265221       79.16499
2017    20      2       0.3580802       85.16924
2017    20      3       0.3900377       90.7504
2017    20      4       0.386747        90.28303
2017    20      5       0.3702278       87.1372
2017    20      6       0.4387457       99.87293
2017    20      7       0.3870286       90.98576
2017    21      0       0.3915302       91.53296
2017    21      1       0.3918505       91.19669
2017    21      2       0.4216558       96.36908
2017    21      3       0.5699627       118.0156
2017    21      4       0.1678992       44.0916
2017    21      5       0.1040024       30.41879
2017    21      6       0.1862405       48.32574
2017    21      7       0.1672906       44.36533
2017    22      0       0.1316711       36.74934
2017    22      1       0.1368501       37.63132
2017    22      2       0.2165632       55.09316
2017    22      3       0.3038547       73.45037
2017    22      4       0.3443521       81.66183
2017    22      5       0.3946874       90.76567
2017    22      6       0.3834191       88.8915
2017    22      7       0.3804016       88.65815
2017    23      0       0.3949643       91.5862
2017    23      1       0.4391428       99.32097
2017    23      2       0.4030789       93.0368
2017    23      3       0.3531508       84.16566
2017    23      4       0.3515962       83.35924
2017    23      5       0.2863604       70.15778
2017    23      6       0.3247061       77.31238
2017    23      7       0.3317355       78.41911
2017    24      0       0.2792873       68.42395
2017    24      1       0.2215263       56.60567
2017    24      2       0.1709109       45.72874
2017    24      3       0.1649791       44.44045
2017    24      4       0.1563699       42.67467
2017    24      5       0.185492        49.29231
2017    24      6       0.262342        65.39565
2017    24      7       0.291302        71.42053
2017    25      0       0.2852638       70.68593
2017    25      1       0.273803        68.86859
2017    25      2       0.3455106       82.94124
2017    25      3       0.3482228       83.48756
2017    25      4       0.2716375       68.80984
2017    25      5       0.1736797       47.95337
2017    25      6       0.1602718       44.85871
2017    25      7       0.1900497       51.65608
2017    26      0       0.173598        48.0256
2017    26      1       0.1261238       36.59316
2017    26      2       0.1510738       42.32759
2017    26      3       0.177995        48.08734
2017    26      4       0.166859        45.03501
2017    26      5       0.3156056       75.76962
2017    26      6       0.5387048       111.926
2017    26      7       0.4447307       97.03676
2017    27      0       0.2743291       66.72446
2017    27      1       0.1585236       42.65758
2017    27      2       0.1135158       32.10362
2017    27      3       0.1279384       35.21933
2017    27      4       0.1468649       39.48601
2017    27      5       0.1482457       39.75701
2017    27      6       0.209699        52.74902
2017    27      7       0.2865394       68.22332
2017    28      0       0.3352282       77.58182
2017    28      1       0.3814583       86.22032
2017    28      2       0.3904452       87.85141
2017    28      3       0.3787646       86.0486
2017    28      4       0.3741053       85.65627
2017    28      5       0.4254892       94.75207
2017    28      6       0.4364572       96.84634
2017    28      7       0.4592599       101.3968
2017    29      0       0.3490784       82.70618
2017    29      1       0.2696861       67.23654
2017    29      2       0.223052        57.59586
2017    29      3       0.221013        57.35939
2017    29      4       0.2293958       59.15194
2017    29      5       0.2357069       60.49558
2017    29      6       0.2663098       66.82144
2017    29      7       0.3092005       75.4724
2017    30      0       0.374564        87.47232
2017    30      1       0.4302433       96.73288
2017    30      2       0.4064865       92.32211
2017    30      3       0.4009346       90.75679
2017    30      4       0.3441936       80.19025
2017    30      5       0.3138552       74.22171
2017    30      6       0.3224788       75.61994
2017    30      7       0.3495894       80.43909
2017    31      0       0.3111921       73.8196
2017    31      1       0.3834635       86.90664
2017    31      2       0.4162547       92.92686
2017    31      3       0.4558548       99.79061
2017    31      4       0.3450699       81.12804
2017    31      5       0.2462094       62.08124
2017    31      6       0.1850555       48.80004
2017    31      7       0.2241212       56.92184
2018    1       0       0.199504        53.8491
2018    1       1       0.2171986       57.82321
2018    1       2       0.3198213       78.8654
2018    1       3       0.4561242       103.5469
2018    1       4       0.4593123       103.3078
2018    1       5       0.4200415       96.24427
2018    1       6       0.4794516       106.0868
2018    1       7       0.6865913       136.4356
2018    2       0       0.735116        143.4897
2018    2       1       0.6299049       130.1436
2018    2       2       0.6482826       133.1251
2018    2       3       0.6325906       131.0595
2018    2       4       0.6345528       130.774
2018    2       5       0.6837012       136.9623
2018    2       6       0.9040678       163.6591
2018    2       7       1.038726        177.7054
2018    3       0       0.9556881       169.1564
2018    3       1       0.9103406       165.2682
2018    3       2       0.7611597       149.5767
2018    3       3       0.5042839       113.3295
2018    3       4       0.2967569       75.28999
2018    3       5       0.3113039       78.10113
2018    3       6       0.51313         114.2253
2018    3       7       0.7267172       143.7718
2018    4       0       0.7066081       140.5371
2018    4       1       0.7739694       148.3315
2018    4       2       0.8448265       156.7239
2018    4       3       0.7813686       150.2923
2018    4       4       0.5867405       124.1272
2018    4       5       0.5811783       123.1946
2018    4       6       0.6479194       132.9736
2018    4       7       0.6099974       125.6551
2018    5       0       0.3936704       91.29965
2018    5       1       0.3295656       80.14755
2018    5       2       0.3252577       79.44333
2018    5       3       0.2744637       69.25668
2018    5       4       0.2726365       68.74575
2018    5       5       0.3050128       75.0082
2018    5       6       0.4488671       101.0911
2018    5       7       0.6949109       136.2317
2018    6       0       0.8320682       152.6212
2018    6       1       0.7863379       147.1349
2018    6       2       0.5419576       114.7097
2018    6       3       0.5430464       115.0103
2018    6       4       0.4358907       98.06766
2018    6       5       0.3294924       79.03871
2018    6       6       0.4349197       97.49357
2018    6       7       0.6621224       131.1994
2018    7       0       0.6618468       130.6402
2018    7       1       0.5380156       113.8039
2018    7       2       0.4704803       103.3574
2018    7       3       0.4550957       101.5392
2018    7       4       0.4781804       105.4165
2018    7       5       0.435444        98.20449
2018    7       6       0.4147633       94.99351
2018    7       7       0.6717633       133.8412
2018    8       0       1.095105        181.1788
2018    8       1       0.8203575       152.2795
2018    8       2       0.7627138       145.2516
2018    8       3       0.652201        131.2421
2018    8       4       0.6303621       128.3921
2018    8       5       0.5327603       113.8986
2018    8       6       0.5568373       117.2674
2018    8       7       0.5207438       111.061
2018    9       0       0.4827442       105.0644
2018    9       1       0.4743362       103.4272
2018    9       2       0.3714938       85.89347
2018    9       3       0.3870017       88.37662
2018    9       4       0.3493003       81.61283
2018    9       5       0.3928251       88.63224
2018    9       6       0.5049449       106.4458
2018    9       7       0.5136837       107.7442
2018    10      0       0.3909582       88.30264
2018    10      1       0.4087168       91.49382
2018    10      2       0.4765376       102.2565
2018    10      3       0.3410787       79.57428
2018    10      4       0.3788413       86.24153
2018    10      5       0.5160542       107.942
2018    10      6       0.3922141       87.99736
2018    10      7       0.440953        96.14589
2018    11      0       0.3858237       87.17305
2018    11      1       0.2831043       68.98862
2018    11      2       0.2644952       64.93228
2018    11      3       0.2581532       63.6162
2018    11      4       0.3465105       80.41957
2018    11      5       0.5717949       116.8671
2018    11      6       0.5344702       111.7443
2018    11      7       0.5608922       115.9572
2018    12      0       0.417304        93.51603
2018    12      1       0.4022194       90.55653
2018    12      2       0.3736198       85.57598
2018    12      3       0.2584364       64.38005
2018    12      4       0.1408485       39.03082
2018    12      5       0.1161741       33.41239
2018    12      6       0.1514375       41.91998
2018    12      7       0.2070228       54.3323
2018    13      0       0.2060329       54.242
2018    13      1       0.2126195       55.60559
2018    13      2       0.2072166       54.42097
2018    13      3       0.1888649       50.48021
2018    13      4       0.1876676       50.06639
2018    13      5       0.1891589       50.21408
2018    13      6       0.1955107       51.60132
2018    13      7       0.2486339       62.66604
2018    14      0       0.321905        77.02145
2018    14      1       0.3756755       86.58381
2018    14      2       0.5009688       106.9475
2018    14      3       0.2724347       66.51443
2018    14      4       0.2367354       58.77943
2018    14      5       0.2148421       53.94888
2018    14      6       0.2560775       61.77268
2018    14      7       0.4022973       87.89442
2018    15      0       0.249538        60.24266
2018    15      1       0.13891         37.78598
2018    15      2       0.08026534      24.45263
2018    15      3       0.05571778      18.54373
2018    15      4       0.04874906      16.82694
2018    15      5       0.03863827      14.31362
2018    15      6       0.03507842      13.4468
2018    15      7       0.044006        15.78224
2018    16      0       0.04742004      16.65997
2018    16      1       0.1136123       32.83552
2018    16      2       0.1572428       42.92249
2018    16      3       0.1543801       42.32686
2018    16      4       0.1757955       47.0511
2018    16      5       0.1960458       51.52777
2018    16      6       0.1847062       49.11614
2018    16      7       0.1764907       47.37673
2018    17      0       0.1929375       50.80895
2018    17      1       0.1931087       50.80661
2018    17      2       0.183735        48.84189
2018    17      3       0.1670384       45.24494
2018    17      4       0.2313591       58.58936
2018    17      5       0.2563978       63.88591
2018    17      6       0.2849072       70.12767
2018    17      7       0.357672        83.91113
2018    18      0       0.3292602       78.96303
2018    18      1       0.2697926       67.36011
2018    18      2       0.2652718       66.53698
2018    18      3       0.2989245       73.29655
2018    18      4       0.2426546       61.95481
2018    18      5       0.1808895       48.75977
2018    18      6       0.2082889       54.6358
2018    18      7       0.2724641       67.64304
2018    19      0       0.3783104       86.95083
2018    19      1       0.3950295       89.9508
2018    19      2       0.4485246       98.75645
2018    19      3       0.4746233       102.7425
2018    19      4       0.2411207       60.58886
2018    19      5       0.161264        44.03189
2018    19      6       0.1718315       46.36202
2018    19      7       0.182186        48.71114
2018    20      0       0.2049249       53.70894
2018    20      1       0.2249635       57.9574
2018    20      2       0.2197526       56.8861
2018    20      3       0.2218511       57.34664
2018    20      4       0.2190795       56.78274
2018    20      5       0.2125929       55.4067
2018    20      6       0.2072828       54.34015
2018    20      7       0.1987544       52.68882
2018    21      0       0.1954883       52.11239
2018    21      1       0.2028957       53.93963
2018    21      2       0.175305        47.82258
2018    21      3       0.1665159       45.81699
2018    21      4       0.1753575       47.3224
2018    21      5       0.2133096       55.55675
2018    21      6       0.2391945       61.20801
2018    21      7       0.2749871       68.74245
2018    22      0       0.3178481       77.0371
2018    22      1       0.338236        80.43528
2018    22      2       0.3328828       79.25318
2018    22      3       0.3093015       74.83297
2018    22      4       0.2759937       68.19885
2018    22      5       0.2507678       63.05849
2018    22      6       0.3295816       78.43794
2018    22      7       0.4797319       103.9765
2018    23      0       0.597057        121.4087
2018    23      1       0.4859562       105.5918
2018    23      2       0.5500363       115.4032
2018    23      3       0.6452986       128.2529
2018    23      4       0.7085916       136.7252
2018    23      5       0.545481        115.1476
2018    23      6       0.4855391       106.1622
2018    23      7       0.575626        119.8667
2018    24      0       0.5688092       118.563
2018    24      1       0.5594825       117.1252
2018    24      2       0.7164535       138.7335
2018    24      3       0.7871711       148.0833
2018    24      4       0.7251411       139.1903
2018    24      5       0.6489899       129.1265
2018    24      6       0.6556504       130.7724
2018    24      7       0.6241916       126.8932
2018    25      0       0.4618912       102.35
2018    25      1       0.3470087       81.79938
2018    25      2       0.2665735       65.93309
2018    25      3       0.3857505       88.47271
2018    25      4       0.372245        86.22054
2018    25      5       0.3631673       84.57123
2018    25      6       0.3640782       84.73979
2018    25      7       0.3684583       85.54642
2018    26      0       0.4119111       92.72787
2018    26      1       0.4400302       97.46539
2018    26      2       0.4550216       99.89642
2018    26      3       0.4038691       91.59019
2018    26      4       0.3296238       78.39464
2018    26      5       0.2970856       72.01263
2018    26      6       0.2977988       72.00984
2018    26      7       0.3383445       79.84875
2018    27      0       0.3900373       89.43292
2018    27      1       0.3683102       86.20047
2018    27      2       0.3405382       81.07357
2018    27      3       0.2848991       70.04246
2018    27      4       0.2938263       71.36084
2018    27      5       0.4292161       97.62433
2018    27      6       0.4229462       96.973
2018    27      7       0.5392372       115.9805
2018    28      0       0.4882785       107.6423
2018    28      1       0.4942215       108.1043
2018    28      2       0.4935196       108.1921
2018    28      3       0.4369866       99.07576
2018    28      4       0.4254309       97.095
2018    28      5       0.4017382       92.89166
2018    28      6       0.3107511       76.1027
2018    28      7       0.2438196       62.64408
2018    29      0       0.218785        57.45921
2018    29      1       0.1817023       49.24108
2018    29      2       0.1411177       40.07569
2018    29      3       0.1439812       40.83646
2018    29      4       0.1845499       49.81261
2018    29      5       0.2039964       53.79916
2018    29      6       0.2444089       62.34754
2018    29      7       0.2940135       72.63545
2018    30      0       0.2465714       63.0059
2018    30      1       0.2258271       58.40133
2018    30      2       0.3972034       90.85517
2018    30      3       0.4870307       105.4465
2018    30      4       0.6061386       122.1801
2018    30      5       0.6199789       123.4366
2018    30      6       0.5593194       114.506
2018    30      7       0.5034879       106.4214
2018    31      0       0.4707946       100.7623
2018    31      1       0.4943714       103.8667
2018    31      2       0.4528889       96.92961
2018    31      3       0.3905298       85.94762
2018    31      4       0.2518981       60.84404
2018    31      5       0.2167818       54.1323
2018    31      6       0.2429103       60.26463
2018    31      7       0.1522391       41.40245
