####################################################################################################
# Month: 08Aug                                                                                     #
# Station: HCO                                                                                     #
# Frequency: 230 GHz                                                                               #
# Columns are: year    day     tau     Tb (K)                                                      #
####################################################################################################
2009    1       2.36483075      254.9027
2009    2       2.44431038      252.945925
2009    3       2.79442112      268.3220625
2009    4       2.46978588      263.7301625
2009    5       2.979602        273.280325
2009    6       1.88693012      237.3294375
2009    7       1.8158555       236.8353125
2009    8       1.24915525      200.5682875
2009    9       1.67647238      227.1513375
2009    10      3.73750662      280.7847125
2009    11      3.55997225      281.202
2009    12      3.256389        274.4391875
2009    13      3.43723375      274.9490875
2009    14      2.238111        254.3458875
2009    15      2.22776638      258.29065
2009    16      2.326696        261.38705
2009    17      2.71171912      271.43935
2009    18      2.26649138      260.9823125
2009    19      2.8439485       270.7703125
2009    20      3.31106175      276.9398375
2009    21      4.29963525      286.95615
2009    22      3.47962725      281.0585875
2009    23      3.18741062      276.5723125
2009    24      3.41234438      277.638
2009    25      2.49211138      261.802425
2009    26      2.41696562      262.359475
2009    27      1.52794175      211.803525
2009    28      1.5427675       218.2319875
2009    29      3.25195288      270.5959375
2009    30      2.703104        265.4906125
2009    31      1.692677        229.6246125
2010    1       1.8153855       237.21045
2010    2       1.96581663      243.9390875
2010    3       2.59759625      264.3028125
2010    4       3.15337725      276.8571625
2010    5       3.95068538      285.355575
2010    6       2.33422462      254.2944125
2010    7       1.17067151      195.302875
2010    8       1.661327        228.3721625
2010    9       1.95756212      244.0023
2010    10      2.7785135       268.50775
2010    11      2.13826188      253.0821
2010    12      1.80865525      236.8156875
2010    13      1.5138565       218.70495
2010    14      1.00026957      179.3102875
2010    15      1.44034725      214.5445625
2010    16      3.14714288      273.1407625
2010    17      2.76407162      264.0302625
2010    18      1.52563088      223.489175
2010    19      1.77951725      237.8595375
2010    20      1.85506079      233.418975
2010    21      1.322725        206.5594875
2010    22      2.72519012      261.884475
2010    23      3.2698985       272.2293
2010    24      2.62825125      261.6866
2010    25      3.4529935       273.96265
2010    26      2.52027887      262.12475
2010    27      1.46561038      218.3401625
2010    28      1.37414125      210.2080625
2010    29      1.774774        238.7840875
2010    30      1.58765038      230.1524375
2010    31      2.2223605       259.0793875
2011    1       2.508708        266.4975625
2011    2       2.73526788      270.5223125
2011    3       2.52050988      260.0875
2011    4       2.39245462      258.6884125
2011    5       2.275403        255.9612625
2011    6       2.93616738      271.8231625
2011    7       3.70522088      279.6539125
2011    8       3.6370105       281.454925
2011    9       2.86454362      269.8727375
2011    10      3.41238188      275.65675
2011    11      1.77629012      231.7434
2011    12      1.56500375      225.195475
2011    13      1.55232538      226.1267875
2011    14      2.44611587      256.8543375
2011    15      3.4718115       275.250875
2011    16      3.01534888      267.8218
2011    17      1.65758325      228.2132
2011    18      1.92044962      241.7100875
2011    19      2.85502037      269.2114875
2011    20      2.6039395       263.5731125
2011    21      2.60650662      262.994225
2011    22      2.27085925      247.9314875
2011    23      1.34863325      208.0626125
2011    24      1.68692225      231.0565375
2011    25      2.54669538      262.6135625
2011    26      2.58359988      262.92335
2011    27      2.82301412      267.9877375
2011    28      4.2827275       284.179825
2011    29      1.763267        224.4790875
2011    30      1.48123912      218.8395625
2011    31      1.65769738      230.695975
2012    1       3.44446688      276.111975
2012    2       2.89981325      270.5666
2012    3       2.46996512      265.0963125
2012    4       2.87269112      273.3881375
2012    5       3.13602875      275.9960875
2012    6       2.856485        258.507525
2012    7       1.68766588      233.8616
2012    8       1.79873662      239.3383125
2012    9       2.56043838      266.3202
2012    10      3.3947045       277.25435
2012    11      3.97741038      282.661325
2012    12      3.66884938      279.9486875
2012    13      2.2204          256.3120875
2012    14      2.38404675      260.06665
2012    15      2.81228488      267.291575
2012    16      3.092005        269.70325
2012    17      2.03971088      248.2841125
2012    18      2.70107588      264.3080625
2012    19      1.50410988      218.8647375
2012    20      1.63959875      227.102875
2012    21      1.89605962      239.4942875
2012    22      1.33907987      209.683825
2012    23      1.76117125      236.501525
2012    24      1.7248925       234.7026875
2012    25      1.82012075      239.0939625
2012    26      1.570937        221.991225
2012    27      1.54810312      215.4520375
2012    28      3.24093588      275.54835
2012    29      1.33673088      203.10905
2012    30      1.20191012      198.86275
2012    31      1.16841534      195.7123375
2013    1       2.0950245       248.2705375
2013    2       2.626822        261.7929
2013    3       2.06439888      247.639775
2013    4       1.6255105       226.5566
2013    5       1.26068561      198.5139125
2013    6       1.08602484      186.2491375
2013    7       1.36820825      210.5997875
2013    8       2.82405362      263.634025
2013    9       3.96557375      280.9869125
2013    10      2.72948062      261.833975
2013    11      1.38884525      213.9830125
2013    12      1.84138512      240.057475
2013    13      2.90665962      270.89615
2013    14      2.2421235       248.4271125
2013    15      1.31629687      206.1740625
2013    16      1.4557085       217.6226375
2013    17      1.54164488      224.2064625
2013    18      1.85001975      238.377575
2013    19      2.03573988      247.0150625
2013    20      2.25713862      256.4131125
2013    21      1.936063        246.9440625
2013    22      2.262603        253.911125
2013    23      2.2851805       248.1477375
2013    24      1.01436558      178.7126125
2013    25      1.00857441      180.410225
2013    26      2.08563638      243.5391
2013    27      2.89692025      270.3388125
2013    28      2.18843412      255.0027875
2013    29      2.76204762      265.2448
2013    30      2.46143575      259.618125
2013    31      3.2541375       276.4415375
2014    1       2.34865575      255.226425
2014    2       2.07459862      243.4144
2014    3       2.86835788      267.107975
2014    4       2.61191225      264.4129125
2014    5       2.22548362      255.0941125
2014    6       2.42369837      259.4917125
2014    7       1.8129655       236.1596125
2014    8       1.70713338      230.1481875
2014    9       1.68710662      231.4786125
2014    10      1.48460762      220.3402625
2014    11      1.68944388      231.5199125
2014    12      1.49550012      218.3152
2014    13      3.10867488      270.3200625
2014    14      1.93509388      231.0029
2014    15      1.66673163      227.7417625
2014    16      1.6257305       225.5382375
2014    17      1.81716562      234.8523
2014    18      1.60287012      225.7261625
2014    19      1.44486125      216.9714375
2014    20      1.5251315       223.6686
2014    21      1.54467038      219.927225
2014    22      2.55199         260.20105
2014    23      1.91810538      239.148175
2014    24      1.79510338      236.058675
2014    25      2.04698575      249.82265
2014    26      1.90517288      246.327275
2014    27      2.4632885       264.6164875
2014    28      2.5133235       256.6006
2014    29      1.37572762      212.48915
2014    30      1.45071562      217.002225
2014    31      3.1473455       272.78825
2015    1       1.778443        237.1152875
2015    2       1.53769588      223.8777875
2015    3       1.82803175      241.588875
2015    4       2.63476537      266.1653625
2015    5       1.90445038      240.659875
2015    6       1.54992688      223.2863375
2015    7       1.76998262      235.5658375
2015    8       1.7371445       233.8228875
2015    9       2.0785745       241.1694
2015    10      1.9037405       242.357625
2015    11      2.894675        262.095125
2015    12      2.77846675      265.2375375
2015    13      1.85032038      237.8793125
2015    14      1.528929        223.4398375
2015    15      2.30448175      257.6886625
2015    16      2.4022305       260.583
2015    17      2.06946213      252.8536125
2015    18      2.17461         256.7969625
2015    19      1.979612        244.39045
2015    20      2.5146825       264.27625
2015    21      3.17239662      274.050875
2015    22      2.97530825      271.0698375
2015    23      2.62568638      265.821975
2015    24      2.7543105       268.8840125
2015    25      2.6950255       267.193625
2015    26      2.46680837      259.8256
2015    27      1.61290712      227.4454875
2015    28      1.49766588      220.6213
2015    29      1.5096945       222.4312
2015    30      2.01246887      246.3187
2015    31      2.1782295       255.3247875
2016    1       2.7051315       264.9050875
2016    2       2.308315        254.4169375
2016    3       1.35345475      210.9489875
2016    4       1.4736315       220.6555375
2016    5       1.62333025      230.7909625
2016    6       3.158616        275.0305375
2016    7       1.82323712      239.942025
2016    8       1.49788062      221.1769625
2016    9       1.49659312      222.767375
2016    10      2.635149        249.2226875
2016    11      3.52574863      282.953375
2016    12      4.05062675      288.6985
2016    13      4.25806312      288.3536875
2016    14      4.2106365       289.1109375
2016    15      2.9151265       272.1869125
2016    16      2.809195        266.9133625
2016    17      3.301088        273.614675
2016    18      2.27981788      257.4621875
2016    19      2.25660212      256.4422
2016    20      2.27671438      258.1616125
2016    21      1.71942338      233.3094375
2016    22      2.83393812      256.1409125
2016    23      1.1666595       195.4308
2016    24      1.67021875      232.5156375
2016    25      2.10804675      251.7002
2016    26      3.26977325      277.9669
2016    27      1.91702425      243.107575
2016    28      2.00713375      248.163525
2016    29      2.41777212      257.2480375
2016    30      1.52272025      223.519675
2016    31      2.09911775      248.002175
2017    1       2.18364638      254.4635375
2017    2       2.70863688      266.8353875
2017    3       2.87630625      269.059675
2017    4       2.90815338      270.751075
2017    5       2.56367187      258.3813125
2017    6       1.72810725      226.7239625
2017    7       1.68171588      229.4647125
2017    8       2.519465        258.7166625
2017    9       1.57205212      225.506925
2017    10      1.84071338      241.032025
2017    11      1.4486258       213.8246
2017    12      2.54575675      261.33345
2017    13      2.39887963      258.206625
2017    14      1.45888375      218.3922625
2017    15      2.20967675      253.8363375
2017    16      2.30435213      257.2599125
2017    17      1.4024675       214.1824625
2017    18      2.75613812      257.1352625
2017    19      3.83669788      280.464625
2017    20      2.3779325       259.25025
2017    21      1.83314025      241.1434125
2017    22      2.85185888      268.742275
2017    23      2.804529        260.502
2017    24      1.42565938      216.1937375
2017    25      1.39230088      210.7065
2017    26      1.02335296      180.1010375
2017    27      1.1150485       188.840075
2017    28      0.98775624      177.7081625
2017    29      1.09334682      180.92625
2017    30      1.86203875      234.298775
2017    31      1.52351012      219.5238875
2018    1       2.85603562      265.6129125
2018    2       3.58539762      282.6985875
2018    3       3.76621088      283.973075
2018    4       3.41358688      278.3478
2018    5       2.39697925      257.604275
2018    6       2.52576413      266.6361375
2018    7       3.12636225      279.45055
2018    8       3.98485062      286.0778875
2018    9       3.94446362      284.62595
2018    10      2.29313875      259.5575875
2018    11      2.84540188      266.4618625
2018    12      3.58991912      277.4464375
2018    13      4.14246275      282.9180875
2018    14      3.94508262      283.11895
2018    15      3.14875162      274.9663125
2018    16      3.020579        275.8298875
2018    17      2.885073        272.307625
2018    18      3.79549675      282.084075
2018    19      2.52197375      256.2380875
2018    20      2.27434425      253.325725
2018    21      2.0675165       246.485425
2018    22      3.50485288      277.5909875
2018    23      1.70199512      227.0881375
2018    24      1.33285712      209.6999375
2018    25      1.70856438      234.5006375
2018    26      1.43468579      211.860625
2018    27      2.61399387      267.236275
2018    28      3.178917        278.1550125
2018    29      2.8307645       275.2196
2018    30      3.08355875      277.636575
2018    31      1.87155912      239.228525
