####################################################################################################
# Month: 11Nov                                                                                     #
# Station: SAL                                                                                     #
# Frequency: 345 GHz                                                                               #
# Columns are: year    day     tau     Tb (K)                                                      #
####################################################################################################
2009    1       1.08309196      182.987475
2009    2       1.80972352      199.3185125
2009    3       3.87273775      274.8865375
2009    4       2.6073757       248.5130125
2009    5       1.05143054      174.68266625
2009    6       1.34347102      198.4231
2009    7       1.66274638      222.9041625
2009    8       2.02660462      232.442675
2009    9       2.56981225      250.0664125
2009    10      2.41565962      249.97065
2009    11      3.47932288      271.1075625
2009    12      2.88040012      260.1687875
2009    13      1.5641035       218.466725
2009    14      1.1348476       185.9216875
2009    15      1.70012262      224.1634
2009    16      1.47727125      214.5262375
2009    17      1.5601535       216.861675
2009    18      2.1872985       247.365525
2009    19      1.63183037      224.22725
2009    20      1.439219        214.68685
2009    21      2.41013162      255.2759625
2009    22      1.68509425      227.40055
2009    23      2.17952425      248.0599
2009    24      3.06077175      269.3529125
2009    25      2.19423295      233.930825
2009    26      0.80481621      151.5527
2009    27      0.68813928      141.6124
2009    28      1.1199549       181.0424125
2009    29      1.79996262      229.5524375
2009    30      1.97479062      239.5811875
2010    1       1.48685662      216.064575
2010    2       1.76268112      229.60105
2010    3       2.38585537      249.319375
2010    4       2.04059912      235.958325
2010    5       1.0919775       183.0399
2010    6       0.84870608      158.72645
2010    7       1.0211371       175.8015125
2010    8       1.86034588      229.24225
2010    9       2.15311488      240.4265625
2010    10      1.24726737      198.294275
2010    11      1.15387682      190.9462625
2010    12      1.62472988      224.2643
2010    13      1.15401618      193.54755
2010    14      0.53971112      118.70364
2010    15      1.10926144      182.5012
2010    16      1.74091438      228.2630375
2010    17      1.6208905       226.9510375
2010    18      1.7078835       224.62145
2010    19      1.82419075      233.58475
2010    20      1.9773305       240.7988375
2010    21      1.83929512      227.4905375
2010    22      1.4809635       207.2148625
2010    23      0.88209162      162.4999625
2010    24      0.84902001      157.9833
2010    25      1.91647575      222.3891375
2010    26      1.65963312      214.0632875
2010    27      0.8773735       162.89555
2010    28      1.19454799      187.6436425
2010    29      0.62832438      127.871565
2010    30      1.3380275       204.767725
2011    1       1.42155738      208.9249
2011    2       1.15192175      191.6677
2011    3       0.94773488      171.0998
2011    4       1.20576584      188.589875
2011    5       1.25549224      196.2163125
2011    6       1.5480125       214.499025
2011    7       1.10886895      187.9873625
2011    8       0.87662631      163.8752375
2011    9       1.36088202      207.2691
2011    10      1.232709        195.1653625
2011    11      1.0652094       180.07085
2011    12      0.9556995       170.7748875
2011    13      1.26133159      188.005975
2011    14      0.77560425      150.118675
2011    15      0.98240561      175.510225
2011    16      1.00139165      177.1782625
2011    17      1.07814381      185.4210875
2011    18      1.51334375      215.397
2011    19      2.19760725      251.6739625
2011    20      3.22732588      266.5521125
2011    21      1.26581449      194.9355125
2011    22      0.98812101      174.58245
2011    23      1.19591129      188.4302125
2011    24      1.10315351      182.3763
2011    25      1.19789938      194.475875
2011    26      1.08110973      181.297325
2011    27      1.63156688      222.1328875
2011    28      0.58762841      123.9106375
2011    29      1.55893991      212.4094875
2011    30      1.43594         213.69085
2012    1       0.57402636      121.25073875
2012    2       0.81011642      155.2589875
2012    3       1.40134452      208.3843625
2012    4       1.7369415       229.1209375
2012    5       1.56208225      220.9896
2012    6       1.820781        233.2001
2012    7       1.95401188      238.810225
2012    8       1.04394972      176.2120625
2012    9       1.12469912      186.3997375
2012    10      0.73893194      146.540425
2012    11      1.21533004      191.30525
2012    12      1.56585875      217.1922125
2012    13      1.78104713      232.64725
2012    14      1.4778215       218.380925
2012    15      1.618324        225.3017875
2012    16      1.74352525      230.1810625
2012    17      2.18485338      248.2331625
2012    18      1.62316575      223.69255
2012    19      1.49051425      216.827625
2012    20      1.79236675      234.4252875
2012    21      1.65949838      218.86255
2012    22      0.90267082      166.448325
2012    23      0.7525982       147.56683
2012    24      1.19324699      178.2802875
2012    25      0.56827774      119.68442125
2012    26      1.04526728      176.583075
2012    27      1.20873062      197.5877375
2012    28      1.10764948      182.973525
2012    29      1.71701412      222.7144875
2012    30      2.74915112      258.5798875
2013    1       2.54176537      252.5618125
2013    2       0.89477489      158.35512875
2013    3       1.1446205       189.89065
2013    4       0.92620302      170.4710625
2013    5       0.91442709      165.714975
2013    6       1.16722318      186.9443625
2013    7       0.67421206      134.57848625
2013    8       0.88198746      153.32063125
2013    9       1.5549585       218.069975
2013    10      1.16818249      189.58365
2013    11      1.35636062      206.4448375
2013    12      1.25477732      199.5621
2013    13      1.08086269      185.3952375
2013    14      1.46548844      212.0761375
2013    15      2.36043825      249.1445125
2013    16      1.91225075      231.6509
2013    17      2.62657962      257.38015
2013    18      2.21717038      250.2219125
2013    19      2.25260875      247.4851
2013    20      2.18710775      241.3111
2013    21      0.88019201      162.5996125
2013    22      0.97240661      171.69535
2013    23      1.41291872      209.29555
2013    24      1.59028662      226.663225
2013    25      1.72606862      229.9947375
2013    26      1.18002534      187.1795
2013    27      2.17439975      245.14955
2013    28      1.50914932      212.1362
2013    29      1.24553445      198.0771375
2013    30      1.96251512      238.767875
2014    1       2.50626662      252.4327125
2014    2       3.0948015       264.5654125
2014    3       3.75368225      265.0639875
2014    4       2.24983625      242.7333625
2014    5       1.60671875      225.628975
2014    6       1.457111        216.89125
2014    7       1.37264831      209.8672125
2014    8       1.27802764      188.0220125
2014    9       2.69932888      257.3132375
2014    10      1.5676155       219.0644125
2014    11      2.9721785       263.5217125
2014    12      3.2195005       256.979775
2014    13      1.99691888      235.3179875
2014    14      1.25513796      192.6017125
2014    15      1.00933735      172.31485
2014    16      0.70056685      139.2326375
2014    17      0.85832064      156.7305125
2014    18      1.15746058      190.68335
2014    19      1.18700674      193.391575
2014    20      1.40930512      211.7561875
2014    21      1.0000468       175.5402
2014    22      2.07484812      236.5282375
2014    23      2.29640738      250.0242875
2014    24      2.22911038      249.6222375
2014    25      2.05853475      245.6212125
2014    26      1.74312418      220.6710875
2014    27      1.91835415      227.6878
2014    28      1.62880762      222.6887375
2014    29      1.62894788      224.4136375
2014    30      1.16824309      194.4277
2015    1       2.15550575      238.2492625
2015    2       0.89518701      160.6930625
2015    3       0.74515218      145.545775
2015    4       0.74388765      146.2294125
2015    5       2.02373886      235.4159375
2015    6       2.3924455       234.6294
2015    7       1.12669085      182.0069875
2015    8       1.88083988      234.4468875
2015    9       2.21354125      246.767
2015    10      1.5534465       217.9842375
2015    11      1.83351425      231.3069375
2015    12      1.07539485      180.4648375
2015    13      1.04898408      179.3601875
2015    14      1.02823399      176.661
2015    15      1.05723952      180.5992625
2015    16      0.55356879      121.7519625
2015    17      1.08644684      174.202575
2015    18      0.90877759      161.9343875
2015    19      1.00034591      175.9707125
2015    20      1.36474551      202.5065625
2015    21      1.47962462      206.940325
2015    22      1.07167006      180.34555
2015    23      1.61698375      224.760575
2015    24      1.521658        220.0131125
2015    25      1.75233775      231.8389125
2015    26      1.35975194      195.5476125
2015    27      0.53974508      115.09201
2015    28      0.81422531      153.87025
2015    29      1.39058162      206.5964625
2015    30      1.10685136      188.960075
2016    1       1.4060315       211.186875
2016    2       2.203454        249.570875
2016    3       2.11359825      244.3233125
2016    4       1.92167962      234.83115
2016    5       1.12571738      186.04175
2016    6       1.12856981      188.3313125
2016    7       1.22944575      199.5209625
2016    8       2.40080388      246.090625
2016    9       2.20833388      248.504375
2016    10      2.23086112      248.7815125
2016    11      1.79040212      232.9551
2016    12      1.15402642      190.1921125
2016    13      0.91403902      167.025975
2016    14      0.76784414      149.8279625
2016    15      0.75285872      149.0700875
2016    16      1.1325574       185.489175
2016    17      2.28108712      247.2086125
2016    18      0.48075065      107.1249025
2016    19      0.68397732      137.8187825
2016    20      1.29119239      194.4280125
2016    21      2.12354412      244.5407375
2016    22      3.3706245       264.5808125
2016    23      3.29806875      262.8486125
2016    24      1.32190227      200.4320125
2016    25      1.54371525      220.16345
2016    26      1.80487688      233.1316625
2016    27      1.553118        222.273325
2016    28      0.88981254      165.4797125
2016    29      0.96405194      175.4543
2016    30      0.72219182      145.9630375
2017    1       3.87435025      278.6006625
2017    2       2.9300875       265.426775
2017    3       3.05340475      265.7613875
2017    4       1.29879312      201.0261625
2017    5       1.19063082      195.365675
2017    6       0.9918909       176.47255
2017    7       0.64687461      128.74028125
2017    8       1.20001492      183.8763125
2017    9       1.53313812      215.194375
2017    10      1.3357725       205.787825
2017    11      1.56325312      221.8882
2017    12      1.58099701      217.925225
2017    13      1.48771685      212.01505
2017    14      2.52686625      249.4924625
2017    15      2.08926288      234.0629625
2017    16      1.298844        198.18125
2017    17      1.06900732      181.4335
2017    18      1.16728184      187.8391125
2017    19      1.05144436      183.0099375
2017    20      1.11965922      184.1897875
2017    21      2.01739712      229.0898
2017    22      0.80922162      151.5418
2017    23      0.82831335      156.8495625
2017    24      1.1697492       188.8800125
2017    25      1.37028779      199.8620375
2017    26      1.08758578      182.58455
2017    27      0.49811266      111.15697125
2017    28      0.84604467      156.67005
2017    29      1.06490011      185.0781625
2017    30      1.3183865       207.1872125
2018    1       0.52853039      114.8510675
2018    2       0.72084731      142.0409
2018    3       1.31143871      193.5201375
2018    4       1.74611288      224.3074875
2018    5       1.63068669      208.9979
2018    6       1.02819799      175.0783
2018    7       0.45682066      102.92441375
2018    8       0.68415636      139.4512125
2018    9       0.62118554      131.4799375
2018    10      0.80849479      153.2131
2018    11      1.11422075      190.49065
2018    12      1.18954184      194.4501375
2018    13      1.58176038      219.5054625
2018    14      1.3177815       203.1094875
2018    15      0.96220991      171.768525
2018    16      1.76059925      229.564475
2018    17      1.25113642      198.1356
2018    18      1.26989947      199.46205
2018    19      1.18217434      194.7975625
2018    20      1.6062595       203.9217875
2018    21      1.19896718      193.039175
2018    22      0.98265298      174.8064375
2018    23      0.92369999      170.4296
2018    24      1.08788015      186.129225
2018    25      1.06215818      184.9802875
2018    26      1.49937546      214.259475
2018    27      1.81973488      229.2282625
2018    28      0.89807379      164.5513875
2018    29      1.0014692       174.4300875
2018    30      1.58548562      216.9441875
