####################################################################################################
# Month: 11Nov                                                                                     #
# Station: SAL                                                                                     #
# Frequency: 230 GHz                                                                               #
# Columns are: year    day     segment         tau     Tb (K)                                      #
####################################################################################################
2009    1       0       0.2883413       72.70501
2009    1       1       0.2853038       71.43533
2009    1       2       0.2717995       68.43668
2009    1       3       0.2797978       70.56548
2009    1       4       0.2572965       66.36934
2009    1       5       0.3007317       75.43382
2009    1       6       0.4932449       111.2691
2009    1       7       0.2769945       70.69881
2009    2       0       0.1608569       44.82537
2009    2       1       0.1433923       40.38371
2009    2       2       0.185271        49.69834
2009    2       3       0.377555        89.14508
2009    2       4       0.5037907       110.9423
2009    2       5       0.7304543       144.204
2009    2       6       0.8233454       156.0101
2009    2       7       1.422034        209.7426
2009    3       0       1.310407        202.36
2009    3       1       1.270485        199.9162
2009    3       2       0.8992697       164.5755
2009    3       3       1.014195        177.8162
2009    3       4       1.206946        195.2272
2009    3       5       1.065038        183.1195
2009    3       6       1.083275        185.4258
2009    3       7       1.392083        209.2208
2009    4       0       0.9838611       176.1757
2009    4       1       0.8838717       165.4627
2009    4       2       0.9235635       169.8767
2009    4       3       1.009928        179.0649
2009    4       4       0.9639018       173.8707
2009    4       5       0.6316526       133.8558
2009    4       6       0.4443674       103.2646
2009    4       7       0.2194723       58.43939
2009    5       0       0.122845        35.72912
2009    5       1       0.1561524       43.43625
2009    5       2       0.2383252       61.76103
2009    5       3       0.3539031       87.01839
2009    5       4       0.4267683       100.7376
2009    5       5       0.4462648       102.7721
2009    5       6       0.4652758       107.1127
2009    5       7       0.2663113       67.65704
2009    6       0       0.2310531       59.68558
2009    6       1       0.2386485       60.72804
2009    6       2       0.3119814       75.59769
2009    6       3       0.4074175       94.06099
2009    6       4       0.3673996       86.44253
2009    6       5       0.4661943       104.852
2009    6       6       0.5153472       112.9316
2009    6       7       0.4961688       109.5936
2009    7       0       0.4601646       103.2305
2009    7       1       0.6304561       130.038
2009    7       2       0.4579996       103.3337
2009    7       3       0.3563913       84.88239
2009    7       4       0.3951001       92.69808
2009    7       5       0.4421762       101.6807
2009    7       6       0.5420738       118.0255
2009    7       7       0.4842071       108.2472
2009    8       0       0.4036655       94.21355
2009    8       1       0.3821729       90.50546
2009    8       2       0.4325392       99.54218
2009    8       3       0.5247171       115.118
2009    8       4       0.5121156       113.2876
2009    8       5       0.5832295       124.0144
2009    8       6       0.8938896       164.5146
2009    8       7       1.224394        192.5956
2009    9       0       1.1308          183.5121
2009    9       1       1.123096        182.965
2009    9       2       1.054338        177.0959
2009    9       3       0.8759591       158.9884
2009    9       4       0.8249568       153.3896
2009    9       5       0.7961966       150.217
2009    9       6       0.7485005       144.474
2009    9       7       0.8142091       152.7333
2009    10      0       0.7738052       147.6827
2009    10      1       0.6241354       127.6706
2009    10      2       0.6792461       135.0977
2009    10      3       0.7286212       141.9192
2009    10      4       0.6898317       138.2562
2009    10      5       0.765155        148.5748
2009    10      6       0.7024852       140.6577
2009    10      7       0.7642131       149.2671
2009    11      0       1.019734        178.822
2009    11      1       1.000412        176.8705
2009    11      2       1.058849        182.3257
2009    11      3       1.142783        190.6512
2009    11      4       1.156498        192.3719
2009    11      5       1.100626        187.5342
2009    11      6       1.322303        205.7228
2009    11      7       1.241894        199.5418
2009    12      0       1.216362        197.2757
2009    12      1       1.291274        202.9634
2009    12      2       1.461136        214.2588
2009    12      3       0.8687583       162.9864
2009    12      4       0.8186141       157.1381
2009    12      5       0.7567054       149.5415
2009    12      6       0.8876415       164.3942
2009    12      7       0.7272781       144.4231
2009    13      0       0.5812694       125.0895
2009    13      1       0.5448193       119.5552
2009    13      2       0.564144        122.3885
2009    13      3       0.508095        111.8947
2009    13      4       0.4661041       104.9703
2009    13      5       0.4905748       108.812
2009    13      6       0.5453515       116.8863
2009    13      7       0.3598092       85.43067
2009    14      0       0.291921        71.96751
2009    14      1       0.268793        67.3643
2009    14      2       0.3049624       74.78477
2009    14      3       0.332125        80.39589
2009    14      4       0.31515         77.48327
2009    14      5       0.2976226       74.16307
2009    14      6       0.344448        83.18258
2009    14      7       0.4848044       108.112
2009    15      0       0.5325701       115.614
2009    15      1       0.483418        106.8894
2009    15      2       0.414792        94.58862
2009    15      3       0.5257238       113.388
2009    15      4       0.4586956       102.9776
2009    15      5       0.4455453       101.2901
2009    15      6       0.5565615       119.8461
2009    15      7       0.6124131       128.6728
2009    16      0       0.5507175       119.7635
2009    16      1       0.4840644       109.1095
2009    16      2       0.4664043       105.8177
2009    16      3       0.5092968       112.8629
2009    16      4       0.4300057       100.0012
2009    16      5       0.401873        94.90144
2009    16      6       0.3587566       86.7812
2009    16      7       0.3446477       84.25618
2009    17      0       0.3343054       82.39378
2009    17      1       0.3282192       81.15019
2009    17      2       0.3337477       82.136
2009    17      3       0.3467683       84.86469
2009    17      4       0.4461418       102.1518
2009    17      5       0.5792952       123.0687
2009    17      6       0.5727733       122.7339
2009    17      7       0.6167409       129.2765
2009    18      0       0.6055002       128.3283
2009    18      1       0.512636        114.3321
2009    18      2       0.5099188       113.5401
2009    18      3       0.5733645       123.3351
2009    18      4       0.5973686       126.9269
2009    18      5       0.7122766       143.2721
2009    18      6       0.7764432       151.8266
2009    18      7       0.7884862       153.6261
2009    19      0       0.6496003       135.0564
2009    19      1       0.4977712       111.3873
2009    19      2       0.412902        96.59303
2009    19      3       0.4164016       97.78159
2009    19      4       0.4041207       95.60473
2009    19      5       0.4505548       103.8972
2009    19      6       0.5102664       113.6376
2009    19      7       0.442536        102.7511
2009    20      0       0.3917803       93.79679
2009    20      1       0.3771296       90.99906
2009    20      2       0.3706849       89.72304
2009    20      3       0.4125468       97.80438
2009    20      4       0.398589        95.04485
2009    20      5       0.4209581       99.01213
2009    20      6       0.4370104       101.5633
2009    20      7       0.4672486       106.5378
2009    21      0       0.5983208       127.4712
2009    21      1       0.645498        134.2286
2009    21      2       0.6757385       138.7893
2009    21      3       0.7135563       144.296
2009    21      4       0.7060469       143.531
2009    21      5       0.7224351       145.8072
2009    21      6       0.8432488       160.3339
2009    21      7       0.6473667       134.971
2009    22      0       0.5477935       119.523
2009    22      1       0.4739863       107.5187
2009    22      2       0.3928055       93.05466
2009    22      3       0.3926239       92.92093
2009    22      4       0.455174        103.9973
2009    22      5       0.5087848       113.2271
2009    22      6       0.5047507       112.6522
2009    22      7       0.5269799       116.5134
2009    23      0       0.5354846       118.4667
2009    23      1       0.5013516       113.3891
2009    23      2       0.4843734       110.5079
2009    23      3       0.5244894       117.0381
2009    23      4       0.5746044       124.8381
2009    23      5       0.752528        149.0072
2009    23      6       0.846821        159.9504
2009    23      7       0.8099748       155.3445
2009    24      0       0.7927797       153.3577
2009    24      1       0.8069194       155.1015
2009    24      2       0.7587746       149.8883
2009    24      3       0.8209022       158.2002
2009    24      4       0.9382636       171.2778
2009    24      5       1.056371        183.0554
2009    24      6       1.099086        187.0525
2009    24      7       0.9713358       175.2609
2009    25      0       0.733237        147.7573
2009    25      1       0.852615        161.4359
2009    25      2       1.153556        191.8099
2009    25      3       0.7548361       150.2754
2009    25      4       0.6125144       130.8865
2009    25      5       0.4883629       111.2733
2009    25      6       0.3176741       79.13572
2009    25      7       0.1817022       48.6703
2009    26      0       0.1669633       45.17745
2009    26      1       0.1565132       42.68684
2009    26      2       0.136651        38.15046
2009    26      3       0.2620092       66.96056
2009    26      4       0.2598797       66.43831
2009    26      5       0.2814114       71.52089
2009    26      6       0.3189508       79.52898
2009    26      7       0.2463453       64.74181
2009    27      0       0.1993167       54.45116
2009    27      1       0.1506116       43.10085
2009    27      2       0.1268208       37.34693
2009    27      3       0.2034002       55.36881
2009    27      4       0.2101509       56.80742
2009    27      5       0.2123487       57.54538
2009    27      6       0.2320939       62.12693
2009    27      7       0.2309807       61.87532
2009    28      0       0.2005804       54.95928
2009    28      1       0.2241166       59.92852
2009    28      2       0.2203969       58.9235
2009    28      3       0.1846144       51.1942
2009    28      4       0.2773755       71.17244
2009    28      5       0.4005578       94.77392
2009    28      6       0.4561787       103.5933
2009    28      7       0.6388616       129.2969
2009    29      0       0.7265169       143.5868
2009    29      1       0.639144        130.0452
2009    29      2       0.5816651       122.9908
2009    29      3       0.4059617       95.98729
2009    29      4       0.3323379       82.76245
2009    29      5       0.3879089       93.18725
2009    29      6       0.5066337       113.6219
2009    29      7       0.6479863       135.0873
2009    30      0       0.620894        131.0241
2009    30      1       0.5536559       120.8634
2009    30      2       0.5725505       123.5718
2009    30      3       0.6033696       127.2595
2009    30      4       0.4884659       109.3631
2009    30      5       0.5307203       116.2393
2009    30      6       0.6638023       135.9631
2009    30      7       0.6678007       136.4424
2010    1       0       0.3658724       88.89506
2010    1       1       0.3301685       82.02038
2010    1       2       0.3245903       80.67724
2010    1       3       0.3945917       93.92296
2010    1       4       0.4414889       101.8979
2010    1       5       0.4949256       110.7964
2010    1       6       0.5232967       115.9552
2010    1       7       0.4816746       108.7879
2010    2       0       0.3966648       93.35977
2010    2       1       0.3636916       86.93414
2010    2       2       0.3877571       91.19317
2010    2       3       0.563668        121.0631
2010    2       4       0.5524691       119.7544
2010    2       5       0.5493808       119.8882
2010    2       6       0.5763427       124.4452
2010    2       7       0.5817921       124.7429
2010    3       0       0.5695493       122.4135
2010    3       1       0.5967017       125.5471
2010    3       2       0.6439499       132.0468
2010    3       3       0.7047395       140.8255
2010    3       4       0.8143939       154.0905
2010    3       5       0.9852723       172.6698
2010    3       6       0.6808294       138.0324
2010    3       7       0.5076997       112.1199
2010    4       0       0.8483952       158.5188
2010    4       1       0.8531115       158.634
2010    4       2       1.291567        198.9432
2010    4       3       0.6578904       133.8524
2010    4       4       0.5371821       116.4806
2010    4       5       0.5249733       114.6658
2010    4       6       0.5084494       111.9691
2010    4       7       0.4469997       101.4605
2010    5       0       0.3473573       83.36849
2010    5       1       0.3247951       78.99876
2010    5       2       0.3355447       80.67269
2010    5       3       0.292874        72.57576
2010    5       4       0.2744967       69.14561
2010    5       5       0.3153291       77.46798
2010    5       6       0.3536547       84.73636
2010    5       7       0.2856615       71.31751
2010    6       0       0.2663886       67.14542
2010    6       1       0.2248614       58.26921
2010    6       2       0.1978925       52.43837
2010    6       3       0.2527427       64.82918
2010    6       4       0.2167298       57.35836
2010    6       5       0.225897        59.34814
2010    6       6       0.2559318       65.81884
2010    6       7       0.2920942       73.50665
2010    7       0       0.2741974       69.794
2010    7       1       0.2365667       61.84827
2010    7       2       0.1661108       45.99306
2010    7       3       0.2315264       60.96548
2010    7       4       0.2690294       68.63808
2010    7       5       0.351593        85.35388
2010    7       6       0.4420633       102.2886
2010    7       7       0.3356306       82.17253
2010    8       0       0.3796121       90.16051
2010    8       1       0.3901081       91.88034
2010    8       2       0.3830309       90.31603
2010    8       3       0.442647        101.0973
2010    8       4       0.4915784       110.2637
2010    8       5       0.6011369       127.6962
2010    8       6       0.8759997       162.6171
2010    8       7       0.9487833       169.8995
2010    9       0       0.9937464       173.8941
2010    9       1       1.038579        177.6115
2010    9       2       0.8261066       155.0631
2010    9       3       0.5568124       119.0746
2010    9       4       0.5516809       117.5166
2010    9       5       0.6431612       129.9993
2010    9       6       0.6609582       133.7969
2010    9       7       0.644384        132.3393
2010    10      0       0.4361676       100.2144
2010    10      1       0.3610263       86.60513
2010    10      2       0.3613439       86.74335
2010    10      3       0.3652604       87.6119
2010    10      4       0.3498111       84.48628
2010    10      5       0.3514218       84.85591
2010    10      6       0.352358        85.05608
2010    10      7       0.3285572       80.60263
2010    11      0       0.3398979       82.8886
2010    11      1       0.3264056       80.46274
2010    11      2       0.2676251       68.75211
2010    11      3       0.3206932       79.25771
2010    11      4       0.3111452       77.08381
2010    11      5       0.3730091       88.62617
2010    11      6       0.3029386       75.58198
2010    11      7       0.3838091       91.45436
2010    12      0       0.6205618       131.2597
2010    12      1       0.5271739       116.8623
2010    12      2       0.4032302       95.41913
2010    12      3       0.430148        100.4277
2010    12      4       0.4768281       107.9436
2010    12      5       0.527478        116.69
2010    12      6       0.5461866       119.5601
2010    12      7       0.4664971       106.7416
2010    13      0       0.3664043       89.59309
2010    13      1       0.3853845       93.24546
2010    13      2       0.3207585       80.63538
2010    13      3       0.3327453       82.87127
2010    13      4       0.3276751       81.90663
2010    13      5       0.3186515       80.19803
2010    13      6       0.3580246       87.92275
2010    13      7       0.223524        60.08426
2010    14      0       0.1644038       46.38922
2010    14      1       0.1233347       36.32348
2010    14      2       0.09703098      29.71513
2010    14      3       0.112662        33.68582
2010    14      4       0.1757538       49.03977
2010    14      5       0.186322        51.48119
2010    14      6       0.1914445       52.71595
2010    14      7       0.1854717       51.34299
2010    15      0       0.1718579       48.22177
2010    15      1       0.1853359       51.0355
2010    15      2       0.2235606       59.07248
2010    15      3       0.3028127       75.5997
2010    15      4       0.3775727       89.58736
2010    15      5       0.4221213       97.38362
2010    15      6       0.4208395       97.46282
2010    15      7       0.3971393       93.39614
2010    16      0       0.3900854       91.51369
2010    16      1       0.4000481       92.80638
2010    16      2       0.4343054       98.49779
2010    16      3       0.5373555       116.0578
2010    16      4       0.4251053       98.58756
2010    16      5       0.6375283       134.0095
2010    16      6       0.6575087       137.1335
2010    16      7       0.4979524       112.5789
2010    17      0       0.4127304       97.84453
2010    17      1       0.4247008       100.2262
2010    17      2       0.4611506       106.6769
2010    17      3       0.4662176       107.5421
2010    17      4       0.4692155       107.5219
2010    17      5       0.4736564       108.191
2010    17      6       0.4932737       111.8316
2010    17      7       0.4880121       111.2989
2010    18      0       0.412122        97.81639
2010    18      1       0.4124199       97.55167
2010    18      2       0.4612288       105.7622
2010    18      3       0.9763308       177.5606
2010    18      4       0.444818        103.3698
2010    18      5       0.4090143       97.00523
2010    18      6       0.3685188       89.17764
2010    18      7       0.4023702       95.02264
2010    19      0       0.5336626       117.1955
2010    19      1       0.5643049       122.0572
2010    19      2       0.5149698       114.6147
2010    19      3       0.4175836       97.73391
2010    19      4       0.3713095       89.23565
2010    19      5       0.4553322       105.0698
2010    19      6       0.5970845       128.4008
2010    19      7       0.6850163       141.4756
2010    20      0       0.7718123       152.6434
2010    20      1       0.6766376       139.8784
2010    20      2       0.5258402       117.0748
2010    20      3       0.5789455       125.473
2010    20      4       0.4935566       112.178
2010    20      5       0.4845624       110.2705
2010    20      6       0.5047732       113.4193
2010    20      7       0.4823947       109.1946
2010    21      0       0.3643031       86.79199
2010    21      1       0.3401983       80.84221
2010    21      2       0.5298414       114.0009
2010    21      3       0.8621057       159.2409
2010    21      4       0.7057968       140.2037
2010    21      5       0.5527467       119.1398
2010    21      6       0.5632581       120.5261
2010    21      7       0.6036937       126.0134
2010    22      0       0.6390439       130.8154
2010    22      1       0.632652        129.3242
2010    22      2       0.5911785       123.4004
2010    22      3       0.3989092       92.69107
2010    22      4       0.3182391       77.95284
2010    22      5       0.2881071       72.29262
2010    22      6       0.3056202       75.89353
2010    22      7       0.312671        77.6342
2010    23      0       0.2417189       62.95014
2010    23      1       0.1962694       53.05409
2010    23      2       0.1694596       46.94669
2010    23      3       0.2498728       64.60814
2010    23      4       0.2545973       65.5006
2010    23      5       0.3070941       76.24231
2010    23      6       0.3454801       84.03407
2010    23      7       0.2471239       64.4867
2010    24      0       0.1928231       52.66892
2010    24      1       0.1568629       44.37419
2010    24      2       0.1381808       39.87019
2010    24      3       0.2458275       64.09151
2010    24      4       0.2457756       64.18375
2010    24      5       0.2926841       73.78648
2010    24      6       0.3291161       81.08139
2010    24      7       0.3300191       81.62687
2010    25      0       0.3097273       77.52962
2010    25      1       0.2976123       74.94821
2010    25      2       0.3437864       83.74733
2010    25      3       0.3755256       90.32348
2010    25      4       0.8585645       163.007
2010    25      5       1.422468        212.9682
2010    25      6       0.5981005       128.1827
2010    25      7       0.368225        89.8698
2010    26      0       0.2504807       65.67073
2010    26      1       0.2097119       56.21333
2010    26      2       0.4853468       110.4996
2010    26      3       0.842856        161.57
2010    26      4       0.7670969       151.6603
2010    26      5       0.6287701       132.1115
2010    26      6       0.4026543       95.05744
2010    26      7       0.2692242       69.14449
2010    27      0       0.2133566       57.10463
2010    27      1       0.1914312       51.95401
2010    27      2       0.178094        48.98798
2010    27      3       0.2197969       58.56361
2010    27      4       0.2619149       67.66186
2010    27      5       0.3259849       80.60369
2010    27      6       0.3289371       81.22653
2010    27      7       0.2607455       67.4764
2010    28      0       0.2583646       66.87794
2010    28      1       0.3061175       76.68135
2010    28      2       0.510219        113.7454
2010    28      3       0.5441877       119.0396
2010    28      4       0.3898476       92.69489
2010    28      5       0.3561481       85.94499
2010    28      6       0.3346933       81.8696
2010    28      7       0.1091411       32.87034
2010    29      0       0.07818087      24.98158
2010    29      1       0.1274188       37.32112
2010    29      2       0.132258        38.06049
2010    29      3       0.1757781       48.34559
2010    29      4       0.1716052       47.40867
2010    29      5       0.1975589       53.06112
2010    29      6       0.253228        65.21312
2010    29      7       0.2974222       74.64084
2010    30      0       0.2931742       73.77032
2010    30      1       0.2870266       72.60471
2010    30      2       0.3224343       79.28849
2010    30      3       0.3838008       91.03429
2010    30      4       0.3937085       93.3212
2010    30      5       0.4237049       98.77643
2010    30      6       0.45817         104.6339
2010    30      7       0.4527703       103.9193
2011    1       0       0.5223752       113.2705
2011    1       1       0.446167        100.6608
2011    1       2       0.4056431       93.74903
2011    1       3       0.4454793       101.123
2011    1       4       0.4103722       95.44172
2011    1       5       0.404443        94.4969
2011    1       6       0.4251119       98.12141
2011    1       7       0.3847191       91.13209
2011    2       0       0.363049        87.09229
2011    2       1       0.3562682       85.79078
2011    2       2       0.319078        78.46275
2011    2       3       0.3321704       81.52004
2011    2       4       0.3094683       77.18193
2011    2       5       0.3143208       78.3525
2011    2       6       0.3152753       78.78893
2011    2       7       0.2922933       74.51736
2011    3       0       0.2597841       67.84078
2011    3       1       0.2325574       61.78738
2011    3       2       0.2185717       58.576
2011    3       3       0.1887765       52.02362
2011    3       4       0.2212887       59.04705
2011    3       5       0.3092007       77.2794
2011    3       6       0.3883708       92.74349
2011    3       7       0.3270436       80.81676
2011    4       0       0.2284472       60.07581
2011    4       1       0.1907576       51.67438
2011    4       2       0.2367738       61.77867
2011    4       3       0.4827887       108.0807
2011    4       4       0.5008992       111.0555
2011    4       5       0.3935021       92.6047
2011    4       6       0.4014357       93.85849
2011    4       7       0.5570807       119.4159
2011    5       0       0.4950258       109.3743
2011    5       1       0.3451367       82.93594
2011    5       2       0.3634646       86.24895
2011    5       3       0.3762631       88.61538
2011    5       4       0.3448171       83.07335
2011    5       5       0.378665        89.29721
2011    5       6       0.4239647       97.25417
2011    5       7       0.3676803       86.76438
2011    6       0       0.4120823       93.68581
2011    6       1       0.4458058       99.632
2011    6       2       0.5596718       116.4591
2011    6       3       0.4580179       101.5675
2011    6       4       0.4379947       98.29367
2011    6       5       0.4133911       94.65412
2011    6       6       0.409516        94.3284
2011    6       7       0.400782        93.10173
2011    7       0       0.3327234       80.78132
2011    7       1       0.3236498       79.5778
2011    7       2       0.336553        82.50127
2011    7       3       0.3246077       80.17438
2011    7       4       0.2944925       74.18815
2011    7       5       0.2756564       70.51781
2011    7       6       0.3048058       76.45333
2011    7       7       0.3027638       76.02631
2011    8       0       0.2962942       74.90421
2011    8       1       0.2531824       65.9069
2011    8       2       0.1916688       52.30692
2011    8       3       0.1851103       50.81022
2011    8       4       0.2244418       59.83656
2011    8       5       0.2982438       75.62692
2011    8       6       0.3058902       76.94387
2011    8       7       0.22582         59.78077
2011    9       0       0.2806288       71.29494
2011    9       1       0.4678711       107.9241
2011    9       2       0.5635193       123.9526
2011    9       3       0.5269753       117.8407
2011    9       4       0.383904        91.77451
2011    9       5       0.318554        78.89276
2011    9       6       0.3627509       87.51057
2011    9       7       0.4989292       111.6144
2011    10      0       0.4295528       99.50411
2011    10      1       0.3832355       90.29693
2011    10      2       0.3904239       91.36683
2011    10      3       0.4178749       96.06886
2011    10      4       0.3557025       83.96176
2011    10      5       0.380319        88.15766
2011    10      6       0.3829823       88.75274
2011    10      7       0.3059538       75.3218
2011    11      0       0.2938235       73.06662
2011    11      1       0.2900919       72.12401
2011    11      2       0.2913153       71.74764
2011    11      3       0.2950978       72.43638
2011    11      4       0.2907386       71.36439
2011    11      5       0.2838728       70.40661
2011    11      6       0.3153894       77.0788
2011    11      7       0.4226259       97.39687
2011    12      0       0.342927        82.88148
2011    12      1       0.2952401       73.52952
2011    12      2       0.3081861       75.94728
2011    12      3       0.2693032       68.48346
2011    12      4       0.2477716       64.06157
2011    12      5       0.2435059       63.26484
2011    12      6       0.2714261       69.1059
2011    12      7       0.2252002       59.23343
2011    13      0       0.2311158       60.24357
2011    13      1       0.1962849       52.35731
2011    13      2       0.2887644       71.80014
2011    13      3       0.4841602       107.0487
2011    13      4       0.6053018       124.5039
2011    13      5       0.6465812       128.6752
2011    13      6       0.4307933       96.69713
2011    13      7       0.3082296       75.37999
2011    14      0       0.2291447       59.67181
2011    14      1       0.1795631       49.06214
2011    14      2       0.1935013       52.20785
2011    14      3       0.1901901       51.5861
2011    14      4       0.1829697       50.11975
2011    14      5       0.217234        57.68101
2011    14      6       0.2693955       68.93079
2011    14      7       0.3073961       76.89265
2011    15      0       0.273174        69.88183
2011    15      1       0.2524401       65.56553
2011    15      2       0.2542611       65.88965
2011    15      3       0.2557935       66.12969
2011    15      4       0.2730889       69.53804
2011    15      5       0.2861729       72.29811
2011    15      6       0.3075119       76.63438
2011    15      7       0.3227889       79.84454
2011    16      0       0.2900569       73.03261
2011    16      1       0.2812401       71.06432
2011    16      2       0.2647277       67.69939
2011    16      3       0.2913748       73.21665
2011    16      4       0.2752842       69.72803
2011    16      5       0.2669041       67.93299
2011    16      6       0.2674347       68.38579
2011    16      7       0.3264326       80.70309
2011    17      0       0.3108696       77.476
2011    17      1       0.2635481       67.66016
2011    17      2       0.2360959       61.68093
2011    17      3       0.3229019       80.20589
2011    17      4       0.3094076       77.38494
2011    17      5       0.3154438       78.77682
2011    17      6       0.3281715       81.42313
2011    17      7       0.3477175       85.36613
2011    18      0       0.3246527       80.75131
2011    18      1       0.3153986       78.23684
2011    18      2       0.3204392       78.41311
2011    18      3       0.4355476       100.6536
2011    18      4       0.4122541       96.55096
2011    18      5       0.431684        100.3558
2011    18      6       0.5533748       121.0957
2011    18      7       0.6170575       130.9905
2011    19      0       0.5850207       126.2334
2011    19      1       0.5488051       120.4355
2011    19      2       0.6044192       128.762
2011    19      3       0.6541497       136.5428
2011    19      4       0.6487428       135.9514
2011    19      5       0.6756871       139.9651
2011    19      6       0.7278833       146.4321
2011    19      7       0.5515377       121.242
2011    20      0       0.709015        144.2182
2011    20      1       0.8343726       156.2144
2011    20      2       1.385049        207.9918
2011    20      3       1.258526        199.4919
2011    20      4       1.033065        180.4568
2011    20      5       1.082577        185.1788
2011    20      6       1.026198        179.7189
2011    20      7       0.6758093       138.2822
2011    21      0       0.443108        102.0405
2011    21      1       0.6400168       133.2013
2011    21      2       0.8454515       162.1382
2011    21      3       0.4297533       99.78702
2011    21      4       0.2566993       66.41226
2011    21      5       0.2339248       61.59637
2011    21      6       0.2787423       70.94261
2011    21      7       0.2663216       68.68136
2011    22      0       0.2532057       65.75278
2011    22      1       0.2461749       64.01311
2011    22      2       0.2381862       62.15981
2011    22      3       0.2871222       72.26061
2011    22      4       0.2732874       69.37468
2011    22      5       0.2903171       72.82118
2011    22      6       0.3403478       82.73675
2011    22      7       0.3370595       82.01504
2011    23      0       0.318077        78.19695
2011    23      1       0.3095926       76.3854
2011    23      2       0.319256        78.03052
2011    23      3       0.3245604       78.92048
2011    23      4       0.3475653       83.56842
2011    23      5       0.6044154       124.3324
2011    23      6       0.4843589       106.7299
2011    23      7       0.2271035       59.01194
2011    24      0       0.2712133       69.03356
2011    24      1       0.3204002       79.24787
2011    24      2       0.2737462       69.06657
2011    24      3       0.4723177       107.0679
2011    24      4       0.387476        91.37601
2011    24      5       0.3421789       83.26478
2011    24      6       0.3906099       92.27808
2011    24      7       0.4111277       95.88775
2011    25      0       0.3675712       87.89694
2011    25      1       0.301263        75.19502
2011    25      2       0.3288126       80.63308
2011    25      3       0.3284298       80.69198
2011    25      4       0.3531526       85.27697
2011    25      5       0.3740987       89.21633
2011    25      6       0.3493598       84.59801
2011    25      7       0.3166996       78.43437
2011    26      0       0.3039712       75.61208
2011    26      1       0.2463025       63.95619
2011    26      2       0.2157246       57.38845
2011    26      3       0.2520764       65.18905
2011    26      4       0.2625095       67.37588
2011    26      5       0.2969626       74.27635
2011    26      6       0.3941716       92.8441
2011    26      7       0.4888113       109.4845
2011    27      0       0.5113022       112.881
2011    27      1       0.4605031       104.4252
2011    27      2       0.4657129       105.5163
2011    27      3       0.5133636       113.4158
2011    27      4       0.5385275       116.7769
2011    27      5       0.5172271       114.1022
2011    27      6       0.5497393       119.6277
2011    27      7       0.3427315       83.74155
2011    28      0       0.1389013       39.79936
2011    28      1       0.1011196       30.67364
2011    28      2       0.08825536      27.51423
2011    28      3       0.2172672       58.1066
2011    28      4       0.1948377       53.099
2011    28      5       0.1982286       53.74153
2011    28      6       0.2000306       53.9382
2011    28      7       0.2122393       55.99948
2011    29      0       0.1886108       51.024
2011    29      1       0.2616842       66.63853
2011    29      2       0.3678169       87.27224
2011    29      3       0.4916949       108.9503
2011    29      4       0.5376688       117.2133
2011    29      5       0.6422734       133.0298
2011    29      6       0.5460475       119.4994
2011    29      7       0.5269437       116.2671
2011    30      0       0.4943291       111.4132
2011    30      1       0.38283         91.93539
2011    30      2       0.3168707       79.3478
2011    30      3       0.355567        86.99937
2011    30      4       0.4061196       96.0757
2011    30      5       0.4157151       97.86821
2011    30      6       0.406543        96.18298
2011    30      7       0.4805684       109.0182
2012    1       0       0.1809254       49.61568
2012    1       1       0.09431292      28.89336
2012    1       2       0.08992112      27.69544
2012    1       3       0.158809        44.27801
2012    1       4       0.1673131       46.25409
2012    1       5       0.1951706       52.43853
2012    1       6       0.2102059       55.8785
2012    1       7       0.2183253       57.68658
2012    2       0       0.2111629       56.03272
2012    2       1       0.1985053       53.32208
2012    2       2       0.1867172       50.77806
2012    2       3       0.1987778       53.60932
2012    2       4       0.2271588       59.66337
2012    2       5       0.2540176       65.45817
2012    2       6       0.2879797       72.50459
2012    2       7       0.2719607       69.64348
2012    3       0       0.2680056       68.63505
2012    3       1       0.2818873       71.16366
2012    3       2       0.3417614       82.36892
2012    3       3       0.4146143       96.65298
2012    3       4       0.4324213       100.5213
2012    3       5       0.4554372       104.8926
2012    3       6       0.4891002       110.1109
2012    3       7       0.481613        108.2702
2012    4       0       0.4362233       100.5517
2012    4       1       0.4714051       105.8158
2012    4       2       0.489325        108.6843
2012    4       3       0.5306943       115.5033
2012    4       4       0.5452426       117.2473
2012    4       5       0.5651504       119.9734
2012    4       6       0.4972379       110.1469
2012    4       7       0.4388363       101.1299
2012    5       0       0.4442469       102.1739
2012    5       1       0.4145644       96.37092
2012    5       2       0.4181755       97.01873
2012    5       3       0.4803975       108.2771
2012    5       4       0.4751915       106.5035
2012    5       5       0.4208201       97.77686
2012    5       6       0.4074559       95.85414
2012    5       7       0.4687324       106.6
2012    6       0       0.4994624       111.2038
2012    6       1       0.5272168       115.2957
2012    6       2       0.6559222       133.6144
2012    6       3       0.4999475       112.2271
2012    6       4       0.4122125       97.11732
2012    6       5       0.4474154       103.246
2012    6       6       0.5520181       120.3971
2012    6       7       0.5390916       118.1526
2012    7       0       0.5899373       124.8623
2012    7       1       0.5523104       119.0343
2012    7       2       0.4827592       108.5686
2012    7       3       0.5221891       115.2368
2012    7       4       0.5377028       117.6508
2012    7       5       0.6306511       131.7927
2012    7       6       0.6216788       130.414
2012    7       7       0.5545721       120.4453
2012    8       0       0.4323199       100.3718
2012    8       1       0.2943535       74.02954
2012    8       2       0.1531822       42.81151
2012    8       3       0.222202        58.46105
2012    8       4       0.2345058       60.85965
2012    8       5       0.3303683       79.35396
2012    8       6       0.3976456       91.6764
2012    8       7       0.3313468       80.92161
2012    9       0       0.3562839       86.18153
2012    9       1       0.4420755       101.6651
2012    9       2       0.4614287       104.8682
2012    9       3       0.3302391       81.37924
2012    9       4       0.2337491       62.15045
2012    9       5       0.2247597       60.26462
2012    9       6       0.2468245       65.16554
2012    9       7       0.2502758       65.95045
2012    10      0       0.192546        52.9789
2012    10      1       0.142646        41.35024
2012    10      2       0.131898        38.64099
2012    10      3       0.2030044       55.00015
2012    10      4       0.2289976       60.43587
2012    10      5       0.2539077       65.62991
2012    10      6       0.2707117       69.09151
2012    10      7       0.2531835       65.84291
2012    11      0       0.2220499       59.31659
2012    11      1       0.2396098       63.02771
2012    11      2       0.2954157       74.57022
2012    11      3       0.3052391       76.82838
2012    11      4       0.4203945       98.59853
2012    11      5       0.5871717       126.4506
2012    11      6       0.4734139       108.649
2012    11      7       0.1972809       54.08873
2012    12      0       0.2882826       72.15675
2012    12      1       0.3525175       84.35619
2012    12      2       0.4411422       98.87302
2012    12      3       0.592443        124.5245
2012    12      4       0.4736646       106.5549
2012    12      5       0.4125385       96.22895
2012    12      6       0.5214623       114.8714
2012    12      7       0.5530199       120.2869
2012    13      0       0.6357152       132.581
2012    13      1       0.5737187       123.6592
2012    13      2       0.6072071       128.5623
2012    13      3       0.4975941       111.9383
2012    13      4       0.4562864       105.2874
2012    13      5       0.4602069       106.0936
2012    13      6       0.4687003       107.7216
2012    13      7       0.4782096       109.4301
2012    14      0       0.443944        103.398
2012    14      1       0.40748         96.65312
2012    14      2       0.3818071       91.73584
2012    14      3       0.418773        98.98445
2012    14      4       0.408623        97.07445
2012    14      5       0.4171631       98.65218
2012    14      6       0.4294227       100.7847
2012    14      7       0.432559        101.5082
2012    15      0       0.3948064       94.4049
2012    15      1       0.3985051       94.52065
2012    15      2       0.4100632       96.21803
2012    15      3       0.399021        94.71697
2012    15      4       0.4399636       102.5912
2012    15      5       0.5520982       121.7657
2012    15      6       0.5678465       123.7928
2012    15      7       0.4925872       111.1617
2012    16      0       0.4558731       104.0877
2012    16      1       0.4346657       100.1993
2012    16      2       0.4616616       104.6429
2012    16      3       0.5476842       118.085
2012    16      4       0.5228878       114.6005
2012    16      5       0.4944978       110.447
2012    16      6       0.5182759       114.8381
2012    16      7       0.5085195       113.2567
2012    17      0       0.5322237       117.0749
2012    17      1       0.5790528       124.3553
2012    17      2       0.6700196       137.6421
2012    17      3       0.6375736       133.175
2012    17      4       0.6164789       129.5105
2012    17      5       0.6127314       129.2451
2012    17      6       0.689066        140.5034
2012    17      7       0.6483314       135.1246
2012    18      0       0.582755        125.7224
2012    18      1       0.5709966       123.8176
2012    18      2       0.5375613       118.7415
2012    18      3       0.4872175       111.1448
2012    18      4       0.4343265       101.7841
2012    18      5       0.4079909       96.83598
2012    18      6       0.3291213       81.84115
2012    18      7       0.3205964       79.82745
2012    19      0       0.2890395       73.22461
2012    19      1       0.3371381       82.74637
2012    19      2       0.3903878       92.73685
2012    19      3       0.453636        104.4968
2012    19      4       0.4427413       102.6028
2012    19      5       0.4514372       104.4508
2012    19      6       0.5138406       115.5024
2012    19      7       0.4742986       109.0982
2012    20      0       0.4333398       101.8219
2012    20      1       0.4106533       97.72935
2012    20      2       0.4558051       105.6884
2012    20      3       0.4705717       108.3657
2012    20      4       0.4946694       112.5324
2012    20      5       0.5598257       123.2577
2012    20      6       0.627526        133.1293
2012    20      7       0.6170553       129.9609
2012    21      0       0.8186994       156.6657
2012    21      1       0.7586598       149.1352
2012    21      2       0.5542893       120.4259
2012    21      3       0.4674493       106.1696
2012    21      4       0.3789777       90.54452
2012    21      5       0.3399447       83.39133
2012    21      6       0.3332069       82.4586
2012    21      7       0.3003001       76.10536
2012    22      0       0.267486        69.31522
2012    22      1       0.216124        58.20424
2012    22      2       0.176254        48.75212
2012    22      3       0.2246676       59.45379
2012    22      4       0.2447502       63.77888
2012    22      5       0.2786025       70.78752
2012    22      6       0.3089304       77.03819
2012    22      7       0.3296578       81.24264
2012    23      0       0.2714371       69.64653
2012    23      1       0.2586481       66.84117
2012    23      2       0.2412435       63.20346
2012    23      3       0.2449758       63.98269
2012    23      4       0.209483        56.44289
2012    23      5       0.2097253       56.55621
2012    23      6       0.1735549       48.26088
2012    23      7       0.09946007      29.82764
2012    24      0       0.1359292       38.77603
2012    24      1       0.2854281       71.9506
2012    24      2       0.6682358       137.9444
2012    24      3       0.7565052       147.7079
2012    24      4       0.5629869       120.2709
2012    24      5       0.2977273       73.68638
2012    24      6       0.2437205       63.55979
2012    24      7       0.1517624       42.1575
2012    25      0       0.09224106      28.05753
2012    25      1       0.1048106       31.0102
2012    25      2       0.1176528       34.05307
2012    25      3       0.2054923       54.3402
2012    25      4       0.1838785       49.97036
2012    25      5       0.1975726       53.24322
2012    25      6       0.2143565       57.18508
2012    25      7       0.1983913       53.68233
2012    26      0       0.1863169       50.80078
2012    26      1       0.1841364       50.27953
2012    26      2       0.1871309       51.01849
2012    26      3       0.2655834       68.29135
2012    26      4       0.3229424       79.98445
2012    26      5       0.3753272       90.10803
2012    26      6       0.442916        102.4859
2012    26      7       0.4006045       94.94349
2012    27      0       0.3627809       87.72689
2012    27      1       0.3510844       85.56979
2012    27      2       0.3457604       84.61455
2012    27      3       0.3591199       87.38017
2012    27      4       0.359189        87.14243
2012    27      5       0.3472904       84.94427
2012    27      6       0.324661        80.66097
2012    27      7       0.2761072       71.137
2012    28      0       0.2257941       60.21485
2012    28      1       0.2085313       55.9609
2012    28      2       0.1791591       49.13388
2012    28      3       0.2762534       70.20004
2012    28      4       0.4320305       100.2768
2012    28      5       0.4812603       108.7493
2012    28      6       0.3709148       89.15005
2012    28      7       0.3305315       81.82523
2012    29      0       0.3250649       80.78826
2012    29      1       0.3262311       80.44516
2012    29      2       0.3177478       78.46208
2012    29      3       0.4294132       99.65678
2012    29      4       0.5084146       112.3357
2012    29      5       0.6355198       131.7937
2012    29      6       0.7391912       146.4027
2012    29      7       0.6475487       134.1536
2012    30      0       0.5841286       124.1379
2012    30      1       0.6059966       126.842
2012    30      2       0.7357757       144.1825
2012    30      3       0.9609836       170.6638
2012    30      4       0.9012631       165.3393
2012    30      5       0.8745529       162.8351
2012    30      6       0.9326955       168.6602
2012    30      7       0.9167396       167.1968
2013    1       0       1.234583        195.4716
2013    1       1       1.120133        186.1491
2013    1       2       0.7133314       141.8004
2013    1       3       0.8031196       153.2236
2013    1       4       0.9176422       165.7721
2013    1       5       0.8515176       158.8931
2013    1       6       0.7461844       146.651
2013    1       7       0.7238343       144.3194
2013    2       0       0.4977071       110.8328
2013    2       1       0.2235972       58.69198
2013    2       2       0.07724961      24.31483
2013    2       3       0.2139963       56.79603
2013    2       4       0.2257184       59.28082
2013    2       5       0.256127        65.84587
2013    2       6       0.2904427       72.72967
2013    2       7       0.3012438       74.7254
2013    3       0       0.2763884       69.71826
2013    3       1       0.3085787       75.85945
2013    3       2       0.3400121       81.84902
2013    3       3       0.3123252       76.9802
2013    3       4       0.3266845       79.8263
2013    3       5       0.3301915       81.05246
2013    3       6       0.3444928       83.99546
2013    3       7       0.3391334       82.73528
2013    4       0       0.2955119       74.06498
2013    4       1       0.2355336       61.79963
2013    4       2       0.2410561       63.1235
2013    4       3       0.2513993       65.41582
2013    4       4       0.2617193       67.82087
2013    4       5       0.2801392       71.70476
2013    4       6       0.2853736       72.82089
2013    4       7       0.2402194       62.9226
2013    5       0       0.1750851       48.51818
2013    5       1       0.1855939       50.81979
2013    5       2       0.1826771       50.08339
2013    5       3       0.2320743       61.25139
2013    5       4       0.2566898       66.65372
2013    5       5       0.3215646       79.79061
2013    5       6       0.3554512       86.20839
2013    5       7       0.3559984       86.23365
2013    6       0       0.4309579       99.26413
2013    6       1       0.4548749       102.1444
2013    6       2       0.3383487       81.56807
2013    6       3       0.2332223       61.01414
2013    6       4       0.2935396       73.85636
2013    6       5       0.4044905       94.75034
2013    6       6       0.3310655       80.41692
2013    6       7       0.2027634       51.87946
2013    7       0       0.2334362       58.35458
2013    7       1       0.1702038       46.28051
2013    7       2       0.1106245       32.72659
2013    7       3       0.2286945       59.60072
2013    7       4       0.2351457       61.34746
2013    7       5       0.2474736       64.09408
2013    7       6       0.2125259       56.40265
2013    7       7       0.1472791       41.21477
2013    8       0       0.1543076       43.19537
2013    8       1       0.1298106       37.35492
2013    8       2       0.08330327      26.1377
2013    8       3       0.193457        52.62436
2013    8       4       0.2707906       68.52006
2013    8       5       0.3539414       84.77028
2013    8       6       0.4060872       94.47966
2013    8       7       0.406196        94.83574
2013    9       0       0.3983246       93.35297
2013    9       1       0.444714        101.3075
2013    9       2       0.5556702       118.8474
2013    9       3       0.5022496       111.2376
2013    9       4       0.4330147       99.83781
2013    9       5       0.4313422       99.76067
2013    9       6       0.4197299       97.79441
2013    9       7       0.3368036       82.75883
2013    10      0       0.3254337       80.09812
2013    10      1       0.2758707       69.89455
2013    10      2       0.2198154       57.96449
2013    10      3       0.2888214       72.15882
2013    10      4       0.3253254       79.23126
2013    10      5       0.3727737       88.16569
2013    10      6       0.4154678       96.23198
2013    10      7       0.4091981       94.54184
2013    11      0       0.3411289       82.35543
2013    11      1       0.2912662       72.40325
2013    11      2       0.3236366       78.69964
2013    11      3       0.3912264       92.36273
2013    11      4       0.4215228       97.88989
2013    11      5       0.4501696       103.4712
2013    11      6       0.4436127       102.6983
2013    11      7       0.3901189       93.03482
2013    12      0       0.3187369       78.82104
2013    12      1       0.3104193       76.54504
2013    12      2       0.2620076       66.92917
2013    12      3       0.3695998       88.29415
2013    12      4       0.4153857       97.02414
2013    12      5       0.4210692       98.75566
2013    12      6       0.3967156       94.57274
2013    12      7       0.331201        82.40089
2013    13      0       0.2549403       66.74683
2013    13      1       0.2290729       60.87927
2013    13      2       0.2322285       61.44359
2013    13      3       0.3123884       78.3602
2013    13      4       0.3018563       76.29298
2013    13      5       0.3489629       85.99844
2013    13      6       0.4157792       98.67274
2013    13      7       0.3485514       85.29401
2013    14      0       0.3424136       83.34237
2013    14      1       0.2730201       69.1753
2013    14      2       0.3555706       85.94538
2013    14      3       0.395318        93.31277
2013    14      4       0.4521562       103.7188
2013    14      5       0.4949263       110.6724
2013    14      6       0.5104758       112.9446
2013    14      7       0.486805        108.9988
2013    15      0       0.6459406       133.4668
2013    15      1       0.7840132       151.1992
2013    15      2       0.960553        171.6198
2013    15      3       1.004242        175.8063
2013    15      4       0.6646348       136.0561
2013    15      5       0.5705252       122.146
2013    15      6       0.5948007       125.3225
2013    15      7       0.5627539       119.9144
2013    16      0       0.5004548       109.7877
2013    16      1       0.4187106       96.71029
2013    16      2       0.5412683       116.1081
2013    16      3       0.5705184       119.2536
2013    16      4       0.6825136       134.0304
2013    16      5       0.6809886       133.9536
2013    16      6       0.5812927       121.1584
2013    16      7       0.681152        136.1157
2013    17      0       0.8702707       160.8765
2013    17      1       1.130778        187.683
2013    17      2       0.8887665       164.3986
2013    17      3       0.7540013       148.798
2013    17      4       0.6831752       139.9575
2013    17      5       0.8213221       157.8442
2013    17      6       0.8546738       161.8997
2013    17      7       0.6723244       138.7873
2013    18      0       0.6221009       131.5173
2013    18      1       0.6289987       132.1689
2013    18      2       0.6069764       128.9497
2013    18      3       0.6147198       130.459
2013    18      4       0.6338896       133.1289
2013    18      5       0.7047513       142.9606
2013    18      6       0.6635652       137.5526
2013    18      7       0.6001427       128.481
2013    19      0       0.5629935       123.0675
2013    19      1       0.465346        107.6006
2013    19      2       0.4894648       111.2152
2013    19      3       0.6954719       140.5153
2013    19      4       0.8297466       158.0124
2013    19      5       0.8399908       160.5289
2013    19      6       1.028055        181.2721
2013    19      7       0.5214409       115.3246
2013    20      0       0.5768837       123.2583
2013    20      1       1.408129        209.7395
2013    20      2       1.232057        198.5886
2013    20      3       0.785703        152.1956
2013    20      4       0.7822071       151.6447
2013    20      5       0.6342905       132.2619
2013    20      6       0.5025302       112.0111
2013    20      7       0.4525143       103.5429
2013    21      0       0.4532245       103.5888
2013    21      1       0.2365125       61.91503
2013    21      2       0.1604421       44.94074
2013    21      3       0.3050026       76.29498
2013    21      4       0.2468851       64.45786
2013    21      5       0.2437457       63.79106
2013    21      6       0.244943        64.08656
2013    21      7       0.2381573       62.79212
2013    22      0       0.2129462       57.4207
2013    22      1       0.1958185       53.78685
2013    22      2       0.1901095       52.52885
2013    22      3       0.1901362       52.36181
2013    22      4       0.258306        67.26338
2013    22      5       0.3598063       87.70353
2013    22      6       0.4086374       96.79637
2013    22      7       0.3884943       92.91147
2013    23      0       0.3512966       85.6154
2013    23      1       0.2766245       70.54549
2013    23      2       0.2503367       65.03659
2013    23      3       0.3847305       92.2351
2013    23      4       0.3829127       91.6964
2013    23      5       0.4420681       102.9295
2013    23      6       0.5797384       126.3979
2013    23      7       0.532119        119.2629
2013    24      0       0.4295753       101.7019
2013    24      1       0.3994853       96.04507
2013    24      2       0.4262068       101.1038
2013    24      3       0.4522256       106.1153
2013    24      4       0.4559269       106.4639
2013    24      5       0.4427718       103.8343
2013    24      6       0.4952856       112.3234
2013    24      7       0.5057681       113.8496
2013    25      0       0.4509746       103.694
2013    25      1       0.4786239       107.2362
2013    25      2       0.6551881       136.3998
2013    25      3       0.5771771       125.9386
2013    25      4       0.4865163       110.835
2013    25      5       0.4956411       112.3667
2013    25      6       0.3992184       95.06146
2013    25      7       0.3707398       88.98106
2013    26      0       0.2946841       74.04041
2013    26      1       0.2273709       60.23606
2013    26      2       0.1777202       49.08451
2013    26      3       0.3012169       75.85634
2013    26      4       0.2978639       75.23699
2013    26      5       0.2973755       74.49796
2013    26      6       0.5173882       114.8498
2013    26      7       0.6500607       134.8936
2013    27      0       0.7114413       142.7957
2013    27      1       0.8469728       159.5677
2013    27      2       0.8814426       163.4068
2013    27      3       0.7425627       146.7939
2013    27      4       0.4773144       108.0654
2013    27      5       0.526848        115.9701
2013    27      6       0.6885794       139.4412
2013    27      7       0.8283557       157.2339
2013    28      0       0.7744564       149.8793
2013    28      1       0.565003        120.5118
2013    28      2       0.4762879       106.8465
2013    28      3       0.4445682       101.9699
2013    28      4       0.3755169       89.70177
2013    28      5       0.3420355       83.51717
2013    28      6       0.3166786       78.76626
2013    28      7       0.2778361       71.01406
2013    29      0       0.2455478       64.20657
2013    29      1       0.261876        67.50945
2013    29      2       0.3065149       76.64961
2013    29      3       0.3491793       85.22249
2013    29      4       0.3660056       88.60426
2013    29      5       0.400974        94.96376
2013    29      6       0.422628        98.90356
2013    29      7       0.4712853       107.4158
2013    30      0       0.4812698       108.945
2013    30      1       0.5859519       125.5731
2013    30      2       0.5877523       125.6125
2013    30      3       0.639605        133.0612
2013    30      4       0.5282146       116.1378
2013    30      5       0.5923589       125.8283
2013    30      6       0.6980818       141.1143
2013    30      7       0.6312821       131.9724
2014    1       0       0.5732131       122.5879
2014    1       1       0.4946037       110.4523
2014    1       2       0.5369414       117.251
2014    1       3       0.6801928       137.912
2014    1       4       0.7493516       146.7979
2014    1       5       0.9037905       164.827
2014    1       6       1.067111        181.8217
2014    1       7       0.9041179       165.093
2014    2       0       0.8252799       156.3901
2014    2       1       0.697366        140.9756
2014    2       2       0.5971157       127.1525
2014    2       3       0.7048473       142.8781
2014    2       4       1.231995        196.644
2014    2       5       1.121674        188.054
2014    2       6       1.103247        185.5401
2014    2       7       1.137621        187.8832
2014    3       0       1.136996        188.707
2014    3       1       0.6945298       140.7014
2014    3       2       1.365576        209.5275
2014    3       3       1.638211        224.1892
2014    3       4       1.765803        230.0604
2014    3       5       1.729583        228.4299
2014    3       6       1.159098        190.5507
2014    3       7       0.4452587       101.6063
2014    4       0       0.5356454       115.4367
2014    4       1       0.5481676       116.7268
2014    4       2       0.835002        154.7319
2014    4       3       1.010814        173.5781
2014    4       4       0.9420523       169.766
2014    4       5       0.7257937       145.3913
2014    4       6       0.7321822       145.9948
2014    4       7       0.670086        138.8959
2014    5       0       0.573249        124.9031
2014    5       1       0.4935338       111.9014
2014    5       2       0.4541456       105.5218
2014    5       3       0.4745461       109.2214
2014    5       4       0.4240019       99.83288
2014    5       5       0.4354256       101.8087
2014    5       6       0.4226177       99.80337
2014    5       7       0.4149658       98.62105
2014    6       0       0.4228924       99.87399
2014    6       1       0.4134684       97.99661
2014    6       2       0.4064169       96.50767
2014    6       3       0.3945383       94.50808
2014    6       4       0.3894668       93.48188
2014    6       5       0.4166731       98.33199
2014    6       6       0.4312062       100.9628
2014    6       7       0.4355612       101.8664
2014    7       0       0.4010756       95.66638
2014    7       1       0.4299362       100.4503
2014    7       2       0.4098959       96.88464
2014    7       3       0.4049096       96.43441
2014    7       4       0.4238974       100.0215
2014    7       5       0.4327145       101.5087
2014    7       6       0.3565133       87.5292
2014    7       7       0.2471474       64.82856
2014    8       0       0.1791487       49.75787
2014    8       1       0.1530218       43.78986
2014    8       2       0.2113278       56.89394
2014    8       3       0.2706995       69.33829
2014    8       4       0.4286176       98.05753
2014    8       5       0.5796873       122.9704
2014    8       6       0.4846948       107.6452
2014    8       7       0.6791998       136.4914
2014    9       0       0.5927328       124.6348
2014    9       1       0.5613775       120.2936
2014    9       2       0.7071014       141.4065
2014    9       3       0.8183299       155.7298
2014    9       4       1.180146        192.4946
2014    9       5       1.177709        192.9973
2014    9       6       0.8399607       159.7867
2014    9       7       0.6541356       136.1808
2014    10      0       0.6385815       134.0559
2014    10      1       0.5642035       122.8412
2014    10      2       0.4900948       110.6365
2014    10      3       0.4477424       103.4884
2014    10      4       0.3230069       80.21573
2014    10      5       0.3069072       77.06579
2014    10      6       0.3686925       89.137
2014    10      7       0.4652473       106.1515
2014    11      0       0.5361754       117.703
2014    11      1       0.7291593       144.9398
2014    11      2       1.03778         180.0597
2014    11      3       0.7897646       154.5833
2014    11      4       0.7425618       149.1253
2014    11      5       0.8606636       163.1539
2014    11      6       0.9039226       167.7618
2014    11      7       1.422733        210.9369
2014    12      0       1.563093        219.8237
2014    12      1       1.400493        209.3224
2014    12      2       1.239106        196.4577
2014    12      3       0.6759225       137.3097
2014    12      4       0.4081309       95.34333
2014    12      5       0.8218199       153.3141
2014    12      6       1.226907        192.7471
2014    12      7       1.212629        193.0631
2014    13      0       1.079059        182.0163
2014    13      1       0.9822449       172.3876
2014    13      2       0.7580887       147.0426
2014    13      3       0.6327664       130.4771
2014    13      4       0.5638223       120.3829
2014    13      5       0.5296829       115.1046
2014    13      6       0.484648        107.8384
2014    13      7       0.4168617       96.67361
2014    14      0       0.426431        98.46988
2014    14      1       0.4302138       98.98405
2014    14      2       0.3893268       91.35992
2014    14      3       0.3671756       87.19002
2014    14      4       0.303071        75.32476
2014    14      5       0.264236        67.53239
2014    14      6       0.166724        46.20971
2014    14      7       0.7775508       152.0009
2014    15      0       0.3245847       77.85734
2014    15      1       0.4364194       97.14317
2014    15      2       0.4773491       103.5091
2014    15      3       0.3372488       80.77494
2014    15      4       0.3047126       74.55946
2014    15      5       0.3129761       76.10581
2014    15      6       0.3534655       83.67404
2014    15      7       0.2500401       63.45724
2014    16      0       0.171546        46.8178
2014    16      1       0.1685084       46.33962
2014    16      2       0.147177        41.47526
2014    16      3       0.2362629       61.1265
2014    16      4       0.2366777       61.49781
2014    16      5       0.2373758       61.70447
2014    16      6       0.264071        67.25036
2014    16      7       0.1907627       51.30133
2014    17      0       0.1552963       43.07209
2014    17      1       0.1463183       40.66576
2014    17      2       0.1709841       46.20528
2014    17      3       0.2764814       69.23389
2014    17      4       0.2936554       73.10101
2014    17      5       0.3125743       77.16124
2014    17      6       0.3115371       77.341
2014    17      7       0.2778847       70.76888
2014    18      0       0.2605127       67.34284
2014    18      1       0.2748855       70.19594
2014    18      2       0.2700722       69.12631
2014    18      3       0.3043969       76.26266
2014    18      4       0.3375142       82.63358
2014    18      5       0.3854244       91.65218
2014    18      6       0.4090628       95.90339
2014    18      7       0.3819696       90.77288
2014    19      0       0.3504988       84.67347
2014    19      1       0.3125948       77.18386
2014    19      2       0.2495583       64.07993
2014    19      3       0.313478        77.51083
2014    19      4       0.3500557       84.60735
2014    19      5       0.3303664       80.95274
2014    19      6       0.3888777       92.56251
2014    19      7       0.3846712       91.89631
2014    20      0       0.3781733       90.71456
2014    20      1       0.3822178       91.15541
2014    20      2       0.4391079       100.6389
2014    20      3       0.4428648       102.149
2014    20      4       0.4054894       95.85504
2014    20      5       0.4051929       95.84606
2014    20      6       0.3968104       94.48594
2014    20      7       0.3505376       85.93846
2014    21      0       0.2751568       70.62061
2014    21      1       0.1951657       53.20998
2014    21      2       0.1835895       50.61758
2014    21      3       0.2422823       63.81677
2014    21      4       0.2907615       73.94541
2014    21      5       0.3393252       83.39125
2014    21      6       0.3657182       88.10079
2014    21      7       0.3753783       89.87993
2014    22      0       0.3671566       88.49575
2014    22      1       0.3293095       81.48702
2014    22      2       0.3809324       90.86551
2014    22      3       0.5221814       114.9313
2014    22      4       0.6789342       138.0482
2014    22      5       0.8168348       155.7657
2014    22      6       0.8781233       163.1891
2014    22      7       0.8471329       160.1736
2014    23      0       0.83946         159.0966
2014    23      1       0.7318689       146.0665
2014    23      2       0.599939        127.472
2014    23      3       0.5933147       126.4643
2014    23      4       0.4931328       110.9155
2014    23      5       0.5219277       115.9903
2014    23      6       0.6567973       136.129
2014    23      7       0.8659839       163.1028
2014    24      0       0.7600508       150.3012
2014    24      1       0.6465277       134.9695
2014    24      2       0.6505082       135.4348
2014    24      3       0.543972        119.7612
2014    24      4       0.5672806       123.1012
2014    24      5       0.6436134       134.1478
2014    24      6       0.705061        142.686
2014    24      7       0.709614        143.4846
2014    25      0       0.6658976       137.5976
2014    25      1       0.6531216       135.6581
2014    25      2       0.5665833       123.0146
2014    25      3       0.5426947       119.5114
2014    25      4       0.5716079       124.0927
2014    25      5       0.592875        127.482
2014    25      6       0.5611457       123.0653
2014    25      7       0.537539        119.7654
2014    26      0       0.4619071       107.2953
2014    26      1       0.4628185       107.1598
2014    26      2       0.6593261       136.379
2014    26      3       0.906213        167.1293
2014    26      4       0.5570364       121.6099
2014    26      5       0.4352989       101.3344
2014    26      6       0.3458504       84.16669
2014    26      7       0.1766126       48.15245
2014    27      0       0.249209        64.11642
2014    27      1       0.3863381       91.01836
2014    27      2       0.8961363       164.0424
2014    27      3       0.7788131       150.6879
2014    27      4       0.7537756       147.3856
2014    27      5       0.7240287       143.884
2014    27      6       0.6460395       133.5463
2014    27      7       0.6242275       130.2729
2014    28      0       0.5028502       111.5663
2014    28      1       0.4386932       100.5098
2014    28      2       0.4736604       106.1876
2014    28      3       0.4250952       97.90308
2014    28      4       0.4411377       100.4432
2014    28      5       0.4763472       106.5082
2014    28      6       0.4930036       109.7529
2014    28      7       0.502069        111.6126
2014    29      0       0.4789399       108.0359
2014    29      1       0.4369873       100.6534
2014    29      2       0.458926        103.8239
2014    29      3       0.4886247       108.624
2014    29      4       0.4603578       104.0549
2014    29      5       0.4820478       107.8848
2014    29      6       0.4615559       105.3719
2014    29      7       0.4238716       99.64956
2014    30      0       0.3618569       88.33967
2014    30      1       0.3270759       81.32604
2014    30      2       0.3407415       84.10953
2014    30      3       0.3104452       78.1677
2014    30      4       0.2851244       72.85509
2014    30      5       0.2755048       70.77726
2014    30      6       0.3118757       78.38515
2014    30      7       0.4265944       100.7314
2015    1       0       0.8562423       159.54
2015    1       1       0.8279711       155.9191
2015    1       2       0.7986778       151.9107
2015    1       3       0.5792981       122.3032
2015    1       4       0.6561733       131.6575
2015    1       5       0.9159952       161.8115
2015    1       6       0.7472252       143.4373
2015    1       7       0.5451246       115.6252
2015    2       0       0.2645968       66.22873
2015    2       1       0.2775004       68.38936
2015    2       2       0.3281341       78.36911
2015    2       3       0.3623988       85.28898
2015    2       4       0.2911774       72.03584
2015    2       5       0.3187724       77.57938
2015    2       6       0.3375834       81.039
2015    2       7       0.1852297       49.75944
2015    3       0       0.1688892       46.02647
2015    3       1       0.1779114       48.08485
2015    3       2       0.1749072       47.47196
2015    3       3       0.2480564       63.45714
2015    3       4       0.2315476       60.28403
2015    3       5       0.234397        60.95565
2015    3       6       0.2383124       61.96713
2015    3       7       0.220153        58.03862
2015    4       0       0.1930955       51.88643
2015    4       1       0.196729        52.50159
2015    4       2       0.2038384       54.05707
2015    4       3       0.2410946       62.11279
2015    4       4       0.2211445       57.77019
2015    4       5       0.1917797       51.79727
2015    4       6       0.2495514       64.66053
2015    4       7       0.2010902       52.89859
2015    5       0       0.2760134       68.71919
2015    5       1       0.4627765       102.6778
2015    5       2       0.6569643       132.8715
2015    5       3       0.6324492       129.9014
2015    5       4       0.689974        137.6235
2015    5       5       0.7001269       139.6947
2015    5       6       0.6747033       136.7447
2015    5       7       0.6930616       138.8248
2015    6       0       0.7679393       149.1872
2015    6       1       0.8061343       154.4419
2015    6       2       1.155193        188.6044
2015    6       3       1.078083        181.3267
2015    6       4       0.7741841       149.9868
2015    6       5       0.564049        122.4269
2015    6       6       0.2777288       70.7645
2015    6       7       0.1930799       51.90947
2015    7       0       0.2024539       52.72751
2015    7       1       0.2177464       55.45979
2015    7       2       0.3807341       86.35675
2015    7       3       0.3945414       90.80794
2015    7       4       0.2828755       70.9008
2015    7       5       0.3267707       80.01275
2015    7       6       0.3891326       91.66305
2015    7       7       0.4356474       100.0235
2015    8       0       0.4646972       104.3283
2015    8       1       0.45306         102.5425
2015    8       2       0.4480365       101.3661
2015    8       3       0.5676709       121.3394
2015    8       4       0.5038792       111.8845
2015    8       5       0.5172322       114.7023
2015    8       6       0.6005823       127.7767
2015    8       7       0.6980963       141.4517
2015    9       0       0.7648013       149.6932
2015    9       1       0.7521926       148.3778
2015    9       2       0.7561561       149.3389
2015    9       3       0.6780079       139.0661
2015    9       4       0.6071862       128.598
2015    9       5       0.5343313       117.3062
2015    9       6       0.4680211       106.6203
2015    9       7       0.4652027       105.5373
2015    10      0       0.4730011       106.4764
2015    10      1       0.4014559       93.86189
2015    10      2       0.3572847       84.92685
2015    10      3       0.4539243       103.1147
2015    10      4       0.42769         98.01172
2015    10      5       0.467523        104.2046
2015    10      6       0.4666932       104.3929
2015    10      7       0.4706775       105.0429
2015    11      0       0.4452879       100.9175
2015    11      1       0.4644336       104.244
2015    11      2       0.4752768       106.2574
2015    11      3       0.5611709       119.9773
2015    11      4       0.5379099       115.7253
2015    11      5       0.6159738       127.0709
2015    11      6       0.6318014       129.5389
2015    11      7       0.530898        115.4274
2015    12      0       0.4731389       105.9095
2015    12      1       0.4099104       94.68841
2015    12      2       0.2665353       67.51892
2015    12      3       0.2845806       71.69451
2015    12      4       0.2361953       61.48834
2015    12      5       0.2403044       62.1766
2015    12      6       0.2776164       69.64057
2015    12      7       0.3356129       81.09562
2015    13      0       0.3404716       81.34943
2015    13      1       0.3461128       81.87745
2015    13      2       0.2939365       72.34855
2015    13      3       0.2708453       68.92646
2015    13      4       0.2305212       60.22889
2015    13      5       0.2691489       68.40308
2015    13      6       0.3566831       85.91096
2015    13      7       0.3193254       78.7509
2015    14      0       0.3701461       88.31182
2015    14      1       0.3198081       78.60591
2015    14      2       0.2944651       73.41268
2015    14      3       0.2629627       67.05167
2015    14      4       0.219885        57.96246
2015    14      5       0.2379666       61.8556
2015    14      6       0.2931038       73.10503
2015    14      7       0.4425192       100.8979
2015    15      0       0.3825269       89.79777
2015    15      1       0.3662435       86.53827
2015    15      2       0.3034287       74.51331
2015    15      3       0.3492883       84.35094
2015    15      4       0.2866018       72.53784
2015    15      5       0.2688295       69.07351
2015    15      6       0.2937222       74.22039
2015    15      7       0.2284311       60.58077
2015    16      0       0.1591556       45.01276
2015    16      1       0.1471016       42.11559
2015    16      2       0.1357961       39.41823
2015    16      3       0.165036        46.4404
2015    16      4       0.1598051       45.13229
2015    16      5       0.1576635       44.57919
2015    16      6       0.1656086       46.40632
2015    16      7       0.1834477       50.68835
2015    17      0       0.1790841       49.4217
2015    17      1       0.211288        56.15361
2015    17      2       0.2353819       61.24524
2015    17      3       0.2697836       68.60666
2015    17      4       0.2428747       62.86956
2015    17      5       0.1978274       52.90906
2015    17      6       0.5373251       118.3136
2015    17      7       0.7228099       144.7127
2015    18      0       0.5158071       113.8529
2015    18      1       0.2374916       61.29693
2015    18      2       0.1581865       43.05901
2015    18      3       0.2806129       70.07625
2015    18      4       0.2346325       60.91001
2015    18      5       0.2240683       58.92345
2015    18      6       0.2182336       57.90569
2015    18      7       0.2352974       61.69638
2015    19      0       0.2363666       61.90485
2015    19      1       0.2463849       63.90409
2015    19      2       0.2562395       66.04824
2015    19      3       0.3282309       80.84345
2015    19      4       0.3636915       87.43018
2015    19      5       0.322306        79.91837
2015    19      6       0.3052121       76.59382
2015    19      7       0.1988028       53.26273
2015    20      0       0.2136453       56.27852
2015    20      1       0.3122832       76.88342
2015    20      2       0.4726987       106.3347
2015    20      3       0.5538488       119.9518
2015    20      4       0.4223878       98.36562
2015    20      5       0.4289904       98.84996
2015    20      6       0.4133903       94.59801
2015    20      7       0.4990889       108.4727
2015    21      0       0.6913145       135.8886
2015    21      1       0.6569775       130.4278
2015    21      2       0.7240331       138.8338
2015    21      3       0.5856378       120.3091
2015    21      4       0.4678482       102.6111
2015    21      5       0.4026237       92.3029
2015    21      6       0.3314756       79.86419
2015    21      7       0.3663851       87.02271
2015    22      0       0.2605367       65.69623
2015    22      1       0.2665922       67.11706
2015    22      2       0.2688253       67.43152
2015    22      3       0.2787272       69.70768
2015    22      4       0.2599753       65.95369
2015    22      5       0.2917572       72.68337
2015    22      6       0.3709111       88.44972
2015    22      7       0.4198615       97.95739
2015    23      0       0.3750497       89.81343
2015    23      1       0.4242936       98.99161
2015    23      2       0.428671        99.79527
2015    23      3       0.4555694       104.5963
2015    23      4       0.4648749       106.1392
2015    23      5       0.4803576       108.9815
2015    23      6       0.5108479       114.4845
2015    23      7       0.5116765       114.9904
2015    24      0       0.4834817       110.3525
2015    24      1       0.3948161       94.99927
2015    24      2       0.3655665       89.20555
2015    24      3       0.4543275       104.5787
2015    24      4       0.4870368       109.404
2015    24      5       0.4114097       95.23243
2015    24      6       0.3968277       93.90065
2015    24      7       0.4705943       108.2528
2015    25      0       0.4711085       108.4161
2015    25      1       0.4564112       105.8001
2015    25      2       0.4050124       96.6829
2015    25      3       0.4402252       102.6757
2015    25      4       0.557023        121.5924
2015    25      5       0.6241709       130.974
2015    25      6       0.5384841       117.9441
2015    25      7       0.4873328       109.4065
2015    26      0       0.3262946       79.91129
2015    26      1       0.2139099       56.63938
2015    26      2       0.2217573       58.10643
2015    26      3       0.3868923       91.31266
2015    26      4       0.5614539       120.7235
2015    26      5       0.7797619       150.8119
2015    26      6       0.6091504       128.3209
2015    26      7       0.2876161       72.78154
2015    27      0       0.1132474       33.80313
2015    27      1       0.1000716       30.37482
2015    27      2       0.08132197      25.28904
2015    27      3       0.1599887       44.49564
2015    27      4       0.1752051       48.13634
2015    27      5       0.1897859       51.41316
2015    27      6       0.2218179       58.42671
2015    27      7       0.2201448       58.02857
2015    28      0       0.1915258       51.48653
2015    28      1       0.1996401       53.00636
2015    28      2       0.1861031       50.3143
2015    28      3       0.2072478       55.03596
2015    28      4       0.2345723       60.71909
2015    28      5       0.2451828       63.03657
2015    28      6       0.267182        67.47556
2015    28      7       0.3110622       76.18836
2015    29      0       0.3278352       79.57517
2015    29      1       0.3382349       81.16548
2015    29      2       0.3405027       81.57178
2015    29      3       0.3666137       86.68955
2015    29      4       0.3723256       88.16781
2015    29      5       0.3884048       91.26639
2015    29      6       0.4523429       103.0472
2015    29      7       0.5484425       119.5031
2015    30      0       0.4623995       105.9645
2015    30      1       0.3024014       76.63854
2015    30      2       0.2456259       64.97584
2015    30      3       0.2763857       71.70009
2015    30      4       0.2658039       69.5332
2015    30      5       0.2779969       71.99479
2015    30      6       0.3239975       81.46638
2015    30      7       0.3455986       85.84822
2016    1       0       0.3455452       84.7247
2016    1       1       0.3286932       81.22484
2016    1       2       0.3235042       79.61218
2016    1       3       0.4164046       97.32288
2016    1       4       0.4096413       95.91865
2016    1       5       0.4155939       97.42829
2016    1       6       0.4505848       103.8084
2016    1       7       0.4727148       107.5163
2016    2       0       0.4971466       111.0946
2016    2       1       0.5346091       116.8826
2016    2       2       0.5841621       124.2685
2016    2       3       0.6689123       136.5151
2016    2       4       0.6102043       128.6338
2016    2       5       0.6761579       138.1468
2016    2       6       0.7485657       148.8117
2016    2       7       0.6902267       141.715
2016    3       0       0.5812247       124.9723
2016    3       1       0.5496597       118.546
2016    3       2       0.6617494       133.5687
2016    3       3       0.7217091       142.8923
2016    3       4       0.7062791       141.4219
2016    3       5       0.6358531       132.2184
2016    3       6       0.5315476       116.5411
2016    3       7       0.4655446       105.5533
2016    4       0       0.452255        103.297
2016    4       1       0.5299478       116.5904
2016    4       2       0.6593558       135.757
2016    4       3       0.7940356       153.6357
2016    4       4       0.6463644       134.8713
2016    4       5       0.5299998       117.2324
2016    4       6       0.4704158       106.7542
2016    4       7       0.3517645       84.71447
2016    5       0       0.3364749       80.91981
2016    5       1       0.3020233       73.92778
2016    5       2       0.2873882       71.30414
2016    5       3       0.3571629       85.27691
2016    5       4       0.3128517       76.40076
2016    5       5       0.2863278       71.22302
2016    5       6       0.3065964       75.34499
2016    5       7       0.3493704       83.68269
2016    6       0       0.4263748       98.04784
2016    6       1       0.307449        76.0959
2016    6       2       0.2927815       73.00931
2016    6       3       0.3444485       83.53342
2016    6       4       0.3032602       75.78681
2016    6       5       0.3286823       80.72596
2016    6       6       0.3268343       81.025
2016    6       7       0.3354525       82.89958
2016    7       0       0.320825        80.02445
2016    7       1       0.3304584       81.88373
2016    7       2       0.3332712       82.21933
2016    7       3       0.3645148       88.18701
2016    7       4       0.3469761       85.0646
2016    7       5       0.3429454       84.32424
2016    7       6       0.3685562       88.94462
2016    7       7       0.3613775       87.4635
2016    8       0       0.3768615       89.99871
2016    8       1       0.462212        103.5046
2016    8       2       0.5747698       120.5685
2016    8       3       0.6901268       138.0787
2016    8       4       0.7614482       147.4396
2016    8       5       0.8891102       163.2126
2016    8       6       1.02798         177.3109
2016    8       7       0.8495313       159.918
2016    9       0       0.7787245       151.8679
2016    9       1       0.7214758       144.5931
2016    9       2       0.6660143       136.9483
2016    9       3       0.6174326       130.1072
2016    9       4       0.6007591       127.6598
2016    9       5       0.547199        119.786
2016    9       6       0.5780825       125.2772
2016    9       7       0.514886        115.3633
2016    10      0       0.4824672       109.5566
2016    10      1       0.5067537       113.4499
2016    10      2       0.6033068       128.4232
2016    10      3       0.7522084       148.3457
2016    10      4       0.7961107       153.5478
2016    10      5       0.717195        143.8432
2016    10      6       0.6642916       137.253
2016    10      7       0.6979839       142.3129
2016    11      0       0.6171329       130.797
2016    11      1       0.527431        116.619
2016    11      2       0.5560818       120.8817
2016    11      3       0.5218234       115.569
2016    11      4       0.5004226       111.9037
2016    11      5       0.5109204       113.6149
2016    11      6       0.5131253       113.6981
2016    11      7       0.451683        103.5624
2016    12      0       0.3857992       91.81226
2016    12      1       0.2393873       62.56623
2016    12      2       0.2369816       62.14782
2016    12      3       0.2885795       72.89999
2016    12      4       0.3312962       81.65389
2016    12      5       0.3660043       88.55582
2016    12      6       0.3759499       90.36952
2016    12      7       0.4010303       94.7192
2016    13      0       0.3497827       84.94703
2016    13      1       0.2567373       66.03429
2016    13      2       0.2204907       58.23715
2016    13      3       0.2966188       74.19083
2016    13      4       0.2536989       65.64305
2016    13      5       0.2612382       67.37636
2016    13      6       0.2943406       74.25794
2016    13      7       0.1879539       51.72799
2016    14      0       0.1464233       42.02583
2016    14      1       0.1490642       42.63466
2016    14      2       0.1551449       44.09054
2016    14      3       0.2094182       56.4596
2016    14      4       0.2561631       66.72969
2016    14      5       0.2761079       70.98133
2016    14      6       0.291387        74.28797
2016    14      7       0.270184        69.93371
2016    15      0       0.1862929       51.53575
2016    15      1       0.1720643       48.21071
2016    15      2       0.1784032       49.44191
2016    15      3       0.1839707       50.83069
2016    15      4       0.201712        54.65037
2016    15      5       0.2516907       65.31926
2016    15      6       0.2783669       70.72661
2016    15      7       0.2574123       66.37883
2016    16      0       0.2347258       61.2626
2016    16      1       0.228245        59.31873
2016    16      2       0.2477902       62.90303
2016    16      3       0.2887107       71.99558
2016    16      4       0.2996531       74.8043
2016    16      5       0.3711106       88.59269
2016    16      6       0.4145042       96.93084
2016    16      7       0.4708387       106.8435
2016    17      0       0.6054455       128.5496
2016    17      1       0.7670188       150.4692
2016    17      2       0.9328259       169.2463
2016    17      3       0.6906642       140.2763
2016    17      4       0.7439541       146.8714
2016    17      5       0.8162539       155.2436
2016    17      6       0.6362138       132.0773
2016    17      7       0.4169921       97.40884
2016    18      0       0.1293115       37.71924
2016    18      1       0.06522874      21.69337
2016    18      2       0.07005953      22.89161
2016    18      3       0.1435024       41.0969
2016    18      4       0.1548841       43.75331
2016    18      5       0.1774891       48.97483
2016    18      6       0.1928391       52.62283
2016    18      7       0.1862069       51.22593
2016    19      0       0.1198506       35.56474
2016    19      1       0.1083383       32.71936
2016    19      2       0.1361943       39.48312
2016    19      3       0.2260905       60.09755
2016    19      4       0.2240648       59.57962
2016    19      5       0.2368131       62.18785
2016    19      6       0.2732179       70.06773
2016    19      7       0.2387294       62.94451
2016    20      0       0.2146454       57.692
2016    20      1       0.22081         58.57054
2016    20      2       0.2359778       61.77302
2016    20      3       0.3188967       78.49991
2016    20      4       0.375198        88.92357
2016    20      5       0.4643272       103.8972
2016    20      6       0.5407057       116.251
2016    20      7       0.5970847       125.502
2016    21      0       0.7177662       142.14
2016    21      1       0.5980491       125.7579
2016    21      2       0.654181        133.3471
2016    21      3       0.5820198       122.57
2016    21      4       0.7197165       144.1993
2016    21      5       0.5638656       121.8523
2016    21      6       0.5139503       114.4303
2016    21      7       0.5012474       112.4609
2016    22      0       0.4543032       104.3761
2016    22      1       0.6156766       129.394
2016    22      2       0.7802918       151.1868
2016    22      3       1.216669        195.8119
2016    22      4       1.479469        213.915
2016    22      5       1.273062        201.0497
2016    22      6       1.085564        186.1407
2016    22      7       1.043652        181.8129
2016    23      0       1.380462        207.776
2016    23      1       1.370209        207.3027
2016    23      2       1.207586        196.6484
2016    23      3       1.302614        204.0309
2016    23      4       1.059739        183.3357
2016    23      5       0.6690757       138.5088
2016    23      6       0.6316982       132.5098
2016    23      7       0.4712712       107.3572
2016    24      0       0.4576741       104.9112
2016    24      1       0.3491481       84.89437
2016    24      2       0.1837699       50.24046
2016    24      3       0.3220051       79.78353
2016    24      4       0.3197009       79.1977
2016    24      5       0.368071        88.6315
2016    24      6       0.4906625       109.9815
2016    24      7       0.520042        115.0615
2016    25      0       0.4701944       107.0011
2016    25      1       0.425224        99.03374
2016    25      2       0.4010156       94.29117
2016    25      3       0.4756165       107.3261
2016    25      4       0.4617858       104.986
2016    25      5       0.4294922       99.72205
2016    25      6       0.4157997       97.62144
2016    25      7       0.4126791       97.54434
2016    26      0       0.4278486       99.9869
2016    26      1       0.4387185       101.3609
2016    26      2       0.4821367       107.7412
2016    26      3       0.5450424       117.6986
2016    26      4       0.5342555       116.3594
2016    26      5       0.5389663       117.5628
2016    26      6       0.5520529       119.854
2016    26      7       0.5688513       123.1115
2016    27      0       0.5251583       116.6502
2016    27      1       0.4714213       108.0128
2016    27      2       0.4624004       106.6655
2016    27      3       0.4370805       102.4493
2016    27      4       0.5541889       123.3877
2016    27      5       0.3884361       94.30619
2016    27      6       0.3703221       91.03654
2016    27      7       0.2921492       75.37526
2016    28      0       0.2212869       59.84747
2016    28      1       0.1659164       46.87954
2016    28      2       0.1489599       42.70385
2016    28      3       0.2498875       66.02821
2016    28      4       0.2444847       64.87055
2016    28      5       0.2861081       74.03121
2016    28      6       0.3291434       82.69769
2016    28      7       0.3723069       90.93014
2016    29      0       0.3154466       79.39812
2016    29      1       0.3054951       77.31182
2016    29      2       0.230249        61.61938
2016    29      3       0.3333385       83.47758
2016    29      4       0.3073503       78.00235
2016    29      5       0.2727539       70.84268
2016    29      6       0.227133        60.91695
2016    29      7       0.1939684       53.56486
2016    30      0       0.1716983       48.28273
2016    30      1       0.1745353       48.51874
2016    30      2       0.1567753       44.08963
2016    30      3       0.2201152       58.96007
2016    30      4       0.2030317       55.22409
2016    30      5       0.2039451       55.49659
2016    30      6       0.218162        58.90813
2016    30      7       0.2911251       74.78003
2017    1       0       1.115294        189.7328
2017    1       1       1.085239        186.5992
2017    1       2       1.118209        189.6483
2017    1       3       1.126502        190.8211
2017    1       4       1.216241        198.0953
2017    1       5       1.299127        204.848
2017    1       6       1.207695        198.2036
2017    1       7       1.144803        192.7861
2017    2       0       1.100423        187.426
2017    2       1       1.234188        200.3989
2017    2       2       0.7235951       144.9872
2017    2       3       0.8323073       158.6168
2017    2       4       0.7385691       147.566
2017    2       5       0.7737746       151.9539
2017    2       6       0.8150375       156.7556
2017    2       7       0.5957337       127.4434
2017    3       0       0.6261684       132.0186
2017    3       1       0.7861045       152.5403
2017    3       2       0.8442892       161.3417
2017    3       3       1.256883        200.9754
2017    3       4       1.219284        198.6182
2017    3       5       1.118433        190.0326
2017    3       6       0.7661642       152.2802
2017    3       7       0.5795314       125.2004
2017    4       0       0.3597996       86.84151
2017    4       1       0.3021552       74.45785
2017    4       2       0.3093628       75.4484
2017    4       3       0.3821124       89.14637
2017    4       4       0.4414301       99.69738
2017    4       5       0.4030542       93.60826
2017    4       6       0.3713282       88.19743
2017    4       7       0.3657738       87.62143
2017    5       0       0.3390495       82.73662
2017    5       1       0.2941487       73.18668
2017    5       2       0.2570151       65.77544
2017    5       3       0.3231012       80.22626
2017    5       4       0.3169585       79.21221
2017    5       5       0.3661399       89.15878
2017    5       6       0.4098543       97.63394
2017    5       7       0.3729475       90.8181
2017    6       0       0.3360308       83.47388
2017    6       1       0.2693844       69.51503
2017    6       2       0.1933615       52.46647
2017    6       3       0.2430832       63.71391
2017    6       4       0.3371346       83.49531
2017    6       5       0.3253362       81.10543
2017    6       6       0.3222664       80.32528
2017    6       7       0.2128854       57.1418
2017    7       0       0.1183088       34.79466
2017    7       1       0.09544793      29.01933
2017    7       2       0.09966607      29.95705
2017    7       3       0.1359841       38.94654
2017    7       4       0.2382755       62.56486
2017    7       5       0.2995359       75.60216
2017    7       6       0.3221732       80.00887
2017    7       7       0.1720402       47.72725
2017    8       0       0.1655743       46.20933
2017    8       1       0.1745924       48.1069
2017    8       2       0.2138388       56.68752
2017    8       3       0.3266229       79.27437
2017    8       4       0.3698488       87.61078
2017    8       5       0.4009959       93.50225
2017    8       6       0.4573858       103.2625
2017    8       7       0.6747098       134.6576
2017    9       0       0.5940762       123.7857
2017    9       1       0.4425999       100.5738
2017    9       2       0.3449371       83.17919
2017    9       3       0.3613678       86.32992
2017    9       4       0.3860025       90.58356
2017    9       5       0.43985         100.2595
2017    9       6       0.5117533       112.8368
2017    9       7       0.4312882       99.34582
2017    10      0       0.3546695       85.5511
2017    10      1       0.3218699       79.58693
2017    10      2       0.2966756       74.92989
2017    10      3       0.3454001       84.86913
2017    10      4       0.3843807       92.08082
2017    10      5       0.4221016       99.11701
2017    10      6       0.4535141       104.7012
2017    10      7       0.4556273       104.9428
2017    11      0       0.4500354       103.5157
2017    11      1       0.4949271       110.2602
2017    11      2       0.46476         105.4744
2017    11      3       0.4297837       99.90385
2017    11      4       0.4310537       100.205
2017    11      5       0.4404928       102.2973
2017    11      6       0.4430066       103.0116
2017    11      7       0.3799315       91.43189
2017    12      0       0.3457102       84.98196
2017    12      1       0.2562262       66.45933
2017    12      2       0.2874214       72.7664
2017    12      3       0.4503236       103.9467
2017    12      4       0.5260813       116.6728
2017    12      5       0.58485         125.6379
2017    12      6       0.5779388       124.4969
2017    12      7       0.538355        117.9522
2017    13      0       0.5677424       121.8829
2017    13      1       0.561869        120.5268
2017    13      2       0.2919339       71.42902
2017    13      3       0.4322211       99.73303
2017    13      4       0.3545544       86.07287
2017    13      5       0.3892749       92.41837
2017    13      6       0.4569017       102.6004
2017    13      7       0.3897948       90.94939
2017    14      0       0.6219986       128.6808
2017    14      1       0.8295889       154.4431
2017    14      2       0.8652987       157.5339
2017    14      3       0.9132259       163.8642
2017    14      4       0.7420372       144.0083
2017    14      5       1.018401        173.6058
2017    14      6       1.013967        172.3551
2017    14      7       0.7628699       144.0116
2017    15      0       0.6776136       132.6635
2017    15      1       0.8495668       153.8783
2017    15      2       0.9037837       159.1454
2017    15      3       0.9181644       160.7524
2017    15      4       0.8538705       154.2155
2017    15      5       0.7602905       143.8938
2017    15      6       0.4998888       108.7762
2017    15      7       0.6526445       131.2934
2017    16      0       0.55125         117.0039
2017    16      1       0.53354         114.545
2017    16      2       0.5228799       113.0065
2017    16      3       0.4824303       106.5874
2017    16      4       0.3462851       82.77989
2017    16      5       0.3609077       85.19149
2017    16      6       0.3817306       88.99958
2017    16      7       0.3394568       81.41526
2017    17      0       0.2953761       72.98225
2017    17      1       0.2846163       70.86366
2017    17      2       0.3183925       77.31944
2017    17      3       0.2952652       73.33463
2017    17      4       0.3023569       74.59511
2017    17      5       0.2963886       73.75787
2017    17      6       0.313441        77.15586
2017    17      7       0.3214879       78.46203
2017    18      0       0.3022494       73.5152
2017    18      1       0.2522229       62.29623
2017    18      2       0.2506778       62.3071
2017    18      3       0.3696036       86.38206
2017    18      4       0.3746705       88.33824
2017    18      5       0.3827104       90.53934
2017    18      6       0.3833227       91.1455
2017    18      7       0.3479109       84.91434
2017    19      0       0.2847335       72.43259
2017    19      1       0.2674631       68.77262
2017    19      2       0.2750739       70.19832
2017    19      3       0.2893188       73.20082
2017    19      4       0.3145714       78.15869
2017    19      5       0.3312508       81.36564
2017    19      6       0.314404        78.24857
2017    19      7       0.2969978       74.89294
2017    20      0       0.3166937       78.85345
2017    20      1       0.2118392       56.80777
2017    20      2       0.1631877       45.26815
2017    20      3       0.3425188       83.36702
2017    20      4       0.3394712       83.51015
2017    20      5       0.3818538       91.68539
2017    20      6       0.4960937       111.1594
2017    20      7       0.2852439       71.46413
2017    21      0       0.3839571       90.25367
2017    21      1       0.8536592       158.9548
2017    21      2       1.282174        198.8219
2017    21      3       0.9930898       173.0717
2017    21      4       0.7001039       138.7458
2017    21      5       0.712977        139.3991
2017    21      6       0.5861736       121.821
2017    21      7       0.3788559       88.20665
2017    22      0       0.5314971       114.0023
2017    22      1       0.2741548       68.21144
2017    22      2       0.167476        45.61407
2017    22      3       0.2403435       61.65614
2017    22      4       0.2100477       55.58609
2017    22      5       0.2196173       57.78232
2017    22      6       0.2312202       60.40131
2017    22      7       0.2425046       62.88679
2017    23      0       0.2199404       57.96498
2017    23      1       0.2093241       55.5741
2017    23      2       0.2051679       54.59236
2017    23      3       0.2181019       57.57515
2017    23      4       0.2490271       63.82161
2017    23      5       0.2599724       66.35068
2017    23      6       0.2616972       66.85829
2017    23      7       0.2630551       67.3234
2017    24      0       0.2931707       73.12241
2017    24      1       0.2647513       67.26184
2017    24      2       0.2430605       62.72583
2017    24      3       0.3155835       77.57554
2017    24      4       0.3390356       81.83827
2017    24      5       0.3928406       91.83824
2017    24      6       0.40243         94.19559
2017    24      7       0.437434        100.6674
2017    25      0       0.2696868       68.71986
2017    25      1       0.2176931       57.43485
2017    25      2       0.2447162       62.74378
2017    25      3       0.4020375       93.24246
2017    25      4       0.4602986       103.2664
2017    25      5       0.5280611       114.461
2017    25      6       0.5405289       116.0531
2017    25      7       0.4360212       99.10295
2017    26      0       0.3808741       89.30946
2017    26      1       0.337095        81.33101
2017    26      2       0.3360481       80.17667
2017    26      3       0.304791        75.21473
2017    26      4       0.2532343       65.35611
2017    26      5       0.2904901       73.63747
2017    26      6       0.3654886       88.51443
2017    26      7       0.1932914       52.87087
2017    27      0       0.1116641       33.43104
2017    27      1       0.09329395      28.84206
2017    27      2       0.08449208      26.69344
2017    27      3       0.1626336       45.8483
2017    27      4       0.1554691       44.15674
2017    27      5       0.1750194       48.56057
2017    27      6       0.1949408       53.16921
2017    27      7       0.1704377       47.70691
2017    28      0       0.1585976       44.832
2017    28      1       0.1575312       44.53986
2017    28      2       0.1819836       49.56976
2017    28      3       0.1958758       52.85953
2017    28      4       0.2116203       56.56042
2017    28      5       0.2602138       67.25286
2017    28      6       0.3901706       93.65254
2017    28      7       0.3633881       88.62661
2017    29      0       0.3235484       80.63237
2017    29      1       0.2578064       67.10546
2017    29      2       0.2288632       60.84095
2017    29      3       0.3138271       78.66608
2017    29      4       0.3101956       77.91367
2017    29      5       0.3008847       76.09972
2017    29      6       0.3337339       82.82684
2017    29      7       0.3384597       83.73977
2017    30      0       0.3215664       80.35261
2017    30      1       0.338338        83.40213
2017    30      2       0.3344016       82.81591
2017    30      3       0.3587706       87.53141
2017    30      4       0.3961029       94.65051
2017    30      5       0.4348647       101.7712
2017    30      6       0.4206933       99.73404
2017    30      7       0.369186        90.11483
2018    1       0       0.1644483       45.47708
2018    1       1       0.1392347       39.64816
2018    1       2       0.08121019      25.55595
2018    1       3       0.1814698       49.23963
2018    1       4       0.1560809       43.61441
2018    1       5       0.1607908       44.58133
2018    1       6       0.1751506       47.8253
2018    1       7       0.1657253       45.76856
2018    2       0       0.159154        44.1752
2018    2       1       0.1589937       44.238
2018    2       2       0.1618892       44.72467
2018    2       3       0.2128033       55.96878
2018    2       4       0.219326        57.23644
2018    2       5       0.2412074       61.86924
2018    2       6       0.2491947       63.78802
2018    2       7       0.2350891       60.90442
2018    3       0       0.2177481       57.18184
2018    3       1       0.2213122       57.6864
2018    3       2       0.264698        66.19538
2018    3       3       0.3358737       80.0644
2018    3       4       0.4059834       92.85074
2018    3       5       0.3934358       90.92114
2018    3       6       0.5708523       119.3031
2018    3       7       0.6495634       132.7541
2018    4       0       0.6623105       134.2236
2018    4       1       0.8104021       152.7436
2018    4       2       0.6220976       129.2056
2018    4       3       0.4645611       105.2466
2018    4       4       0.3808996       90.63739
2018    4       5       0.353737        85.03634
2018    4       6       0.4228444       97.66942
2018    4       7       0.4831578       107.8394
2018    5       0       0.4214574       97.03364
2018    5       1       0.635435        132.0661
2018    5       2       1.405429        210.3128
2018    5       3       0.7023831       139.5805
2018    5       4       0.5581114       118.4259
2018    5       5       0.3619864       85.55927
2018    5       6       0.3437714       81.50255
2018    5       7       0.202498        52.87052
2018    6       0       0.2440984       61.58238
2018    6       1       0.369213        87.20502
2018    6       2       0.594073        126.0215
2018    6       3       0.4230715       97.86327
2018    6       4       0.2677767       67.82573
2018    6       5       0.2591517       66.04362
2018    6       6       0.2979984       73.83695
2018    6       7       0.2082452       55.143
2018    7       0       0.09485242      28.7792
2018    7       1       0.08534178      26.37834
2018    7       2       0.08741478      26.99314
2018    7       3       0.1560035       43.65794
2018    7       4       0.1450428       41.18231
2018    7       5       0.1606909       44.68248
2018    7       6       0.1651702       45.85264
2018    7       7       0.1613865       45.12302
2018    8       0       0.1707734       47.04933
2018    8       1       0.1878784       50.71599
2018    8       2       0.1996629       53.1692
2018    8       3       0.1991799       53.18097
2018    8       4       0.1826217       49.92081
2018    8       5       0.1935684       52.52687
2018    8       6       0.2086488       56.05208
2018    8       7       0.2125784       57.1144
2018    9       0       0.1824305       50.3978
2018    9       1       0.1576235       44.60028
2018    9       2       0.1578522       44.48809
2018    9       3       0.1653834       46.18608
2018    9       4       0.1740762       48.18141
2018    9       5       0.186393        50.95537
2018    9       6       0.1999112       53.93673
2018    9       7       0.1938754       52.60742
2018    10      0       0.1801922       49.57545
2018    10      1       0.1748082       48.23992
2018    10      2       0.1842076       50.14612
2018    10      3       0.1862092       50.38368
2018    10      4       0.1855129       50.5066
2018    10      5       0.2276263       59.99284
2018    10      6       0.3488356       85.41347
2018    10      7       0.341796        84.05613
2018    11      0       0.3167659       79.17184
2018    11      1       0.2766319       71.04825
2018    11      2       0.2564929       66.80687
2018    11      3       0.3040273       76.85426
2018    11      4       0.3290494       81.96581
2018    11      5       0.3446184       84.9675
2018    11      6       0.3466513       85.54383
2018    11      7       0.337684        84.12373
2018    12      0       0.305229        77.84493
2018    12      1       0.240484        64.51841
2018    12      2       0.1963654       54.54944
2018    12      3       0.2913412       74.83695
2018    12      4       0.3505924       86.37805
2018    12      5       0.400078        95.52275
2018    12      6       0.4426612       103.0653
2018    12      7       0.4580095       105.4401
2018    13      0       0.5142045       114.0517
2018    13      1       0.5673424       120.6645
2018    13      2       0.4753009       105.671
2018    13      3       0.4483768       101.2422
2018    13      4       0.4122369       95.10243
2018    13      5       0.4037199       93.63951
2018    13      6       0.4245914       96.85133
2018    13      7       0.4159166       95.30766
2018    14      0       0.5183301       111.082
2018    14      1       0.3852319       89.39124
2018    14      2       0.4009912       91.19205
2018    14      3       0.3369695       81.99066
2018    14      4       0.3626517       87.09424
2018    14      5       0.395222        94.00375
2018    14      6       0.3575064       87.66081
2018    14      7       0.2979606       75.73694
2018    15      0       0.2423276       64.09793
2018    15      1       0.1479427       42.50036
2018    15      2       0.1721784       47.68941
2018    15      3       0.2920286       73.93788
2018    15      4       0.2980452       75.38287
2018    15      5       0.2958519       75.40446
2018    15      6       0.351015        86.51185
2018    15      7       0.3748357       91.14257
2018    16      0       0.3768536       91.20015
2018    16      1       0.3275443       81.4088
2018    16      2       0.3648631       88.656
2018    16      3       0.465177        107.0766
2018    16      4       0.5151016       115.5591
2018    16      5       0.6098042       130.3093
2018    16      6       0.6761062       139.6111
2018    16      7       0.6438283       135.0458
2018    17      0       0.4725441       107.4984
2018    17      1       0.3386783       82.14452
2018    17      2       0.2378985       61.71463
2018    17      3       0.3726091       89.44133
2018    17      4       0.3802001       90.18998
2018    17      5       0.3554224       85.68295
2018    17      6       0.3553181       86.0347
2018    17      7       0.3027522       76.14601
2018    18      0       0.2313894       61.22399
2018    18      1       0.2518394       65.51034
2018    18      2       0.2622912       67.66334
2018    18      3       0.3981134       94.6675
2018    18      4       0.4175644       98.17042
2018    18      5       0.4077099       96.69919
2018    18      6       0.44107         102.943
2018    18      7       0.4597545       106.3364
2018    19      0       0.3996459       95.59249
2018    19      1       0.3758569       91.19619
2018    19      2       0.3172523       80.32328
2018    19      3       0.3632502       88.72289
2018    19      4       0.35338         86.33117
2018    19      5       0.3433264       84.58837
2018    19      6       0.3281447       81.69757
2018    19      7       0.1960159       53.14739
2018    20      0       0.1536747       43.34573
2018    20      1       0.1901161       51.65711
2018    20      2       0.2743491       69.91074
2018    20      3       0.4557231       104.3442
2018    20      4       0.6064936       127.8464
2018    20      5       0.8823826       162.6142
2018    20      6       0.8101727       155.1846
2018    20      7       0.7622893       148.9691
2018    21      0       0.637204        131.8614
2018    21      1       0.543804        119.5351
2018    21      2       0.4724796       107.4883
2018    21      3       0.3554759       86.61139
2018    21      4       0.2599018       66.85395
2018    21      5       0.2769642       70.26203
2018    21      6       0.3602199       86.59959
2018    21      7       0.3024572       75.01946
2018    22      0       0.2659719       67.24835
2018    22      1       0.2561665       65.16084
2018    22      2       0.2183752       57.41024
2018    22      3       0.2969229       74.57668
2018    22      4       0.287231        72.7567
2018    22      5       0.2829712       71.97968
2018    22      6       0.3009155       75.67297
2018    22      7       0.3090516       77.24024
2018    23      0       0.2932168       74.08855
2018    23      1       0.2670445       68.76865
2018    23      2       0.2589538       67.17874
2018    23      3       0.2331095       61.63898
2018    23      4       0.2406918       63.21976
2018    23      5       0.2549858       66.26071
2018    23      6       0.2684145       69.03876
2018    23      7       0.2704581       69.43458
2018    24      0       0.245766        64.11651
2018    24      1       0.2330315       61.19473
2018    24      2       0.2564984       66.43158
2018    24      3       0.2950282       74.66691
2018    24      4       0.3195732       79.69795
2018    24      5       0.3669741       89.30746
2018    24      6       0.3861774       93.03618
2018    24      7       0.3569094       87.70181
2018    25      0       0.3067545       77.73792
2018    25      1       0.2616561       68.0749
2018    25      2       0.2528896       65.81086
2018    25      3       0.3135319       78.49792
2018    25      4       0.304142        76.79097
2018    25      5       0.2834858       72.65835
2018    25      6       0.3267684       81.28941
2018    25      7       0.3567463       86.53975
2018    26      0       0.3549795       85.68198
2018    26      1       0.2817776       70.57762
2018    26      2       0.4078669       93.78494
2018    26      3       0.4990655       110.8545
2018    26      4       0.4644012       104.8915
2018    26      5       0.4747643       107.0619
2018    26      6       0.490919        109.8027
2018    26      7       0.4278134       98.6777
2018    27      0       0.4708761       106.0071
2018    27      1       0.4789572       107.2683
2018    27      2       0.512177        112.4716
2018    27      3       0.5852972       124.1456
2018    27      4       0.6412261       132.1914
2018    27      5       0.7662003       148.0675
2018    27      6       0.4876027       108.2079
2018    27      7       0.4107333       94.72379
2018    28      0       0.3413891       81.8653
2018    28      1       0.4349802       100.0931
2018    28      2       0.1862957       50.46596
2018    28      3       0.2103422       55.81841
2018    28      4       0.2334845       61.49465
2018    28      5       0.2697843       68.95387
2018    28      6       0.2819009       72.19031
2018    28      7       0.2448517       63.98706
2018    29      0       0.2179354       58.25554
2018    29      1       0.203623        55.15599
2018    29      2       0.2097443       56.40233
2018    29      3       0.2911207       73.5859
2018    29      4       0.3005587       74.95211
2018    29      5       0.3143206       77.15588
2018    29      6       0.4595259       102.5432
2018    29      7       0.2875425       72.79209
2018    30      0       0.4264468       98.32076
2018    30      1       0.410872        95.62305
2018    30      2       0.6318518       129.8875
2018    30      3       0.6371821       131.2024
2018    30      4       0.5797959       123.3319
2018    30      5       0.4211055       98.57947
2018    30      6       0.3103196       76.55702
2018    30      7       0.2953438       72.27812
