####################################################################################################
# Month: 08Aug                                                                                     #
# Station: MOR                                                                                     #
# Frequency: 345 GHz                                                                               #
# Columns are: year    day     segment         tau     Tb (K)                                      #
####################################################################################################
2009    1       0       1.364722        205.7356
2009    1       1       1.530512        216.1489
2009    1       2       1.574419        219.2066
2009    1       3       1.67009         224.7675
2009    1       4       1.792566        231.2169
2009    1       5       2.267298        248.0292
2009    1       6       2.410882        251.2051
2009    1       7       1.891317        235.242
2009    2       0       1.4712          214.5108
2009    2       1       1.452994        213.176
2009    2       2       1.562362        220.3633
2009    2       3       1.655395        225.6134
2009    2       4       1.809919        233.1857
2009    2       5       2.135822        245.5494
2009    2       6       2.09131         244.1189
2009    2       7       1.708212        228.725
2009    3       0       1.584548        221.6775
2009    3       1       1.496323        215.9376
2009    3       2       1.392203        209.6632
2009    3       3       1.230894        198.1596
2009    3       4       1.272386        200.6884
2009    3       5       1.541761        218.2646
2009    3       6       1.593598        221.5777
2009    3       7       1.23981         198.7957
2009    4       0       1.101519        186.696
2009    4       1       1.133578        189.2411
2009    4       2       1.191783        194.6936
2009    4       3       1.472006        215.0916
2009    4       4       1.608685        222.7795
2009    4       5       1.895772        235.9628
2009    4       6       2.057701        241.8936
2009    4       7       1.704963        227.6566
2009    5       0       1.561134        220.135
2009    5       1       1.685363        226.0199
2009    5       2       1.556389        217.6627
2009    5       3       1.440901        210.5605
2009    5       4       1.646086        222.3226
2009    5       5       1.896972        234.3285
2009    5       6       2.141043        243.6232
2009    5       7       2.093494        242.4314
2009    6       0       1.896507        235.1543
2009    6       1       1.724521        227.6339
2009    6       2       1.683777        225.3826
2009    6       3       1.623851        222.1156
2009    6       4       1.901135        235.1005
2009    6       5       2.410208        251.5724
2009    6       6       3.034882        262.5194
2009    6       7       2.376833        250.0188
2009    7       0       1.990354        237.1284
2009    7       1       2.035881        238.4263
2009    7       2       1.668284        222.0636
2009    7       3       1.673152        222.5856
2009    7       4       1.87696         232.2951
2009    7       5       2.095036        240.9509
2009    7       6       2.517758        252.9916
2009    7       7       1.785228        229.9983
2009    8       0       1.374348        205.6343
2009    8       1       1.369118        204.3594
2009    8       2       1.257627        196.3978
2009    8       3       1.325635        201.9927
2009    8       4       1.407426        207.8979
2009    8       5       1.416038        208.5434
2009    8       6       1.346988        204.3351
2009    8       7       1.035513        179.079
2009    9       0       0.8217119       155.7487
2009    9       1       0.6908717       138.6187
2009    9       2       0.6201299       128.1791
2009    9       3       0.7103733       141.5949
2009    9       4       0.8666994       160.7672
2009    9       5       0.9897636       173.5848
2009    9       6       0.9441758       169.1957
2009    9       7       0.7685327       149.3115
2009    10      0       0.685145        138.3876
2009    10      1       0.7013117       140.2265
2009    10      2       0.7216694       142.6123
2009    10      3       0.6452422       132.4046
2009    10      4       0.6774171       137.4549
2009    10      5       0.7076351       142.2862
2009    10      6       0.6780115       138.4771
2009    10      7       0.5536953       120.2322
2009    11      0       0.5091838       113.109
2009    11      1       0.5046649       112.3808
2009    11      2       0.4924043       110.3621
2009    11      3       0.5455988       119.3816
2009    11      4       0.6098862       129.5039
2009    11      5       0.7219656       145.874
2009    11      6       0.7552719       150.7678
2009    11      7       0.482075        109.7056
2009    12      0       0.508609        114.0194
2009    12      1       0.5370963       118.9942
2009    12      2       0.5283433       117.6957
2009    12      3       0.521918        116.6192
2009    12      4       0.5600325       123.0549
2009    12      5       0.7077764       145.2141
2009    12      6       0.916348        171.0618
2009    12      7       0.6491488       137.3604
2009    13      0       0.431171        101.079
2009    13      1       0.4988283       111.1518
2009    13      2       0.5003015       110.9769
2009    13      3       0.4748162       107.9906
2009    13      4       0.7274315       144.9857
2009    13      5       0.9790583       174.6369
2009    13      6       1.193278        196.3211
2009    13      7       1.0519          184.0956
2009    14      0       0.6969049       141.4354
2009    14      1       0.5116576       113.5151
2009    14      2       0.3973107       93.90947
2009    14      3       0.4278898       99.36108
2009    14      4       0.7096938       143.9501
2009    14      5       0.9900251       177.2443
2009    14      6       1.237511        199.8833
2009    14      7       1.07603         185.7867
2009    15      0       0.8627647       162.7701
2009    15      1       0.8925032       165.85
2009    15      2       0.9160654       168.5161
2009    15      3       0.8609948       162.8174
2009    15      4       0.9425306       172.6712
2009    15      5       1.099735        188.5946
2009    15      6       1.23155         199.9664
2009    15      7       1.198764        196.6931
2009    16      0       1.485159        216.9864
2009    16      1       1.586372        222.8793
2009    16      2       1.43366         213.9876
2009    16      3       1.53222         219.6922
2009    16      4       1.770456        232.0317
2009    16      5       1.900564        238.0905
2009    16      6       1.928954        239.5923
2009    16      7       1.776107        233.4541
2009    17      0       1.65854         227.9925
2009    17      1       1.567441        222.7659
2009    17      2       1.465561        216.2614
2009    17      3       1.483509        216.7089
2009    17      4       1.693362        227.9939
2009    17      5       2.044715        243.2653
2009    17      6       2.098442        245.6192
2009    17      7       1.832675        235.8199
2009    18      0       1.801741        234.223
2009    18      1       1.827431        234.6634
2009    18      2       1.612174        223.9329
2009    18      3       1.367584        208.6672
2009    18      4       1.579162        221.2872
2009    18      5       2.025502        241.0472
2009    18      6       2.309673        250.2092
2009    18      7       2.008789        240.9526
2009    19      0       1.743005        229.5452
2009    19      1       1.751859        229.2976
2009    19      2       1.759994        228.9396
2009    19      3       1.776143        229.6764
2009    19      4       1.861002        233.5271
2009    19      5       2.212731        246.126
2009    19      6       2.702867        257.393
2009    19      7       2.216803        246.1213
2009    20      0       1.878276        234.243
2009    20      1       1.74976         228.395
2009    20      2       1.733902        227.1444
2009    20      3       1.79458         229.8392
2009    20      4       1.89197         234.4498
2009    20      5       2.086434        242.1298
2009    20      6       2.400411        251.8384
2009    20      7       2.071451        242.7224
2009    21      0       1.619451        222.4669
2009    21      1       1.361618        206.3961
2009    21      2       1.308772        202.9787
2009    21      3       1.351588        206.0199
2009    21      4       1.50045         215.6029
2009    21      5       1.839759        233.4091
2009    21      6       2.276016        248.7862
2009    21      7       2.055023        242.1464
2009    22      0       1.771241        231.3847
2009    22      1       1.601243        222.8229
2009    22      2       1.639143        224.8845
2009    22      3       1.680465        226.8262
2009    22      4       2.032549        241.422
2009    22      5       2.386298        251.421
2009    22      6       2.589058        255.6565
2009    22      7       2.17774         245.2938
2009    23      0       2.154973        244.8906
2009    23      1       2.290268        248.6586
2009    23      2       2.19196         245.561
2009    23      3       2.117268        243.2123
2009    23      4       1.992988        238.9626
2009    23      5       2.210079        246.2227
2009    23      6       2.720856        258.1083
2009    23      7       2.236131        247.4174
2009    24      0       1.92064         236.641
2009    24      1       1.907174        236.0752
2009    24      2       1.710548        227.215
2009    24      3       1.59562         221.2754
2009    24      4       1.813145        232.2109
2009    24      5       2.160133        245.5356
2009    24      6       2.21938         247.8907
2009    24      7       1.694985        227.847
2009    25      0       1.618447        223.4499
2009    25      1       1.426876        211.9392
2009    25      2       1.075687        184.0047
2009    25      3       0.9891067       175.0299
2009    25      4       0.9790766       174.2221
2009    25      5       1.012537        177.7991
2009    25      6       0.8520717       160.3562
2009    25      7       0.6727919       134.316
2009    26      0       0.7439715       142.9588
2009    26      1       0.7375255       143.2309
2009    26      2       0.7925596       149.2094
2009    26      3       0.7966838       148.9091
2009    26      4       0.9828983       171.3192
2009    26      5       1.118124        186.1379
2009    26      6       1.334172        205.235
2009    26      7       1.069852        182.9458
2009    27      0       0.7684575       148.6785
2009    27      1       0.6238782       128.4358
2009    27      2       0.6382939       130.4764
2009    27      3       0.6639716       134.5197
2009    27      4       0.7368987       144.4022
2009    27      5       0.8323258       156.5367
2009    27      6       0.9202566       167.312
2009    27      7       0.8611091       161.0096
2009    28      0       0.6025349       126.6097
2009    28      1       0.4504299       101.8924
2009    28      2       0.4530053       102.4416
2009    28      3       0.5014618       110.6276
2009    28      4       0.6162033       129.3787
2009    28      5       0.7563437       149.0156
2009    28      6       0.817097        156.7891
2009    28      7       0.6457573       134.2298
2009    29      0       0.5773413       123.8391
2009    29      1       0.5796328       124.1212
2009    29      2       0.5872714       125.2097
2009    29      3       0.5886119       125.4453
2009    29      4       0.628429        131.7899
2009    29      5       0.7930404       154.6142
2009    29      6       1.006146        178.9181
2009    29      7       0.9049076       168.5941
2009    30      0       0.6397585       134.0798
2009    30      1       0.5135832       114.2032
2009    30      2       0.4219379       98.02401
2009    30      3       0.4006931       94.12958
2009    30      4       0.6823144       139.6497
2009    30      5       0.9856431       175.6225
2009    30      6       1.240498        198.9015
2009    30      7       1.107393        187.9332
2009    31      0       1.003884        177.932
2009    31      1       0.9296091       169.9672
2009    31      2       0.8565313       161.6157
2009    31      3       0.820513        157.1373
2009    31      4       1.401702        209.7903
2009    31      5       2.081343        242.9067
2009    31      6       2.300032        249.728
2009    31      7       2.137856        244.7476
2010    1       0       1.972996        240.3101
2010    1       1       1.781063        231.9469
2010    1       2       1.670656        226.4943
2010    1       3       1.647373        225.1725
2010    1       4       1.815706        233.1731
2010    1       5       2.231532        248.1519
2010    1       6       2.519597        255.1986
2010    1       7       2.317434        250.3377
2010    2       0       2.238479        248.5523
2010    2       1       2.124204        245.2324
2010    2       2       1.796916        232.999
2010    2       3       1.527888        218.8334
2010    2       4       1.766649        230.9813
2010    2       5       2.376032        251.8871
2010    2       6       2.872625        261.6646
2010    2       7       2.59157         257.0614
2010    3       0       2.190949        247.1055
2010    3       1       1.902776        237.0378
2010    3       2       1.666272        226.611
2010    3       3       1.709412        228.79
2010    3       4       1.981306        240.4349
2010    3       5       2.559264        257.1233
2010    3       6       2.993567        264.3489
2010    3       7       2.378443        252.6749
2010    4       0       1.761823        231.2137
2010    4       1       1.477671        215.7843
2010    4       2       1.363241        208.3916
2010    4       3       1.368246        208.7684
2010    4       4       1.377237        209.5829
2010    4       5       1.42822         213.2048
2010    4       6       1.276257        203.0323
2010    4       7       0.8782938       166.6553
2010    5       0       0.5563525       123.244
2010    5       1       0.4107823       97.96978
2010    5       2       0.2941127       75.02673
2010    5       3       0.2825924       72.70582
2010    5       4       0.4179911       99.02756
2010    5       5       0.5504342       121.5034
2010    5       6       0.6368795       134.8134
2010    5       7       0.6175469       132.0753
2010    6       0       0.6599238       138.0158
2010    6       1       0.775306        153.449
2010    6       2       0.7780909       153.7984
2010    6       3       0.864093        163.9305
2010    6       4       1.322135        205.6653
2010    6       5       1.709499        228.7807
2010    6       6       1.993923        241.0829
2010    6       7       1.95699         239.9626
2010    7       0       2.059907        243.7798
2010    7       1       2.633268        258.8175
2010    7       2       2.340527        251.3108
2010    7       3       2.35605         252.2352
2010    7       4       2.625773        259.0542
2010    7       5       3.653552        272.3942
2010    7       6       3.713294        272.8986
2010    7       7       2.570983        257.5431
2010    8       0       3.147596        265.9258
2010    8       1       2.656601        256.7482
2010    8       2       2.528287        254.4706
2010    8       3       2.337282        249.5421
2010    8       4       2.510402        254.0701
2010    8       5       2.815292        260.3295
2010    8       6       3.376763        267.8016
2010    8       7       2.476948        253.4756
2010    9       0       2.045462        241.5097
2010    9       1       2.609982        258.0855
2010    9       2       2.101515        243.7272
2010    9       3       2.142301        244.4276
2010    9       4       2.816196        261.0484
2010    9       5       3.725008        271.5003
2010    9       6       3.7385          271.5739
2010    9       7       2.804306        261.3931
2010    10      0       2.5942          257.0594
2010    10      1       2.836201        261.2548
2010    10      2       2.91081         261.8025
2010    10      3       2.708686        258.5471
2010    10      4       3.035023        264.0756
2010    10      5       3.405475        268.1467
2010    10      6       3.304825        266.8374
2010    10      7       2.955937        261.7383
2010    11      0       2.383099        250.3239
2010    11      1       1.855416        232.9676
2010    11      2       1.622027        221.8676
2010    11      3       1.738336        227.3135
2010    11      4       2.024019        240.2804
2010    11      5       2.082619        243.0166
2010    11      6       1.875059        235.2238
2010    11      7       1.878905        235.7746
2010    12      0       2.140288        244.9514
2010    12      1       2.149849        245.7405
2010    12      2       1.972484        239.7014
2010    12      3       1.921792        237.0817
2010    12      4       2.152137        245.3294
2010    12      5       2.07181         243.6662
2010    12      6       1.619896        224.9115
2010    12      7       1.291325        204.3131
2010    13      0       1.407746        212.306
2010    13      1       1.569921        221.9811
2010    13      2       1.64374         226.1587
2010    13      3       1.489196        217.3494
2010    13      4       1.484575        216.9049
2010    13      5       1.76121         231.8637
2010    13      6       1.93172         239.6546
2010    13      7       1.713926        230.2133
2010    14      0       1.425217        213.5246
2010    14      1       1.375962        209.7194
2010    14      2       1.527993        218.9196
2010    14      3       1.428943        212.9031
2010    14      4       1.637403        225.4495
2010    14      5       2.154326        246.7894
2010    14      6       2.686834        259.8709
2010    14      7       2.021797        242.6726
2010    15      0       1.958154        239.8164
2010    15      1       2.962274        262.5443
2010    15      2       2.812609        259.5297
2010    15      3       3.143649        264.3822
2010    15      4       4.450571        274.3221
2010    15      5       4.098229        272.7222
2010    15      6       3.407767        267.4196
2010    15      7       2.427206        251.7429
2010    16      0       2.503718        253.9935
2010    16      1       2.702135        257.7321
2010    16      2       2.460991        251.735
2010    16      3       2.549313        253.4256
2010    16      4       2.958933        259.9919
2010    16      5       3.062846        261.7452
2010    16      6       2.859792        259.0144
2010    16      7       2.055356        239.0207
2010    17      0       1.187108        192.3474
2010    17      1       0.5971969       127.1345
2010    17      2       0.5135134       114.2409
2010    17      3       0.487808        109.777
2010    17      4       0.5915641       125.8252
2010    17      5       0.8355805       157.3587
2010    17      6       0.81341         154.221
2010    17      7       0.551699        119.0388
2010    18      0       0.4562916       103.9495
2010    18      1       0.4550734       103.6393
2010    18      2       0.5051059       111.5469
2010    18      3       0.5963307       125.9349
2010    18      4       0.680146        138.4119
2010    18      5       0.8444261       159.432
2010    18      6       0.8759663       163.204
2010    18      7       0.6001376       127.4366
2010    19      0       0.590336        125.7254
2010    19      1       0.6039659       127.7541
2010    19      2       0.6815528       138.5788
2010    19      3       0.7092585       142.6322
2010    19      4       0.9342307       170.3554
2010    19      5       1.256231        200.2856
2010    19      6       1.353471        208.057
2010    19      7       1.04565         183.2127
2010    20      0       0.8123024       157.856
2010    20      1       0.6624571       137.8978
2010    20      2       0.516912        115.5694
2010    20      3       0.4561901       105.1473
2010    20      4       0.5204017       115.9103
2010    20      5       0.7509379       149.5847
2010    20      6       0.9070924       168.3361
2010    20      7       0.8924516       166.8527
2010    21      0       0.8590788       162.9606
2010    21      1       0.9101307       168.3405
2010    21      2       1.140235        190.4621
2010    21      3       1.39028         209.7839
2010    21      4       1.469436        214.7373
2010    21      5       1.655986        225.6144
2010    21      6       1.837843        234.5324
2010    21      7       1.704812        228.728
2010    22      0       1.576603        221.8606
2010    22      1       1.527913        218.5771
2010    22      2       1.601643        222.2436
2010    22      3       1.681649        226.4707
2010    22      4       1.809093        232.9943
2010    22      5       2.165622        246.3968
2010    22      6       2.536879        256.2052
2010    22      7       2.365029        252.178
2010    23      0       2.094668        244.106
2010    23      1       1.995202        240.3553
2010    23      2       1.951486        238.5609
2010    23      3       1.851577        234.6017
2010    23      4       1.953096        238.821
2010    23      5       2.505273        255.6956
2010    23      6       3.178948        266.6984
2010    23      7       2.743055        260.1215
2010    24      0       2.157451        245.92
2010    24      1       1.81063         233.1253
2010    24      2       1.798266        232.2789
2010    24      3       1.961243        238.9703
2010    24      4       2.404549        252.8902
2010    24      5       2.965818        263.5528
2010    24      6       2.952299        263.5264
2010    24      7       2.835823        262.0924
2010    25      0       2.335023        251.894
2010    25      1       1.76733         230.6576
2010    25      2       1.748059        229.3107
2010    25      3       1.613258        223.2596
2010    25      4       1.503749        217.6585
2010    25      5       1.663642        226.1625
2010    25      6       1.714151        227.9077
2010    25      7       1.573395        220.0402
2010    26      0       1.271634        200.2261
2010    26      1       1.048974        181.6911
2010    26      2       0.7500387       148.6245
2010    26      3       0.7846761       152.8111
2010    26      4       1.372401        207.8724
2010    26      5       1.950869        237.9584
2010    26      6       2.118166        243.6183
2010    26      7       1.87474         234.452
2010    27      0       1.633003        223.5724
2010    27      1       1.543857        218.6041
2010    27      2       1.531507        217.8495
2010    27      3       1.537475        218.2191
2010    27      4       1.632585        223.7551
2010    27      5       1.930427        237.6094
2010    27      6       2.397414        252.3606
2010    27      7       2.490366        254.221
2010    28      0       2.516622        254.7775
2010    28      1       2.482915        253.8195
2010    28      2       2.097251        243.2614
2010    28      3       1.75983         230.0347
2010    28      4       1.793019        231.7662
2010    28      5       2.255814        248.2485
2010    28      6       2.91344         261.2387
2010    28      7       2.696678        257.0083
2010    29      0       1.864957        233.3055
2010    29      1       1.426881        210.1585
2010    29      2       1.368814        206.3419
2010    29      3       1.442525        211.1779
2010    29      4       1.610136        221.1608
2010    29      5       1.90078         235.2534
2010    29      6       2.201381        246.0315
2010    29      7       1.907039        236.3654
2010    30      0       1.767712        230.662
2010    30      1       1.623495        223.0357
2010    30      2       1.456604        212.73
2010    30      3       1.350699        205.4593
2010    30      4       1.425426        210.5282
2010    30      5       1.628153        222.4653
2010    30      6       1.641083        222.9021
2010    30      7       1.510643        215.8333
2010    31      0       1.453571        212.726
2010    31      1       1.433944        211.3578
2010    31      2       1.3037          202.5768
2010    31      3       1.212816        195.531
2010    31      4       1.282744        200.4982
2010    31      5       1.397712        208.3446
2010    31      6       1.304713        202.0685
2010    31      7       1.049306        180.9843
2011    1       0       2.509387        257.9584
2011    1       1       2.170336        248.6568
2011    1       2       2.134209        246.332
2011    1       3       1.97375         241.0592
2011    1       4       1.820204        234.3722
2011    1       5       1.725869        229.8063
2011    1       6       1.594594        222.9645
2011    1       7       1.45304         214.7058
2011    2       0       1.446232        214.4542
2011    2       1       1.51856         218.7949
2011    2       2       1.646794        226.3512
2011    2       3       1.677842        227.644
2011    2       4       1.875534        235.7999
2011    2       5       2.027767        241.9892
2011    2       6       2.000234        241.2029
2011    2       7       1.989883        241.5555
2011    3       0       1.911269        238.919
2011    3       1       1.906851        238.6438
2011    3       2       1.884979        238.0177
2011    3       3       1.856597        236.1549
2011    3       4       2.069643        244.4609
2011    3       5       2.417675        254.9504
2011    3       6       2.596041        259.2535
2011    3       7       2.286566        252.0314
2011    4       0       2.001301        242.2558
2011    4       1       1.863651        236.084
2011    4       2       1.949134        239.0167
2011    4       3       2.001915        240.8979
2011    4       4       2.155135        246.1994
2011    4       5       2.401649        253.194
2011    4       6       2.27638         250.5919
2011    4       7       1.992653        241.7632
2011    5       0       2.022665        243.0407
2011    5       1       2.015791        242.6264
2011    5       2       1.889913        237.9991
2011    5       3       1.707094        229.382
2011    5       4       1.796958        233.1333
2011    5       5       2.062247        243.4086
2011    5       6       2.240952        249.372
2011    5       7       1.816282        234.3627
2011    6       0       1.627232        225.1858
2011    6       1       1.690918        228.4431
2011    6       2       1.678568        227.5679
2011    6       3       1.737836        229.6368
2011    6       4       1.946623        238.9248
2011    6       5       2.386657        253.254
2011    6       6       2.820962        262.3577
2011    6       7       2.490804        256.1591
2011    7       0       2.171858        246.9932
2011    7       1       1.86372         235.151
2011    7       2       1.724781        229.0273
2011    7       3       1.783385        231.8485
2011    7       4       1.988485        240.114
2011    7       5       2.364069        252.0591
2011    7       6       2.547981        256.7808
2011    7       7       2.675725        259.178
2011    8       0       2.38632         252.7122
2011    8       1       2.11976         245.1613
2011    8       2       2.302524        250.5325
2011    8       3       2.334494        251.5605
2011    8       4       2.164449        246.45
2011    8       5       2.22483         248.377
2011    8       6       2.527019        256.3987
2011    8       7       2.198106        247.9037
2011    9       0       1.899242        237.1596
2011    9       1       1.794612        232.1499
2011    9       2       1.990988        240.3149
2011    9       3       2.149264        246.6522
2011    9       4       2.28612         250.8133
2011    9       5       2.825633        262.5895
2011    9       6       2.852347        263.0207
2011    9       7       2.357503        253.0653
2011    10      0       2.276504        251.3333
2011    10      1       2.22344         249.0941
2011    10      2       2.161794        245.895
2011    10      3       2.191358        246.1616
2011    10      4       2.342699        250.8527
2011    10      5       2.566517        256.711
2011    10      6       2.664913        259.3256
2011    10      7       2.3951          253.6683
2011    11      0       2.491759        255.9149
2011    11      1       2.524254        256.7305
2011    11      2       2.349544        252.2737
2011    11      3       2.237718        248.5147
2011    11      4       2.404339        252.2185
2011    11      5       2.748219        259.8105
2011    11      6       2.6987          259.4006
2011    11      7       2.224726        248.7473
2011    12      0       1.971964        239.9169
2011    12      1       1.922797        237.8011
2011    12      2       2.03113         241.857
2011    12      3       2.07712         243.9411
2011    12      4       2.263743        250.1861
2011    12      5       2.869735        263.6341
2011    12      6       3.273063        269.1239
2011    12      7       2.651622        260.9165
2011    13      0       2.605557        259.9301
2011    13      1       2.715356        261.3753
2011    13      2       2.77885         262.1118
2011    13      3       2.545813        256.5253
2011    13      4       2.179496        246.3424
2011    13      5       2.128278        245.0833
2011    13      6       2.568945        256.938
2011    13      7       2.640975        258.6307
2011    14      0       2.355504        251.1196
2011    14      1       2.172143        245.3774
2011    14      2       2.13141         244.2827
2011    14      3       2.105808        243.6958
2011    14      4       2.13539         245.2101
2011    14      5       2.408156        253.2613
2011    14      6       2.908626        262.5749
2011    14      7       2.67794         258.663
2011    15      0       2.419064        253.1107
2011    15      1       2.34179         250.8703
2011    15      2       2.269383        248.3285
2011    15      3       2.028451        241.0526
2011    15      4       2.085325        243.0065
2011    15      5       2.497903        254.4979
2011    15      6       3.16913         264.9535
2011    15      7       2.721815        258.5422
2011    16      0       1.806512        231.1011
2011    16      1       1.36488         206.6606
2011    16      2       1.187262        193.6423
2011    16      3       1.050587        181.7688
2011    16      4       1.087797        184.8404
2011    16      5       1.149531        189.4635
2011    16      6       1.128715        187.8224
2011    16      7       1.024434        178.3221
2011    17      0       0.7930864       152.7869
2011    17      1       0.4929581       109.3987
2011    17      2       0.3745851       88.68574
2011    17      3       0.365045        86.98611
2011    17      4       0.5377498       117.0832
2011    17      5       0.6407039       132.7272
2011    17      6       0.7411135       146.9205
2011    17      7       0.5359685       118.003
2011    18      0       0.4472555       103.3562
2011    18      1       0.4720245       107.6009
2011    18      2       0.8019528       154.4695
2011    18      3       1.24333         197.2447
2011    18      4       1.562479        218.6482
2011    18      5       1.86789         233.253
2011    18      6       2.08653         241.0168
2011    18      7       1.852152        232.4865
2011    19      0       1.852197        232.7926
2011    19      1       2.02314         239.603
2011    19      2       2.044758        240.5426
2011    19      3       1.966613        238.2844
2011    19      4       2.10787         243.4093
2011    19      5       2.421097        252.2537
2011    19      6       2.837104        259.1931
2011    19      7       2.448821        251.6528
2011    20      0       2.282147        248.0565
2011    20      1       2.094041        243.4253
2011    20      2       1.631397        223.335
2011    20      3       1.866248        234.1558
2011    20      4       1.959987        238.489
2011    20      5       2.118114        244.5407
2011    20      6       2.235085        248.2313
2011    20      7       1.931777        237.8836
2011    21      0       1.905706        237.0099
2011    21      1       1.960716        239.0953
2011    21      2       2.289807        249.6216
2011    21      3       2.390614        252.4618
2011    21      4       2.326459        250.5877
2011    21      5       2.307025        250.5313
2011    21      6       2.17001         247.0327
2011    21      7       1.775883        232.3703
2011    22      0       1.74663         231.0242
2011    22      1       1.734069        230.4182
2011    22      2       1.641469        225.2586
2011    22      3       1.637227        224.827
2011    22      4       1.730728        229.3339
2011    22      5       2.171003        246.7725
2011    22      6       2.276814        249.6414
2011    22      7       2.236283        248.5247
2011    23      0       2.569521        257.2342
2011    23      1       2.422953        253.9469
2011    23      2       2.118112        245.2651
2011    23      3       2.136052        245.6134
2011    23      4       2.592862        257.0165
2011    23      5       3.242816        266.5975
2011    23      6       3.024243        263.9371
2011    23      7       2.411473        251.3168
2011    24      0       2.030152        239.5384
2011    24      1       1.792844        230.4363
2011    24      2       1.753433        229.2249
2011    24      3       1.729129        228.1137
2011    24      4       2.065125        241.698
2011    24      5       2.629462        256.8901
2011    24      6       3.129428        264.714
2011    24      7       2.753916        259.4082
2011    25      0       2.118062        243.5342
2011    25      1       1.535106        217.0443
2011    25      2       1.399614        208.3519
2011    25      3       1.430991        209.9911
2011    25      4       1.36483         205.2365
2011    25      5       1.477496        212.2512
2011    25      6       1.702593        224.9828
2011    25      7       1.643467        221.9458
2011    26      0       1.568778        217.1783
2011    26      1       1.5358          214.4672
2011    26      2       1.70884         223.0787
2011    26      3       2.086805        239.1037
2011    26      4       2.57489         253.2219
2011    26      5       2.877163        259.734
2011    26      6       2.972006        261.7268
2011    26      7       2.793988        259.5708
2011    27      0       2.850897        260.7313
2011    27      1       2.965464        262.381
2011    27      2       3.01223         263.2906
2011    27      3       2.804976        260.3121
2011    27      4       2.875646        261.7923
2011    27      5       3.195116        266.4584
2011    27      6       3.013085        264.1644
2011    27      7       2.653264        258.2408
2011    28      0       2.882855        261.9898
2011    28      1       3.072058        265.139
2011    28      2       2.818111        261.6989
2011    28      3       2.687156        259.1325
2011    28      4       2.840379        261.7845
2011    28      5       3.347891        268.495
2011    28      6       3.642947        271.0856
2011    28      7       2.677097        259.8077
2011    29      0       2.391907        253.4519
2011    29      1       2.342725        251.7746
2011    29      2       2.297766        250.0816
2011    29      3       2.315256        250.1223
2011    29      4       2.574983        256.4561
2011    29      5       2.802369        261.1599
2011    29      6       2.658546        258.6868
2011    29      7       2.256609        249.2789
2011    30      0       2.032775        241.8171
2011    30      1       1.784149        231.1941
2011    30      2       1.550388        218.889
2011    30      3       1.392526        209.3831
2011    30      4       1.488137        215.6958
2011    30      5       1.721462        228.7486
2011    30      6       1.740647        230.0048
2011    30      7       1.476302        215.5852
2011    31      0       1.401941        210.6314
2011    31      1       1.445557        213.4007
2011    31      2       1.328261        205.1281
2011    31      3       1.369877        207.518
2011    31      4       1.43936         211.3054
2011    31      5       1.531845        216.9862
2011    31      6       1.479711        213.7614
2011    31      7       1.491611        213.5453
2012    1       0       1.287705        202.1662
2012    1       1       1.38128         208.5362
2012    1       2       1.372769        208.375
2012    1       3       1.404565        210.6975
2012    1       4       1.585861        221.7198
2012    1       5       1.76298         230.5533
2012    1       6       1.718543        228.0865
2012    1       7       1.536661        218.4969
2012    2       0       1.594746        221.9748
2012    2       1       1.736509        229.0129
2012    2       2       1.845875        233.5539
2012    2       3       1.76545         229.7198
2012    2       4       1.618907        222.6776
2012    2       5       1.650367        223.9858
2012    2       6       1.88191         234.7675
2012    2       7       2.155447        244.9036
2012    3       0       2.320048        249.602
2012    3       1       2.197809        245.8937
2012    3       2       1.787844        229.8232
2012    3       3       1.578176        219.1595
2012    3       4       1.597668        220.7432
2012    3       5       1.961003        237.5475
2012    3       6       2.394394        250.6605
2012    3       7       2.289411        247.9191
2012    4       0       1.855633        232.7985
2012    4       1       1.460422        211.5528
2012    4       2       1.355864        204.3188
2012    4       3       1.346487        204.4938
2012    4       4       1.505226        214.7813
2012    4       5       1.729158        227.2737
2012    4       6       1.818211        231.5625
2012    4       7       1.517242        216.2847
2012    5       0       1.473493        213.3749
2012    5       1       1.360575        205.8477
2012    5       2       1.16413         190.7841
2012    5       3       1.093781        184.1059
2012    5       4       1.107697        185.8811
2012    5       5       1.304588        201.8097
2012    5       6       1.284944        200.0669
2012    5       7       1.067346        182.0686
2012    6       0       0.8849956       163.7922
2012    6       1       0.6631295       135.9613
2012    6       2       0.7130566       142.929
2012    6       3       0.9192574       168.0901
2012    6       4       0.9238255       168.2749
2012    6       5       0.9296283       168.9267
2012    6       6       1.027097        179.0767
2012    6       7       1.059676        182.9139
2012    7       0       1.037847        180.2143
2012    7       1       0.9600318       172.6152
2012    7       2       0.9246677       168.571
2012    7       3       0.9481908       171.3682
2012    7       4       1.411304        209.2234
2012    7       5       1.929016        236.2338
2012    7       6       2.171591        244.5908
2012    7       7       2.154488        243.8747
2012    8       0       2.27063         247.5774
2012    8       1       2.46806         252.1092
2012    8       2       2.090155        241.3669
2012    8       3       1.984254        236.6846
2012    8       4       1.749636        226.1975
2012    8       5       1.580041        217.7613
2012    8       6       1.605376        219.4984
2012    8       7       1.46349         211.5676
2012    9       0       1.346834        204.2049
2012    9       1       1.415219        209.4671
2012    9       2       1.349671        205.1754
2012    9       3       1.109867        185.5291
2012    9       4       1.000141        175.3118
2012    9       5       1.221062        196.2119
2012    9       6       1.349557        205.7431
2012    9       7       1.359036        206.4259
2012    10      0       1.429817        211.1026
2012    10      1       1.300938        201.8168
2012    10      2       1.07119         183.362
2012    10      3       1.281726        201.2385
2012    10      4       1.682983        225.7422
2012    10      5       1.886089        235.1697
2012    10      6       1.661062        224.6075
2012    10      7       1.252254        198.4572
2012    11      0       1.230899        196.4983
2012    11      1       1.39092         207.5198
2012    11      2       1.341767        204.2718
2012    11      3       1.319482        202.4649
2012    11      4       1.570859        218.351
2012    11      5       1.925283        235.0213
2012    11      6       2.325855        247.7445
2012    11      7       2.336134        248.1697
2012    12      0       2.106829        241.0456
2012    12      1       2.007618        237.1831
2012    12      2       1.876523        231.6985
2012    12      3       1.692012        223.4123
2012    12      4       1.663854        222.3256
2012    12      5       1.912349        233.9793
2012    12      6       2.286885        246.5662
2012    12      7       2.074027        240.4329
2012    13      0       1.642861        221.6907
2012    13      1       1.314562        201.1773
2012    13      2       1.135433        187.3117
2012    13      3       1.075232        182.33
2012    13      4       1.324132        203.0703
2012    13      5       1.599782        220.953
2012    13      6       1.758078        229.2288
2012    13      7       1.570838        219.46
2012    14      0       1.339082        203.6332
2012    14      1       1.300414        200.053
2012    14      2       1.357964        204.8039
2012    14      3       1.387863        207.3881
2012    14      4       1.464595        211.9624
2012    14      5       1.936983        234.8393
2012    14      6       2.122249        241.0055
2012    14      7       1.946129        234.7884
2012    15      0       1.618928        220.133
2012    15      1       1.445292        210.6484
2012    15      2       1.34798         204.1858
2012    15      3       1.357755        204.8857
2012    15      4       1.49039         213.6211
2012    15      5       1.670604        223.9693
2012    15      6       1.776957        229.2843
2012    15      7       1.457828        212.6008
2012    16      0       1.379766        206.7587
2012    16      1       1.343508        203.8064
2012    16      2       1.284231        199.7423
2012    16      3       1.116656        186.348
2012    16      4       1.204873        193.3957
2012    16      5       1.346651        203.8875
2012    16      6       1.444229        210.8501
2012    16      7       1.197608        194.018
2012    17      0       0.9469278       170.7029
2012    17      1       0.93245         169.0457
2012    17      2       0.9784032       174.0115
2012    17      3       0.9659827       172.9365
2012    17      4       1.487127        215.488
2012    17      5       2.583406        256.5126
2012    17      6       3.557583        268.7875
2012    17      7       3.348348        266.3071
2012    18      0       2.633953        256.8125
2012    18      1       2.323183        249.7665
2012    18      2       2.424766        251.7184
2012    18      3       2.455018        252.2061
2012    18      4       2.621278        255.5935
2012    18      5       3.187466        264.5558
2012    18      6       3.791371        270.3019
2012    18      7       3.672433        270.106
2012    19      0       3.669683        269.5836
2012    19      1       2.175968        244.2361
2012    19      2       2.071425        240.5818
2012    19      3       2.157367        243.2616
2012    19      4       2.420128        251.1292
2012    19      5       2.751277        258.395
2012    19      6       2.982123        261.9238
2012    19      7       2.112931        243.3842
2012    20      0       1.760609        229.3951
2012    20      1       1.91969         235.6026
2012    20      2       2.166422        244.1831
2012    20      3       2.14557         244.2197
2012    20      4       1.913504        236.2262
2012    20      5       2.02421         240.3417
2012    20      6       2.323473        249.6851
2012    20      7       2.528137        254.3477
2012    21      0       2.590546        255.4311
2012    21      1       2.600824        255.4127
2012    21      2       2.299647        248.1919
2012    21      3       2.070556        241.1335
2012    21      4       2.103443        242.7716
2012    21      5       2.636862        256.6154
2012    21      6       3.001494        262.633
2012    21      7       2.889078        260.6808
2012    22      0       2.746942        258.1008
2012    22      1       2.710076        257.2466
2012    22      2       2.595593        254.9672
2012    22      3       2.597819        254.6936
2012    22      4       2.683224        256.0633
2012    22      5       2.72579         256.8363
2012    22      6       2.687128        256.3821
2012    22      7       2.626932        255.4159
2012    23      0       2.585228        254.6358
2012    23      1       2.542994        253.616
2012    23      2       2.443002        251.0506
2012    23      3       2.193449        244.677
2012    23      4       2.364172        249.5479
2012    23      5       2.853236        259.9951
2012    23      6       3.193219        264.4649
2012    23      7       2.896545        259.993
2012    24      0       2.586357        253.9482
2012    24      1       2.580161        253.8827
2012    24      2       2.472384        251.9981
2012    24      3       2.03518         240.681
2012    24      4       2.063079        242.055
2012    24      5       2.467483        254.1028
2012    24      6       2.729398        259.4463
2012    24      7       2.386879        252.1593
2012    25      0       2.153262        245.4579
2012    25      1       2.229135        247.3707
2012    25      2       2.206826        247.0341
2012    25      3       2.087763        243.1709
2012    25      4       2.293878        249.6539
2012    25      5       2.739137        259.938
2012    25      6       2.964138        263.7532
2012    25      7       2.39479         252.9836
2012    26      0       2.053042        242.9247
2012    26      1       1.873393        235.4206
2012    26      2       1.820959        232.5187
2012    26      3       1.844983        233.6356
2012    26      4       1.862238        234.5321
2012    26      5       1.989714        239.9092
2012    26      6       2.20996         247.1955
2012    26      7       2.169851        245.4161
2012    27      0       2.153005        244.0947
2012    27      1       2.164191        244.293
2012    27      2       2.179275        244.655
2012    27      3       2.165153        244.2631
2012    27      4       2.424601        251.7573
2012    27      5       2.667213        257.7952
2012    27      6       2.766964        260.2133
2012    27      7       2.548802        256.2488
2012    28      0       2.133352        244.7255
2012    28      1       2.018699        240.1392
2012    28      2       1.895324        235.2406
2012    28      3       2.079032        241.8928
2012    28      4       2.165211        245.0729
2012    28      5       2.25022         248.26
2012    28      6       2.354761        251.4189
2012    28      7       1.995606        240.4336
2012    29      0       1.570232        220.5772
2012    29      1       1.397573        209.6503
2012    29      2       1.132882        189.0574
2012    29      3       1.147424        190.402
2012    29      4       1.37631         207.9441
2012    29      5       1.716979        227.6521
2012    29      6       1.910588        236.3254
2012    29      7       1.773983        230.7408
2012    30      0       1.876786        235.0135
2012    30      1       2.053299        241.5302
2012    30      2       1.968278        238.1717
2012    30      3       1.780503        230.1646
2012    30      4       1.919623        236.5683
2012    30      5       2.379283        251.7118
2012    30      6       2.719484        258.8604
2012    30      7       2.374485        251.4619
2012    31      0       1.888879        235.5189
2012    31      1       1.666566        225.2029
2012    31      2       1.418777        211.0283
2012    31      3       1.376106        207.958
2012    31      4       1.631367        223.5777
2012    31      5       1.95943         238.5208
2012    31      6       2.006946        240.3371
2012    31      7       1.671511        226.2368
2013    1       0       1.976128        239.2918
2013    1       1       1.999149        240.2818
2013    1       2       1.874549        235.8433
2013    1       3       1.884951        236.4174
2013    1       4       2.020991        241.3955
2013    1       5       2.265668        249.1603
2013    1       6       2.377095        252.0552
2013    1       7       2.180792        246.4782
2013    2       0       2.07038         242.5865
2013    2       1       2.120471        243.9913
2013    2       2       1.917171        236.56
2013    2       3       1.874086        234.2386
2013    2       4       2.186656        245.5287
2013    2       5       2.664335        257.6731
2013    2       6       2.866398        261.3257
2013    2       7       2.611776        257.0439
2013    3       0       2.361288        251.6335
2013    3       1       2.464573        253.6491
2013    3       2       2.383188        251.2277
2013    3       3       2.10823         243.2882
2013    3       4       2.137525        244.3869
2013    3       5       2.749337        259.1343
2013    3       6       3.076445        263.28
2013    3       7       2.703244        256.8874
2013    4       0       2.440641        251.2879
2013    4       1       2.387328        249.9838
2013    4       2       2.270901        246.733
2013    4       3       2.080542        240.9224
2013    4       4       2.095728        241.7602
2013    4       5       2.384221        250.956
2013    4       6       3.178654        264.7718
2013    4       7       2.820542        259.2352
2013    5       0       2.004351        238.4916
2013    5       1       1.383137        207.654
2013    5       2       1.37533         207.2684
2013    5       3       1.59511         220.4827
2013    5       4       1.639167        223.1364
2013    5       5       1.701385        226.1441
2013    5       6       1.802702        230.4184
2013    5       7       1.641238        223.2048
2013    6       0       1.348898        205.4958
2013    6       1       1.226426        195.9471
2013    6       2       1.253987        198.1438
2013    6       3       1.315424        203.3226
2013    6       4       1.453163        212.8947
2013    6       5       1.816691        231.8326
2013    6       6       2.212254        245.9927
2013    6       7       2.052171        241.4603
2013    7       0       1.6236          223.5218
2013    7       1       1.277019        201.2836
2013    7       2       1.156629        191.3727
2013    7       3       1.123538        188.4215
2013    7       4       1.364856        207.0404
2013    7       5       1.882328        234.7599
2013    7       6       2.356205        251.1384
2013    7       7       2.149425        245.7889
2013    8       0       2.001379        241.0576
2013    8       1       2.031478        242.2372
2013    8       2       1.863599        235.5367
2013    8       3       1.714051        228.6113
2013    8       4       1.66761         226.3522
2013    8       5       2.035643        242.3902
2013    8       6       2.460089        254.8544
2013    8       7       2.232687        249.0908
2013    9       0       1.815952        234.2832
2013    9       1       1.561846        221.7457
2013    9       2       1.387186        210.9399
2013    9       3       1.304875        204.913
2013    9       4       1.444396        214.1222
2013    9       5       1.754568        230.6233
2013    9       6       2.212           247.5202
2013    9       7       2.090546        243.1627
2013    10      0       1.646274        224.6859
2013    10      1       1.458442        214.3256
2013    10      2       1.438064        212.7538
2013    10      3       1.430228        212.119
2013    10      4       1.544767        219.4985
2013    10      5       1.853203        235.0282
2013    10      6       2.189381        247.1924
2013    10      7       2.177468        246.6381
2013    11      0       2.24122         249.0178
2013    11      1       2.483065        255.549
2013    11      2       2.342631        252.2404
2013    11      3       2.101305        245.0551
2013    11      4       2.007553        241.4527
2013    11      5       2.472423        255.6362
2013    11      6       2.78665         262.2361
2013    11      7       2.738417        261.2778
2013    12      0       2.394205        254.4057
2013    12      1       2.399335        254.7166
2013    12      2       2.48373         256.0123
2013    12      3       2.387913        253.5324
2013    12      4       2.391439        253.7629
2013    12      5       2.730072        260.898
2013    12      6       3.01508         265.509
2013    12      7       2.790139        262.3465
2013    13      0       2.469696        255.8976
2013    13      1       2.408208        254.337
2013    13      2       2.513157        256.6754
2013    13      3       2.533872        257.1812
2013    13      4       2.622505        259.7653
2013    13      5       2.827537        264.0293
2013    13      6       2.875536        264.7691
2013    13      7       2.524668        257.9158
2013    14      0       2.140379        247.0213
2013    14      1       2.046113        243.1421
2013    14      2       2.4722          255.8866
2013    14      3       2.659847        259.9971
2013    14      4       2.445459        255.4378
2013    14      5       2.210642        248.9958
2013    14      6       2.029637        242.3242
2013    14      7       1.887501        236.7723
2013    15      0       1.714934        228.7396
2013    15      1       1.656865        225.3492
2013    15      2       1.57228         220.1003
2013    15      3       1.513767        216.284
2013    15      4       1.466808        213.9992
2013    15      5       1.406817        210.6203
2013    15      6       1.371065        208.1082
2013    15      7       1.314125        204.3436
2013    16      0       1.398256        210.638
2013    16      1       1.443174        213.4855
2013    16      2       1.40734         211.3126
2013    16      3       1.216523        197.5298
2013    16      4       1.081196        185.8005
2013    16      5       1.016926        179.8528
2013    16      6       0.9467959       173.1173
2013    16      7       0.791567        155.3938
2013    17      0       0.7221305       146.4601
2013    17      1       0.6903372       141.6669
2013    17      2       0.7362784       147.6442
2013    17      3       0.7157216       144.9896
2013    17      4       0.9363999       170.9482
2013    17      5       1.278128        201.8689
2013    17      6       1.741653        229.8767
2013    17      7       1.577953        221.2855
2013    18      0       1.183265        193.4448
2013    18      1       0.9408019       170.7552
2013    18      2       0.8781608       163.8787
2013    18      3       1.115993        187.896
2013    18      4       1.398551        210.3461
2013    18      5       1.91352         236.7859
2013    18      6       2.337859        250.8947
2013    18      7       2.131404        244.9959
2013    19      0       1.838718        234.186
2013    19      1       1.676948        226.4273
2013    19      2       1.774762        230.5483
2013    19      3       1.948058        237.3249
2013    19      4       2.272928        247.533
2013    19      5       2.423454        251.5262
2013    19      6       2.526156        254.4165
2013    19      7       2.438465        252.8851
2013    20      0       2.168848        246.0747
2013    20      1       2.102006        243.9303
2013    20      2       1.948585        237.9883
2013    20      3       1.870276        234.3827
2013    20      4       2.183615        246.0288
2013    20      5       2.778869        260.3301
2013    20      6       3.537039        269.6197
2013    20      7       3.019159        264.1789
2013    21      0       2.731436        259.8456
2013    21      1       2.92382         262.4063
2013    21      2       2.944116        262.4642
2013    21      3       2.644276        257.6616
2013    21      4       2.735272        259.8118
2013    21      5       3.262043        267.8033
2013    21      6       3.391748        268.8137
2013    21      7       2.844562        261.7011
2013    22      0       2.870162        261.9663
2013    22      1       2.74412         259.8432
2013    22      2       2.545931        255.5538
2013    22      3       2.433056        252.4842
2013    22      4       2.788811        260.1496
2013    22      5       3.479223        268.3614
2013    22      6       3.207977        264.6309
2013    22      7       2.641643        256.2426
2013    23      0       2.397143        251.1101
2013    23      1       2.584836        255.4272
2013    23      2       2.639787        256.5974
2013    23      3       2.458875        253.1436
2013    23      4       2.819135        260.5537
2013    23      5       3.387999        268.3914
2013    23      6       3.023069        264.1539
2013    23      7       2.369463        250.992
2013    24      0       2.087155        242.1939
2013    24      1       2.021841        239.8993
2013    24      2       1.693132        225.8543
2013    24      3       1.514161        216.069
2013    24      4       1.828235        232.1207
2013    24      5       2.119766        243.1279
2013    24      6       2.040327        240.4425
2013    24      7       1.471276        213.0039
2013    25      0       1.179246        190.1243
2013    25      1       1.067043        180.4687
2013    25      2       1.077762        181.9091
2013    25      3       1.071798        181.4068
2013    25      4       1.165531        190.2253
2013    25      5       1.272763        199.6184
2013    25      6       1.142184        189.4645
2013    25      7       0.7834002       152.2558
2013    26      0       0.5749034       123.9351
2013    26      1       0.5560159       120.7225
2013    26      2       0.6738493       137.357
2013    26      3       0.8380595       157.7583
2013    26      4       1.040649        178.7452
2013    26      5       1.14881         189.1234
2013    26      6       1.050035        181.2243
2013    26      7       0.804955        155.441
2013    27      0       0.5835674       125.5727
2013    27      1       0.4725164       107.7029
2013    27      2       0.4709523       107.2024
2013    27      3       0.4900856       110.1344
2013    27      4       0.7209754       144.4302
2013    27      5       1.047748        181.3068
2013    27      6       1.219555        196.6223
2013    27      7       0.838548        160.2297
2013    28      0       0.6520578       136.0688
2013    28      1       0.5489713       120.6929
2013    28      2       0.4390397       102.5762
2013    28      3       0.3837813       92.73368
2013    28      4       0.6424134       134.6136
2013    28      5       0.9061161       167.6745
2013    28      6       1.138136        190.9727
2013    28      7       0.7042024       144.1339
2013    29      0       0.4071503       97.22283
2013    29      1       0.3297004       82.50923
2013    29      2       0.2496087       66.08732
2013    29      3       0.2936872       75.43954
2013    29      4       0.5051102       114.0817
2013    29      5       0.7342435       147.769
2013    29      6       0.8950714       167.5055
2013    29      7       0.4118734       98.56743
2013    30      0       0.1592292       46.00086
2013    30      1       0.1236707       37.25849
2013    30      2       0.1590742       45.22232
2013    30      3       0.2030397       55.66824
2013    30      4       0.3508172       86.66133
2013    30      5       0.539619        120.0118
2013    30      6       0.708664        145.2383
2013    30      7       0.3681349       90.83311
2013    31      0       0.189551        52.61413
2013    31      1       0.1862407       51.8132
2013    31      2       0.2135679       57.73694
2013    31      3       0.2514643       65.66892
2013    31      4       0.4609827       106.4324
2013    31      5       0.5324522       118.1431
2013    31      6       0.5022566       113.4829
2013    31      7       0.3077568       77.02593
2014    1       0       0.4525374       105.3628
2014    1       1       0.3650074       89.3885
2014    1       2       0.2114249       57.98095
2014    1       3       0.1242935       37.82005
2014    1       4       0.1791438       50.8099
2014    1       5       0.2950872       75.85195
2014    1       6       0.3333296       83.17685
2014    1       7       0.3857961       92.30774
2014    2       0       0.4307937       100.4341
2014    2       1       0.3683143       89.58018
2014    2       2       0.2965774       75.55174
2014    2       3       0.2737888       70.67945
2014    2       4       0.4175021       98.66721
2014    2       5       0.6502953       136.1362
2014    2       6       0.7783497       153.4976
2014    2       7       0.6067593       130.2107
2014    3       0       0.3896466       93.74112
2014    3       1       0.3245491       81.30954
2014    3       2       0.2888014       73.99007
2014    3       3       0.6139993       130.3123
2014    3       4       0.9419484       171.1005
2014    3       5       1.193151        194.3641
2014    3       6       1.510047        216.5323
2014    3       7       1.349434        206.3399
2014    4       0       1.427185        211.0926
2014    4       1       1.501701        216.3036
2014    4       2       1.524335        219.002
2014    4       3       1.379881        210.0889
2014    4       4       1.476964        215.8137
2014    4       5       1.703312        227.9203
2014    4       6       1.818903        233.4524
2014    4       7       1.6317          224.4859
2014    5       0       1.580347        222.0644
2014    5       1       1.673866        226.7706
2014    5       2       2.04043         242.1692
2014    5       3       2.116399        244.4335
2014    5       4       2.29549         249.6169
2014    5       5       2.782977        260.3449
2014    5       6       2.992509        263.4102
2014    5       7       2.679948        258.5305
2014    6       0       2.460965        253.7761
2014    6       1       2.133978        243.8792
2014    6       2       1.770704        229.2147
2014    6       3       1.906594        235.7955
2014    6       4       2.248708        248.0871
2014    6       5       2.41513         253.5013
2014    6       6       2.313159        251.3979
2014    6       7       1.896379        237.219
2014    7       0       1.616937        223.343
2014    7       1       1.683974        226.1605
2014    7       2       1.896437        235.5992
2014    7       3       1.94752         237.7344
2014    7       4       2.03303         241.5076
2014    7       5       2.145215        245.7109
2014    7       6       2.235084        248.5699
2014    7       7       2.10029         244.5659
2014    8       0       1.969105        239.9913
2014    8       1       1.901065        236.7929
2014    8       2       1.711447        227.6254
2014    8       3       1.57404         220.5459
2014    8       4       1.611043        223.1226
2014    8       5       1.827579        234.1626
2014    8       6       1.89208         237.6176
2014    8       7       1.583351        223.0222
2014    9       0       1.452813        215.1006
2014    9       1       1.263732        202.1584
2014    9       2       0.8831032       166.4081
2014    9       3       0.5985365       128.1862
2014    9       4       0.8953439       166.7895
2014    9       5       1.277497        202.3117
2014    9       6       1.55827         221.6265
2014    9       7       1.351928        208.6369
2014    10      0       1.189394        195.6577
2014    10      1       1.13498         190.7298
2014    10      2       0.9953783       177.2734
2014    10      3       0.996913        177.1284
2014    10      4       1.214801        196.9521
2014    10      5       1.448352        213.9801
2014    10      6       1.618673        224.3217
2014    10      7       1.317926        205.6642
2014    11      0       0.9496327       172.8009
2014    11      1       1.011026        178.9676
2014    11      2       1.053636        183.2586
2014    11      3       1.023355        180.6467
2014    11      4       1.115842        189.1439
2014    11      5       1.357626        208.0031
2014    11      6       1.372942        208.6559
2014    11      7       1.069757        184.3498
2014    12      0       0.9134386       168.6224
2014    12      1       0.7402567       147.8655
2014    12      2       0.5669163       123.2176
2014    12      3       0.5495752       120.5336
2014    12      4       0.6746227       138.8968
2014    12      5       0.8307681       158.8214
2014    12      6       0.8690738       163.3591
2014    12      7       0.7242987       145.2627
2014    13      0       0.7636228       150.6084
2014    13      1       0.7121966       144.1376
2014    13      2       0.5465141       120.0318
2014    13      3       0.5188963       115.3791
2014    13      4       0.6327261       132.8006
2014    13      5       0.744077        148.1802
2014    13      6       0.8944895       166.5571
2014    13      7       0.8596621       162.8001
2014    14      0       0.8841733       165.6487
2014    14      1       1.053791        182.9005
2014    14      2       1.03582         181.5457
2014    14      3       0.8877355       166.2585
2014    14      4       0.9745796       175.3546
2014    14      5       1.324095        205.0661
2014    14      6       1.624243        223.5987
2014    14      7       1.580626        221.5701
2014    15      0       1.648988        225.6898
2014    15      1       1.578826        221.9661
2014    15      2       1.3838          210.0266
2014    15      3       1.276541        202.2681
2014    15      4       1.317155        205.3542
2014    15      5       1.371645        208.7283
2014    15      6       1.302266        203.2119
2014    15      7       1.190561        194.5473
2014    16      0       1.277141        201.5871
2014    16      1       1.330052        205.8507
2014    16      2       1.241439        199.5151
2014    16      3       1.195354        195.7519
2014    16      4       1.358622        208.0316
2014    16      5       1.887917        236.2717
2014    16      6       2.209871        247.6012
2014    16      7       1.977672        240.1469
2014    17      0       1.667767        226.431
2014    17      1       1.576396        220.7422
2014    17      2       1.462142        213.4404
2014    17      3       1.368169        207.296
2014    17      4       1.180906        192.9019
2014    17      5       1.28611         201.1285
2014    17      6       1.337637        205.3538
2014    17      7       1.206097        195.3313
2014    18      0       1.35834         206.4058
2014    18      1       1.541382        217.6574
2014    18      2       1.498969        214.9365
2014    18      3       1.372136        207.2621
2014    18      4       1.837818        233.2584
2014    18      5       2.524719        255.09
2014    18      6       3.048946        264.0979
2014    18      7       2.469894        254.7416
2014    19      0       1.977455        240.8248
2014    19      1       1.825736        234.3293
2014    19      2       2.045541        242.5412
2014    19      3       2.294483        249.7812
2014    19      4       3.119627        265.2058
2014    19      5       3.670258        270.9672
2014    19      6       3.543865        270.2328
2014    19      7       2.276826        249.3646
2014    20      0       1.574908        219.7644
2014    20      1       1.399928        208.3074
2014    20      2       1.191973        192.7615
2014    20      3       1.206094        194.1946
2014    20      4       1.476349        214.633
2014    20      5       1.705738        228.0101
2014    20      6       1.891667        236.5964
2014    20      7       1.551649        220.2771
2014    21      0       1.386322        209.8169
2014    21      1       1.778909        230.5076
2014    21      2       2.21914         246.1751
2014    21      3       2.453793        252.5953
2014    21      4       2.589118        256.6006
2014    21      5       2.72424         260.2867
2014    21      6       2.475231        255.4887
2014    21      7       2.079918        244.7371
2014    22      0       1.914724        238.6693
2014    22      1       2.035996        243.2375
2014    22      2       2.144251        246.6911
2014    22      3       2.060456        243.4097
2014    22      4       2.186365        247.7989
2014    22      5       2.346612        252.88
2014    22      6       2.084042        244.4352
2014    22      7       1.60618         222.9598
2014    23      0       1.704935        228.268
2014    23      1       2.119263        245.6085
2014    23      2       2.372147        253.2193
2014    23      3       2.33611         251.3285
2014    23      4       2.514666        255.7808
2014    23      5       2.801634        261.66
2014    23      6       2.769754        261.607
2014    23      7       2.162659        247.7357
2014    24      0       1.805035        233.8719
2014    24      1       1.693946        228.6336
2014    24      2       1.817624        234.8549
2014    24      3       1.8608          236.3523
2014    24      4       1.993306        241.7309
2014    24      5       2.359367        253.5993
2014    24      6       2.5879          258.9457
2014    24      7       2.340268        253.4242
2014    25      0       2.136021        247.5718
2014    25      1       1.95103         241.0113
2014    25      2       1.950066        240.1428
2014    25      3       1.814177        233.4403
2014    25      4       1.902762        237.2561
2014    25      5       2.236614        248.8397
2014    25      6       2.693598        259.6017
2014    25      7       2.80361         261.9367
2014    26      0       2.893135        264.1021
2014    26      1       2.646613        260.2309
2014    26      2       2.373437        254.1173
2014    26      3       2.204035        248.8509
2014    26      4       2.467351        256.0763
2014    26      5       3.248248        268.5855
2014    26      6       3.578619        270.9176
2014    26      7       2.798315        262.9003
2014    27      0       2.644959        260.7356
2014    27      1       2.533099        258.5797
2014    27      2       2.31784         252.7468
2014    27      3       2.172843        248.1597
2014    27      4       2.309194        252.1218
2014    27      5       2.837831        263.3091
2014    27      6       3.192885        268.1319
2014    27      7       2.655439        260.7618
2014    28      0       2.241204        250.4779
2014    28      1       2.159467        246.7959
2014    28      2       2.376217        252.1421
2014    28      3       2.523419        255.3495
2014    28      4       2.697861        259.7278
2014    28      5       2.971249        265.133
2014    28      6       3.040742        266.5118
2014    28      7       2.639522        260.2171
2014    29      0       2.586099        259.2187
2014    29      1       2.763871        262.3924
2014    29      2       2.706619        260.971
2014    29      3       2.783427        262.2265
2014    29      4       3.387231        269.9863
2014    29      5       4.088942        274.8271
2014    29      6       3.535123        271.7603
2014    29      7       3.137697        267.6244
2014    30      0       2.87209         263.6119
2014    30      1       2.307283        251.3781
2014    30      2       2.0359          242.5601
2014    30      3       2.273734        250.2614
2014    30      4       2.666243        259.6255
2014    30      5       3.206368        267.7923
2014    30      6       3.37914         269.5239
2014    30      7       2.329818        252.844
2014    31      0       1.632123        225.515
2014    31      1       1.134274        191.1563
2014    31      2       0.7724981       152.7068
2014    31      3       0.6824941       140.0807
2014    31      4       1.286106        202.7705
2014    31      5       1.868995        236.3517
2014    31      6       1.868485        236.109
2014    31      7       1.327669        205.9376
2015    1       0       1.748168        231.5648
2015    1       1       1.720678        229.8445
2015    1       2       1.550347        220.5982
2015    1       3       1.512215        218.6577
2015    1       4       1.680981        227.9946
2015    1       5       1.986961        242.0001
2015    1       6       2.130028        247.1141
2015    1       7       1.786633        233.2579
2015    2       0       1.618713        224.8122
2015    2       1       1.788083        232.5211
2015    2       2       1.798499        232.9471
2015    2       3       1.691782        227.6119
2015    2       4       1.833131        234.2442
2015    2       5       2.039634        243.1454
2015    2       6       2.042706        243.7719
2015    2       7       1.75472         231.9213
2015    3       0       1.968015        241.4224
2015    3       1       2.165103        248.0911
2015    3       2       2.080424        245.1864
2015    3       3       2.018701        243.0402
2015    3       4       2.237069        250.1066
2015    3       5       2.718385        261.6544
2015    3       6       3.051812        266.3378
2015    3       7       2.477481        256.4163
2015    4       0       2.164709        247.8301
2015    4       1       2.21138         248.9351
2015    4       2       2.15927         246.8579
2015    4       3       2.158871        246.5501
2015    4       4       2.432018        254.2956
2015    4       5       2.651295        258.7581
2015    4       6       2.681089        259.3826
2015    4       7       2.364958        251.9069
2015    5       0       2.155226        245.1383
2015    5       1       2.222442        247.023
2015    5       2       2.222883        247.2486
2015    5       3       2.091567        243.4844
2015    5       4       2.193416        247.5
2015    5       5       2.447324        254.8042
2015    5       6       2.750501        260.6596
2015    5       7       2.816628        261.2283
2015    6       0       2.514687        255.5771
2015    6       1       2.154436        245.7771
2015    6       2       1.867978        234.3603
2015    6       3       1.737093        228.415
2015    6       4       1.832915        234.0173
2015    6       5       2.503904        256.0322
2015    6       6       3.795807        272.2146
2015    6       7       3.26315         265.2661
2015    7       0       2.561116        253.9083
2015    7       1       2.718843        256.4435
2015    7       2       2.990475        260.8398
2015    7       3       2.571189        253.8976
2015    7       4       2.818621        258.7376
2015    7       5       3.258829        264.8415
2015    7       6       3.15473         263.3642
2015    7       7       2.456834        250.7515
2015    8       0       2.202419        244.323
2015    8       1       1.835961        230.8234
2015    8       2       1.955743        235.6714
2015    8       3       2.149691        243.2493
2015    8       4       2.513284        253.615
2015    8       5       2.792994        259.5512
2015    8       6       2.845964        260.9261
2015    8       7       2.571463        255.8614
2015    9       0       2.227421        246.7606
2015    9       1       2.169942        244.9071
2015    9       2       2.263778        247.9912
2015    9       3       2.502821        254.2521
2015    9       4       2.724215        259.3028
2015    9       5       3.215123        266.9845
2015    9       6       3.215092        267.1514
2015    9       7       2.593965        257.9235
2015    10      0       2.987322        264.1657
2015    10      1       2.559355        256.5209
2015    10      2       1.981445        239.0021
2015    10      3       1.994416        238.6524
2015    10      4       2.610614        256.5997
2015    10      5       3.370231        268.2796
2015    10      6       3.451576        269.0207
2015    10      7       2.580084        257.1126
2015    11      0       2.362291        251.686
2015    11      1       2.478311        254.2221
2015    11      2       2.446136        253.255
2015    11      3       2.589956        256.2985
2015    11      4       2.946791        263.2599
2015    11      5       3.52143         270.1345
2015    11      6       3.410393        268.8984
2015    11      7       2.35528         252.2857
2015    12      0       1.922683        237.7435
2015    12      1       1.605063        222.5553
2015    12      2       1.607956        222.561
2015    12      3       1.955365        238.3439
2015    12      4       2.588142        256.0914
2015    12      5       2.783242        260.8813
2015    12      6       3.44809         269.4715
2015    12      7       3.166385        266.0697
2015    13      0       2.867868        262.1794
2015    13      1       3.000831        264.4486
2015    13      2       3.039598        264.1884
2015    13      3       3.058363        263.624
2015    13      4       3.080073        264.0367
2015    13      5       4.230827        273.3506
2015    13      6       3.180082        264.8865
2015    13      7       2.638145        256.6172
2015    14      0       2.676818        256.5733
2015    14      1       2.692826        258.0668
2015    14      2       2.996214        262.8245
2015    14      3       2.830677        259.845
2015    14      4       2.517023        253.7506
2015    14      5       2.557506        255.0944
2015    14      6       2.437899        252.7887
2015    14      7       2.293629        249.5965
2015    15      0       2.162444        245.7945
2015    15      1       1.959749        238.8831
2015    15      2       1.712144        228.633
2015    15      3       1.319167        205.2241
2015    15      4       1.38908         209.7207
2015    15      5       1.541234        219.1442
2015    15      6       1.191032        194.9018
2015    15      7       0.765973        150.5042
2015    16      0       0.6123919       129.2044
2015    16      1       0.566438        122.241
2015    16      2       0.5262096       115.8595
2015    16      3       0.5319368       117.163
2015    16      4       0.5902603       126.683
2015    16      5       0.6432084       134.9635
2015    16      6       0.5779925       125.7062
2015    16      7       0.3940189       94.83499
2015    17      0       0.4139577       98.39275
2015    17      1       0.4196534       99.33871
2015    17      2       0.3706991       90.45426
2015    17      3       0.3943837       94.26038
2015    17      4       0.7410925       146.0614
2015    17      5       1.019417        177.1181
2015    17      6       1.066211        182.0063
2015    17      7       0.764406        150.2888
2015    18      0       0.6668908       137.0457
2015    18      1       0.647388        133.7022
2015    18      2       0.6497825       134.2817
2015    18      3       0.5600462       121.8531
2015    18      4       0.7193991       144.7325
2015    18      5       1.069487        183.4869
2015    18      6       1.054271        182.393
2015    18      7       0.4623304       105.8605
2015    19      0       0.3977006       94.41948
2015    19      1       0.3897566       93.11331
2015    19      2       0.3582483       87.15667
2015    19      3       0.4741408       108.2245
2015    19      4       0.832748        159.2022
2015    19      5       1.391649        208.9343
2015    19      6       1.561257        219.5182
2015    19      7       1.386988        209.1021
2015    20      0       1.744191        229.2793
2015    20      1       2.204777        246.1185
2015    20      2       2.60019         255.4463
2015    20      3       2.613439        255.5751
2015    20      4       2.327279        248.0226
2015    20      5       2.270474        246.5072
2015    20      6       2.513936        253.2677
2015    20      7       2.688152        258.0493
2015    21      0       2.809955        259.9097
2015    21      1       2.665894        257.522
2015    21      2       2.525796        254.1901
2015    21      3       2.483497        252.3207
2015    21      4       2.304253        247.7395
2015    21      5       2.455565        252.3077
2015    21      6       2.623015        256.4461
2015    21      7       2.359222        250.571
2015    22      0       2.495797        254.2188
2015    22      1       2.519298        254.8281
2015    22      2       1.9949          239.3032
2015    22      3       1.775058        230.1699
2015    22      4       1.927898        236.0288
2015    22      5       2.169754        244.7001
2015    22      6       1.948582        237.1769
2015    22      7       1.513814        216.1775
2015    23      0       1.108709        186.0358
2015    23      1       1.004905        176.3904
2015    23      2       0.9841077       174.7553
2015    23      3       1.105743        186.1946
2015    23      4       1.351795        205.2691
2015    23      5       1.589736        219.9673
2015    23      6       1.406024        208.7531
2015    23      7       0.9261116       168.0162
2015    24      0       0.6673137       135.9936
2015    24      1       0.4186618       96.82802
2015    24      2       0.3571325       85.63264
2015    24      3       0.3666442       87.65672
2015    24      4       0.4475861       103.0686
2015    24      5       0.6227553       131.4932
2015    24      6       0.5297947       117.2947
2015    24      7       0.4028088       95.37148
2015    25      0       0.3667659       89.08839
2015    25      1       0.3498593       86.04097
2015    25      2       0.3282792       81.77645
2015    25      3       0.3055543       77.36896
2015    25      4       0.3934529       94.28331
2015    25      5       0.5093684       114.3676
2015    25      6       0.5345089       118.5352
2015    25      7       0.3300695       81.90718
2015    26      0       0.3083703       77.23061
2015    26      1       0.3352368       82.37752
2015    26      2       0.3339641       82.64964
2015    26      3       0.3333279       82.69302
2015    26      4       0.4169732       98.61828
2015    26      5       0.6005082       128.9181
2015    26      6       0.7253378       146.587
2015    26      7       0.4226647       99.62338
2015    27      0       0.4026444       95.6696
2015    27      1       0.3718247       89.59964
2015    27      2       0.2804935       71.16748
2015    27      3       0.2672209       68.53086
2015    27      4       0.5174022       115.3145
2015    27      5       0.7774352       152.4672
2015    27      6       0.8729473       164.24
2015    27      7       0.5911185       127.4101
2015    28      0       0.5071421       113.4051
2015    28      1       0.7299688       144.7349
2015    28      2       1.0439          180.1884
2015    28      3       1.63977         224.4081
2015    28      4       2.179592        246.3379
2015    28      5       2.745671        259.254
2015    28      6       2.684425        258.2881
2015    28      7       2.798816        259.7356
2015    29      0       2.156186        245.2129
2015    29      1       2.095055        242.6902
2015    29      2       2.330782        249.8529
2015    29      3       2.364374        250.769
2015    29      4       2.137116        244.532
2015    29      5       2.03191         241.3011
2015    29      6       2.185197        246.2274
2015    29      7       2.170004        245.8414
2015    30      0       2.049041        241.7382
2015    30      1       2.102681        243.599
2015    30      2       2.037819        241.7737
2015    30      3       1.838233        234.3572
2015    30      4       1.802935        233.034
2015    30      5       2.168627        246.1534
2015    30      6       2.624984        257.8062
2015    30      7       2.847015        261.7641
2015    31      0       2.251928        248.8458
2015    31      1       1.764281        230.6924
2015    31      2       1.141999        189.9622
2015    31      3       1.064748        182.2231
2015    31      4       1.604952        221.2869
2015    31      5       1.98537         238.5145
2015    31      6       1.759388        228.9944
2015    31      7       1.068117        181.5047
2016    1       0       2.066651        243.5628
2016    1       1       1.852146        234.8332
2016    1       2       1.789033        231.9709
2016    1       3       1.778182        231.5763
2016    1       4       1.746248        229.9214
2016    1       5       2.072915        243.0744
2016    1       6       2.402622        252.5621
2016    1       7       2.134017        245.0609
2016    2       0       1.741912        229.8345
2016    2       1       1.538267        219.1658
2016    2       2       1.539798        219.1106
2016    2       3       1.528732        218.6992
2016    2       4       1.748514        230.5994
2016    2       5       2.229777        248.8773
2016    2       6       2.589944        258.0163
2016    2       7       2.066909        244.3326
2016    3       0       1.843563        235.6174
2016    3       1       1.8019          233.8197
2016    3       2       1.768028        232.2559
2016    3       3       1.786403        232.6769
2016    3       4       2.106271        245.5054
2016    3       5       2.4795          256.4246
2016    3       6       2.83521         263.3635
2016    3       7       2.707072        261.2214
2016    4       0       2.321296        252.0486
2016    4       1       2.186272        247.2177
2016    4       2       2.174213        246.5045
2016    4       3       2.124876        244.883
2016    4       4       2.295047        250.7515
2016    4       5       2.823335        262.6855
2016    4       6       3.392441        268.6551
2016    4       7       2.969493        263.9552
2016    5       0       1.870072        234.7674
2016    5       1       1.567784        219.0386
2016    5       2       1.424452        211.0509
2016    5       3       1.214406        196.4384
2016    5       4       1.25118         199.5942
2016    5       5       1.357536        207.4309
2016    5       6       1.312591        204.1667
2016    5       7       1.125335        189.4535
2016    6       0       0.8638934       162.891
2016    6       1       0.7425195       147.5886
2016    6       2       0.8466709       160.4616
2016    6       3       0.9689934       174.2199
2016    6       4       1.149615        191.2394
2016    6       5       1.319618        204.3079
2016    6       6       1.296675        201.6735
2016    6       7       1.321455        203.6007
2016    7       0       1.480943        215.7073
2016    7       1       1.544047        220.0924
2016    7       2       1.588131        222.7759
2016    7       3       1.605787        224.0624
2016    7       4       1.720932        230.1355
2016    7       5       2.151406        246.9189
2016    7       6       2.560072        257.1185
2016    7       7       2.255804        249.8964
2016    8       0       1.940111        239.6004
2016    8       1       1.800512        233.1673
2016    8       2       1.737832        229.9904
2016    8       3       1.719524        229.2214
2016    8       4       1.896242        237.0336
2016    8       5       2.330627        251.4719
2016    8       6       2.884376        262.0498
2016    8       7       2.7581          259.7875
2016    9       0       2.541419        255.5899
2016    9       1       2.232271        247.4585
2016    9       2       1.969336        238.3487
2016    9       3       1.842233        233.2445
2016    9       4       1.977375        239.3966
2016    9       5       2.216366        248.0108
2016    9       6       1.97841         239.9652
2016    9       7       1.586219        222.2956
2016    10      0       1.492498        216.4833
2016    10      1       1.635146        223.8215
2016    10      2       1.647587        224.08
2016    10      3       1.51367         217.0456
2016    10      4       1.507941        216.5145
2016    10      5       1.574884        220.2325
2016    10      6       1.459381        213.6664
2016    10      7       1.408337        210.6954
2016    11      0       1.278996        201.7433
2016    11      1       1.088876        186.6847
2016    11      2       0.8735043       164.6448
2016    11      3       0.6993015       142.7073
2016    11      4       0.6789248       140.1373
2016    11      5       0.7309367       147.2429
2016    11      6       0.7866971       154.5112
2016    11      7       0.653318        136.8864
2016    12      0       0.5654895       123.4537
2016    12      1       0.5697803       123.9398
2016    12      2       0.6020493       128.6686
2016    12      3       0.6700824       138.7102
2016    12      4       0.8157344       157.6741
2016    12      5       0.9737071       175.8399
2016    12      6       1.151668        193.3362
2016    12      7       1.134135        192.4269
2016    13      0       1.00212         179.448
2016    13      1       0.9565517       174.2082
2016    13      2       0.8501505       162.4054
2016    13      3       0.8260366       159.8216
2016    13      4       1.316566        207.2541
2016    13      5       1.877989        238.6775
2016    13      6       2.197024        249.882
2016    13      7       2.220627        250.8356
2016    14      0       2.40269         256.3087
2016    14      1       2.114062        247.2734
2016    14      2       1.849277        236.8235
2016    14      3       1.855051        236.6467
2016    14      4       2.10131         246.2573
2016    14      5       2.603012        259.7401
2016    14      6       3.170602        268.4598
2016    14      7       3.128627        267.6513
2016    15      0       2.492961        256.7742
2016    15      1       2.025175        242.7405
2016    15      2       2.37596         252.0986
2016    15      3       3.046336        264.9587
2016    15      4       2.686483        259.9444
2016    15      5       3.060772        266.3587
2016    15      6       3.231374        268.1706
2016    15      7       2.88247         263.2769
2016    16      0       2.224108        248.7476
2016    16      1       2.101417        244.5299
2016    16      2       2.011925        241.2417
2016    16      3       1.936813        238.2452
2016    16      4       2.40649         252.4608
2016    16      5       3.468952        269.3054
2016    16      6       3.665009        270.8901
2016    16      7       2.305243        250.7578
2016    17      0       1.720201        228.9593
2016    17      1       1.984508        239.756
2016    17      2       2.106316        243.8139
2016    17      3       1.927385        236.9981
2016    17      4       2.276962        249.1476
2016    17      5       2.826712        261.6813
2016    17      6       2.952995        263.6851
2016    17      7       2.299923        250.015
2016    18      0       2.095133        243.1813
2016    18      1       1.910507        235.853
2016    18      2       1.708153        226.6964
2016    18      3       1.350444        204.7625
2016    18      4       1.420452        210.1041
2016    18      5       1.438465        211.9009
2016    18      6       1.479539        214.9502
2016    18      7       1.450683        213.5668
2016    19      0       1.49895         217.5853
2016    19      1       1.653873        225.962
2016    19      2       2.041299        243.5153
2016    19      3       1.618117        224.3705
2016    19      4       1.596618        222.6056
2016    19      5       1.808737        233.1832
2016    19      6       1.973902        239.8973
2016    19      7       1.902603        237.2967
2016    20      0       1.904341        237.5289
2016    20      1       2.017926        241.8979
2016    20      2       2.219709        248.6658
2016    20      3       2.297333        250.8936
2016    20      4       2.392446        253.6834
2016    20      5       2.897914        263.9381
2016    20      6       3.247483        267.9258
2016    20      7       2.65878         259.3931
2016    21      0       2.440985        255.0998
2016    21      1       2.289661        251.1429
2016    21      2       2.282637        250.7405
2016    21      3       2.352552        252.2583
2016    21      4       2.384014        253.2452
2016    21      5       2.710455        260.8114
2016    21      6       3.408174        270.0235
2016    21      7       2.937025        264.4354
2016    22      0       2.717797        261.1426
2016    22      1       2.606778        258.992
2016    22      2       2.580375        257.9771
2016    22      3       2.677074        259.2696
2016    22      4       2.951467        263.7118
2016    22      5       3.240323        267.5871
2016    22      6       3.45561         269.5324
2016    22      7       3.25967         267.3322
2016    23      0       2.731974        258.9803
2016    23      1       2.373521        250.1785
2016    23      2       2.251576        246.7711
2016    23      3       2.060888        241.1369
2016    23      4       2.105286        243.6781
2016    23      5       2.411401        253.4564
2016    23      6       2.765169        261.2791
2016    23      7       2.468796        255.7497
2016    24      0       2.143842        246.8904
2016    24      1       2.027119        242.6869
2016    24      2       1.900711        237.9041
2016    24      3       1.793586        233.3249
2016    24      4       1.977696        240.7674
2016    24      5       2.686044        259.3898
2016    24      6       3.597954        270.3907
2016    24      7       2.649175        259.0763
2016    25      0       2.4874          255.1854
2016    25      1       2.433316        253.5405
2016    25      2       2.420757        253.3889
2016    25      3       2.501658        255.3155
2016    25      4       2.892281        262.5192
2016    25      5       3.420588        268.9547
2016    25      6       3.414622        268.7026
2016    25      7       2.315135        250.921
2016    26      0       2.162052        246.0156
2016    26      1       2.236667        247.5683
2016    26      2       2.27811         248.4538
2016    26      3       2.265965        248.2583
2016    26      4       2.498263        253.9997
2016    26      5       3.091125        264.2003
2016    26      6       3.270447        266.4621
2016    26      7       2.765227        259.9157
2016    27      0       2.313932        249.7216
2016    27      1       2.161892        244.9499
2016    27      2       2.31598         248.1195
2016    27      3       2.276211        246.7888
2016    27      4       2.480325        251.9376
2016    27      5       2.818503        259.1577
2016    27      6       2.938584        261.3832
2016    27      7       2.429723        252.4427
2016    28      0       2.502659        254.0534
2016    28      1       2.644376        256.6945
2016    28      2       2.441554        252.0148
2016    28      3       2.203529        245.8255
2016    28      4       2.382142        250.9374
2016    28      5       2.771225        259.3691
2016    28      6       2.842002        260.4122
2016    28      7       2.475473        253.1938
2016    29      0       2.438057        252.686
2016    29      1       2.47033         253.5256
2016    29      2       2.446982        252.8129
2016    29      3       2.411851        251.7804
2016    29      4       2.975274        262.5726
2016    29      5       3.799392        270.7606
2016    29      6       3.602577        268.9763
2016    29      7       3.423192        268.1425
2016    30      0       2.300606        250.0548
2016    30      1       1.814609        233.2151
2016    30      2       1.648503        225.0837
2016    30      3       1.695182        227.1775
2016    30      4       2.101001        243.7651
2016    30      5       2.608782        257.2596
2016    30      6       3.140154        265.7345
2016    30      7       2.45508         254.1431
2016    31      0       1.93662         237.5594
2016    31      1       1.807939        231.3701
2016    31      2       1.667401        224.5044
2016    31      3       1.649995        223.6623
2016    31      4       1.961238        237.451
2016    31      5       2.149324        243.9509
2016    31      6       2.058952        241.289
2016    31      7       1.525346        217.2078
2017    1       0       1.269199        198.8358
2017    1       1       1.267963        199.2398
2017    1       2       1.219985        195.6652
2017    1       3       1.207145        194.4708
2017    1       4       1.280077        199.2846
2017    1       5       1.312784        202.2193
2017    1       6       1.309829        202.5322
2017    1       7       1.251708        198.2327
2017    2       0       1.184363        193.0254
2017    2       1       0.9730898       173.7755
2017    2       2       0.9359027       170.1201
2017    2       3       1.040841        180.7428
2017    2       4       1.145086        189.7869
2017    2       5       1.335593        205.2636
2017    2       6       1.503412        216.5815
2017    2       7       1.418376        211.3066
2017    3       0       1.498046        216.1647
2017    3       1       1.795416        231.9557
2017    3       2       1.940117        238.4791
2017    3       3       1.937977        238.4352
2017    3       4       2.105431        244.5034
2017    3       5       2.272758        249.8949
2017    3       6       2.423867        254.0148
2017    3       7       2.24564         249.2987
2017    4       0       1.980491        240.4794
2017    4       1       1.85575         235.4636
2017    4       2       1.883189        236.865
2017    4       3       1.936717        238.5652
2017    4       4       2.11121         244.5299
2017    4       5       2.614676        258.1069
2017    4       6       3.050378        265.0805
2017    4       7       2.955138        263.6966
2017    5       0       2.877934        261.9804
2017    5       1       2.425732        253.4659
2017    5       2       2.256976        249.9523
2017    5       3       2.335846        252.4307
2017    5       4       2.57638         258.1487
2017    5       5       3.010211        265.2649
2017    5       6       2.597005        258.4451
2017    5       7       2.192926        247.7173
2017    6       0       1.84164         233.6193
2017    6       1       1.659669        224.5082
2017    6       2       1.563304        219.3206
2017    6       3       1.588602        221.0075
2017    6       4       1.890667        236.1764
2017    6       5       2.627166        257.8679
2017    6       6       3.035037        263.7623
2017    6       7       2.385263        251.9144
2017    7       0       2.070503        242.2972
2017    7       1       1.947517        237.4025
2017    7       2       2.085224        241.9343
2017    7       3       2.350752        249.6243
2017    7       4       2.361671        249.9215
2017    7       5       2.300297        248.8787
2017    7       6       2.466075        253.1835
2017    7       7       2.557558        255.0808
2017    8       0       2.585342        255.5429
2017    8       1       2.306349        248.7982
2017    8       2       1.939123        237.2134
2017    8       3       1.730332        228.4498
2017    8       4       1.807132        231.657
2017    8       5       1.942969        237.0188
2017    8       6       1.762291        229.1668
2017    8       7       1.561455        218.7641
2017    9       0       1.514427        215.7435
2017    9       1       1.600327        220.1736
2017    9       2       1.483967        213.4947
2017    9       3       1.277515        199.6145
2017    9       4       1.349086        205.0245
2017    9       5       1.623019        221.9827
2017    9       6       1.851351        232.7339
2017    9       7       1.703357        225.5563
2017    10      0       1.597326        220.0565
2017    10      1       1.453452        212.511
2017    10      2       1.228285        196.4848
2017    10      3       1.20123         194.8124
2017    10      4       1.356439        207.0604
2017    10      5       1.270883        200.3094
2017    10      6       1.137094        189.285
2017    10      7       1.140069        189.6454
2017    11      0       1.276362        201.0524
2017    11      1       1.093045        186.0211
2017    11      2       0.8460273       160.9667
2017    11      3       0.7045697       143.1094
2017    11      4       0.8136442       156.5528
2017    11      5       0.9375779       170.617
2017    11      6       0.954108        172.5835
2017    11      7       0.8153936       157.6162
2017    12      0       0.8371168       160.3996
2017    12      1       0.9676362       174.865
2017    12      2       0.9441447       172.1971
2017    12      3       0.7270945       146.4079
2017    12      4       0.8423179       160.3637
2017    12      5       1.068558        183.7495
2017    12      6       1.211134        196.5414
2017    12      7       1.13477         190.7094
2017    13      0       1.158547        192.4413
2017    13      1       1.119645        188.8099
2017    13      2       1.220068        197.7275
2017    13      3       1.305425        204.4068
2017    13      4       1.522691        218.3439
2017    13      5       1.915026        237.3085
2017    13      6       2.174618        246.8297
2017    13      7       1.726025        230.0383
2017    14      0       1.305743        204.6095
2017    14      1       0.9520378       172.9438
2017    14      2       0.4450894       102.8391
2017    14      3       0.3640697       87.77346
2017    14      4       0.6483184       135.1582
2017    14      5       0.8854467       165.5587
2017    14      6       1.14256         192.0299
2017    14      7       1.011309        180.1505
2017    15      0       0.7365151       148.4691
2017    15      1       0.555898        122.3942
2017    15      2       0.4194181       99.1101
2017    15      3       0.4576117       106.0905
2017    15      4       0.6204977       132.2451
2017    15      5       0.8829197       166.5167
2017    15      6       1.150004        193.818
2017    15      7       0.7389625       149.3667
2017    16      0       0.591427        127.691
2017    16      1       0.6221493       132.3963
2017    16      2       0.5551965       121.8781
2017    16      3       0.8307774       159.7986
2017    16      4       1.139521        191.6476
2017    16      5       1.672384        227.2707
2017    16      6       2.200807        249.1167
2017    16      7       1.921715        239.9942
2017    17      0       1.475554        217.4579
2017    17      1       1.116056        190.4757
2017    17      2       1.097213        187.8534
2017    17      3       1.368515        209.3964
2017    17      4       1.531354        219.9997
2017    17      5       1.975564        241.0676
2017    17      6       2.477596        256.2874
2017    17      7       2.003906        242.8621
2017    18      0       1.700237        229.7083
2017    18      1       1.601783        224.2272
2017    18      2       1.46708         216.2449
2017    18      3       1.481838        217.054
2017    18      4       1.684844        228.2174
2017    18      5       2.41316         254.3022
2017    18      6       3.040379        265.2112
2017    18      7       2.439581        254.5497
2017    19      0       2.008918        242.1436
2017    19      1       1.9417          239.4545
2017    19      2       1.911804        237.9157
2017    19      3       1.777807        232.226
2017    19      4       1.840751        235.5293
2017    19      5       2.493477        256.087
2017    19      6       3.225776        267.3843
2017    19      7       2.846123        261.9178
2017    20      0       2.252904        248.6352
2017    20      1       2.083738        243.5187
2017    20      2       2.238414        248.347
2017    20      3       2.272667        249.4676
2017    20      4       2.311223        250.7968
2017    20      5       2.733918        260.2299
2017    20      6       2.948485        263.7191
2017    20      7       2.386471        253.0624
2017    21      0       2.272568        249.7326
2017    21      1       2.029797        242.0789
2017    21      2       2.061904        242.6616
2017    21      3       2.118459        244.3067
2017    21      4       2.349245        251.3549
2017    21      5       2.899365        262.3487
2017    21      6       3.102622        264.5402
2017    21      7       2.382572        251.2785
2017    22      0       2.261193        247.1821
2017    22      1       2.551199        255.0858
2017    22      2       2.334418        250.0149
2017    22      3       2.225231        247.0452
2017    22      4       2.496175        254.4233
2017    22      5       2.891753        261.7673
2017    22      6       2.766416        258.7677
2017    22      7       1.933022        235.3663
2017    23      0       1.984663        239.3784
2017    23      1       2.21512         247.8442
2017    23      2       2.239761        248.742
2017    23      3       2.052125        242.2435
2017    23      4       2.687241        258.7935
2017    23      5       3.360778        268.6519
2017    23      6       3.306647        267.2999
2017    23      7       2.77461         259.671
2017    24      0       2.177032        245.8716
2017    24      1       2.369669        250.6471
2017    24      2       2.628252        256.3208
2017    24      3       2.305668        248.8423
2017    24      4       2.336476        249.2671
2017    24      5       2.74929         257.933
2017    24      6       2.846964        259.9028
2017    24      7       2.582961        255.1708
2017    25      0       2.448544        252.3725
2017    25      1       2.292889        248.3435
2017    25      2       2.297777        248.3557
2017    25      3       2.219564        246.0449
2017    25      4       2.291847        247.8343
2017    25      5       2.496264        252.859
2017    25      6       2.739668        257.6315
2017    25      7       2.287152        247.716
2017    26      0       2.244559        246.3265
2017    26      1       2.417397        250.7613
2017    26      2       2.454335        251.025
2017    26      3       2.299561        246.8215
2017    26      4       2.368708        247.8251
2017    26      5       2.37088         247.8656
2017    26      6       2.187457        243.0089
2017    26      7       2.024714        238.3346
2017    27      0       2.150192        243.0834
2017    27      1       2.474732        250.9477
2017    27      2       2.482406        250.3723
2017    27      3       2.56919         252.2426
2017    27      4       2.52851         252.0481
2017    27      5       3.077603        262.1796
2017    27      6       3.338704        265.683
2017    27      7       3.156226        263.3414
2017    28      0       2.18924         242.7792
2017    28      1       1.968884        234.6216
2017    28      2       2.246471        244.5647
2017    28      3       2.014252        238.318
2017    28      4       2.049492        240.1553
2017    28      5       2.236888        246.7056
2017    28      6       1.750712        228.9597
2017    28      7       0.7929731       153.1318
2017    29      0       0.6352973       131.7594
2017    29      1       0.679209        138.1006
2017    29      2       0.6123202       128.6683
2017    29      3       0.593601        125.3718
2017    29      4       0.6575932       134.2848
2017    29      5       0.7291684       144.3773
2017    29      6       0.7106346       141.8335
2017    29      7       0.5751666       122.5958
2017    30      0       0.4876546       108.4756
2017    30      1       0.5102027       112.2129
2017    30      2       0.467146        105.7199
2017    30      3       0.5129623       113.3483
2017    30      4       0.6976048       140.8064
2017    30      5       0.9313607       169.9688
2017    30      6       0.6625451       138.1034
2017    30      7       0.5096442       114.7255
2017    31      0       0.4800165       109.4854
2017    31      1       0.524812        116.5482
2017    31      2       0.6396578       133.5757
2017    31      3       0.6582789       136.1435
2017    31      4       0.8287812       158.3159
2017    31      5       1.021544        179.4763
2017    31      6       1.130691        189.9773
2017    31      7       1.04521         182.2776
2018    1       0       1.797104        233.9883
2018    1       1       1.751296        231.0115
2018    1       2       1.503744        217.8267
2018    1       3       1.309934        205.0083
2018    1       4       1.599837        223.8032
2018    1       5       2.039799        243.681
2018    1       6       2.208608        248.8505
2018    1       7       1.899037        237.6694
2018    2       0       1.879884        237.1681
2018    2       1       2.074355        245.1009
2018    2       2       1.967184        241.4255
2018    2       3       1.84188         235.9845
2018    2       4       2.122538        246.1455
2018    2       5       2.65294         260.0688
2018    2       6       3.119123        267.1669
2018    2       7       2.873657        263.2835
2018    3       0       2.771929        261.2881
2018    3       1       2.845247        262.6161
2018    3       2       2.701444        260.4337
2018    3       3       2.030854        243.32
2018    3       4       2.166019        248.0675
2018    3       5       2.711941        261.5772
2018    3       6       2.790477        262.7316
2018    3       7       2.325783        252.4357
2018    4       0       1.727288        230.6009
2018    4       1       1.521181        219.484
2018    4       2       1.576635        222.7001
2018    4       3       1.632902        225.8467
2018    4       4       1.701609        229.3055
2018    4       5       2.133888        246.4245
2018    4       6       2.77234         261.3484
2018    4       7       2.52536         255.5658
2018    5       0       2.180669        246.7153
2018    5       1       2.085596        243.2433
2018    5       2       2.051801        242.2342
2018    5       3       2.036059        241.3644
2018    5       4       2.242053        248.2977
2018    5       5       2.854104        261.9486
2018    5       6       3.211109        265.7671
2018    5       7       2.45528         252.987
2018    6       0       2.056885        242.3013
2018    6       1       1.889983        236.6794
2018    6       2       1.808418        233.1998
2018    6       3       1.804935        232.8883
2018    6       4       2.114822        244.9682
2018    6       5       2.572132        257.5344
2018    6       6       2.957502        263.799
2018    6       7       2.41734         253.5271
2018    7       0       1.889611        237.0858
2018    7       1       1.810835        233.6067
2018    7       2       1.772913        231.7956
2018    7       3       1.825109        233.7695
2018    7       4       2.273092        249.5803
2018    7       5       3.099646        265.8349
2018    7       6       3.653939        270.501
2018    7       7       3.486531        268.8835
2018    8       0       3.162076        266.055
2018    8       1       2.630724        258.2622
2018    8       2       2.199289        247.864
2018    8       3       2.115353        245.6133
2018    8       4       2.40841         254.4207
2018    8       5       3.481236        271.1664
2018    8       6       4.064159        274.303
2018    8       7       2.976697        264.9488
2018    9       0       2.240688        250.4257
2018    9       1       1.63144         226.4447
2018    9       2       1.029065        181.9137
2018    9       3       0.9539414       174.3725
2018    9       4       1.70059         229.7275
2018    9       5       2.461337        256.3231
2018    9       6       2.722287        261.3565
2018    9       7       1.798287        234.52
2018    10      0       1.202374        197.2244
2018    10      1       1.122212        189.9328
2018    10      2       1.018923        180.4314
2018    10      3       1.42467         213.3341
2018    10      4       1.960527        240.178
2018    10      5       2.758382        260.8992
2018    10      6       3.183862        267.3741
2018    10      7       2.882692        263.9227
2018    11      0       3.448843        269.377
2018    11      1       3.10821         266.5729
2018    11      2       3.510002        270.1773
2018    11      3       3.045506        265.2514
2018    11      4       4.003611        273.1033
2018    11      5       4.112606        273.0824
2018    11      6       3.717973        270.5189
2018    11      7       3.26959         266.5999
2018    12      0       2.787865        259.8502
2018    12      1       2.276975        248.2381
2018    12      2       1.678601        226.8027
2018    12      3       1.460092        214.857
2018    12      4       2.173818        246.7014
2018    12      5       3.535385        270.4194
2018    12      6       4.012285        273.449
2018    12      7       3.181618        267.0111
2018    13      0       2.849225        263.2269
2018    13      1       3.081246        266.6749
2018    13      2       3.091724        266.675
2018    13      3       3.308862        268.8112
2018    13      4       4.390854        275.7767
2018    13      5       4.566761        276.3651
2018    13      6       4.38623         275.4602
2018    13      7       3.708173        272.0643
2018    14      0       3.839058        272.9692
2018    14      1       3.352367        269.9363
2018    14      2       2.916464        265.0244
2018    14      3       2.519484        257.8071
2018    14      4       3.148844        268.3357
2018    14      5       3.689965        273.7125
2018    14      6       3.454656        271.3384
2018    14      7       2.830725        264.0744
2018    15      0       2.686445        261.8838
2018    15      1       2.848222        265.2608
2018    15      2       2.531276        258.4585
2018    15      3       2.375567        254.3573
2018    15      4       2.653479        260.888
2018    15      5       2.774946        263.5679
2018    15      6       2.169628        248.4565
2018    15      7       1.545814        221.6038
2018    16      0       1.454514        215.8997
2018    16      1       1.465832        216.2639
2018    16      2       1.387198        211.0673
2018    16      3       1.207797        197.6709
2018    16      4       1.231498        199.5745
2018    16      5       1.351527        208.566
2018    16      6       1.203771        197.253
2018    16      7       0.8303344       160.5685
2018    17      0       0.7771631       153.6754
2018    17      1       1.006998        179.4373
2018    17      2       1.039859        182.7985
2018    17      3       1.028898        181.9296
2018    17      4       1.582382        222.9579
2018    17      5       2.394697        254.259
2018    17      6       2.926407        264.1772
2018    17      7       2.516695        256.957
2018    18      0       2.071207        244.9584
2018    18      1       1.697194        229.0329
2018    18      2       1.121915        190.367
2018    18      3       0.78594         155.0037
2018    18      4       1.194013        196.3804
2018    18      5       1.464715        215.4468
2018    18      6       1.224389        197.7519
2018    18      7       0.9003366       167.3968
2018    19      0       0.7681182       151.9439
2018    19      1       0.8949973       167.3319
2018    19      2       0.8675635       164.2097
2018    19      3       0.8143817       157.5828
2018    19      4       1.122324        189.2292
2018    19      5       1.453153        214.1494
2018    19      6       1.562441        220.7549
2018    19      7       1.34492         207.4884
2018    20      0       1.0204          180.2336
2018    20      1       0.8765206       164.4982
2018    20      2       0.9994504       177.8147
2018    20      3       0.9341885       170.9601
2018    20      4       1.04509         181.8498
2018    20      5       1.226596        197.2947
2018    20      6       1.314874        203.9857
2018    20      7       1.217217        196.3995
2018    21      0       1.257786        199.626
2018    21      1       1.332946        204.8567
2018    21      2       1.426472        210.8885
2018    21      3       1.484459        214.3884
2018    21      4       1.311576        202.952
2018    21      5       1.285894        201.6388
2018    21      6       1.414386        211.0861
2018    21      7       1.219933        197.0518
2018    22      0       1.019873        179.3093
2018    22      1       0.9023492       166.8732
2018    22      2       0.9537905       171.9674
2018    22      3       1.234441        197.2911
2018    22      4       1.439554        211.8493
2018    22      5       1.504423        216.3354
2018    22      6       1.546189        219.1143
2018    22      7       1.562843        220.9085
2018    23      0       1.711369        230.1314
2018    23      1       1.269724        201.913
2018    23      2       1.100195        187.6754
2018    23      3       1.016201        179.4636
2018    23      4       0.9540679       172.914
2018    23      5       0.8304984       159.1459
2018    23      6       0.6861809       140.9296
2018    23      7       0.3198698       80.07779
2018    24      0       0.2963784       75.00813
2018    24      1       0.3262573       81.10239
2018    24      2       0.3258992       81.56495
2018    24      3       0.3380802       84.19187
2018    24      4       0.6653115       138.4438
2018    24      5       0.9277527       170.7797
2018    24      6       0.8952517       167.3901
2018    24      7       0.6389501       135.212
2018    25      0       0.6780383       140.1445
2018    25      1       0.7692318       151.3748
2018    25      2       0.8229778       157.3603
2018    25      3       1.030864        179.8495
2018    25      4       1.607067        222.8025
2018    25      5       2.159267        246.6322
2018    25      6       2.258408        249.9269
2018    25      7       2.005144        242.1079
2018    26      0       1.768312        232.3774
2018    26      1       1.509665        218.1143
2018    26      2       1.258915        200.7031
2018    26      3       1.200873        195.9284
2018    26      4       1.469442        215.2278
2018    26      5       1.678448        227.0368
2018    26      6       1.725053        229.027
2018    26      7       1.546729        219.4948
2018    27      0       1.474748        215.0714
2018    27      1       1.871634        235.2954
2018    27      2       2.171966        245.7845
2018    27      3       2.154172        244.9867
2018    27      4       2.479545        253.7057
2018    27      5       3.069376        264.3593
2018    27      6       3.315757        266.9259
2018    27      7       2.308674        249.4407
2018    28      0       2.073085        241.7726
2018    28      1       2.356907        250.1746
2018    28      2       2.666154        255.8617
2018    28      3       1.757811        227.593
2018    28      4       1.931263        235.7067
2018    28      5       2.62299         255.7262
2018    28      6       2.817995        259.5051
2018    28      7       2.034066        240.6363
2018    29      0       1.647219        224.3198
2018    29      1       1.659048        224.7267
2018    29      2       1.718492        227.3817
2018    29      3       1.659275        224.5337
2018    29      4       1.729681        227.9072
2018    29      5       1.871291        234.5305
2018    29      6       1.539085        218.318
2018    29      7       1.253459        199.3734
2018    30      0       0.896791        166.5004
2018    30      1       0.7156901       144.4737
2018    30      2       0.6709016       138.4515
2018    30      3       0.6137475       130.1359
2018    30      4       0.778811        152.0159
2018    30      5       1.009052        177.4682
2018    30      6       1.031943        180.0105
2018    30      7       0.8445716       160.8018
2018    31      0       0.7772452       152.6088
2018    31      1       0.8398505       160.1219
2018    31      2       0.7310448       146.5786
2018    31      3       0.9264148       169.4504
2018    31      4       1.486897        214.9406
2018    31      5       1.933293        236.5775
2018    31      6       1.928622        236.4737
2018    31      7       1.481497        214.748
