####################################################################################################
# Month: 04Apr                                                                                     #
# Station: PAR                                                                                     #
# Frequency: 345 GHz                                                                               #
# Columns are: year    day     segment         tau     Tb (K)                                      #
####################################################################################################
2009    1       0       0.5628978       124.3631
2009    1       1       0.5386091       120.3115
2009    1       2       0.4749863       109.2155
2009    1       3       0.4515039       104.3324
2009    1       4       0.3961393       94.00608
2009    1       5       0.4800329       109.1295
2009    1       6       0.6651327       137.916
2009    1       7       0.6674549       138.3788
2009    2       0       0.5848027       125.8454
2009    2       1       0.5505153       120.3884
2009    2       2       0.5150379       114.6067
2009    2       3       0.4541199       104.298
2009    2       4       0.3958144       94.03621
2009    2       5       0.5098324       114.1163
2009    2       6       0.6457265       135.2348
2009    2       7       0.631784        133.4769
2009    3       0       0.4313295       101.1864
2009    3       1       0.3333856       82.66404
2009    3       2       0.3531578       86.73924
2009    3       3       0.3347366       83.21071
2009    3       4       0.2629291       68.67856
2009    3       5       0.3170865       79.61084
2009    3       6       0.4806339       109.4248
2009    3       7       0.6226507       132.4858
2009    4       0       0.4067614       96.76453
2009    4       1       0.3448808       85.49489
2009    4       2       0.4077247       97.46963
2009    4       3       0.3995286       95.51144
2009    4       4       0.3610521       88.19336
2009    4       5       0.4082316       96.88356
2009    4       6       0.5332706       118.5265
2009    4       7       0.6759048       140.2361
2009    5       0       0.47144         108.7158
2009    5       1       0.3631735       88.72291
2009    5       2       0.3204031       80.32993
2009    5       3       0.3372429       83.57947
2009    5       4       0.3143435       78.97245
2009    5       5       0.3324193       82.45275
2009    5       6       0.4704045       107.8778
2009    5       7       0.6374716       134.4784
2009    6       0       0.4757928       109.3149
2009    6       1       0.4191136       99.34245
2009    6       2       0.3813187       92.31057
2009    6       3       0.356037        87.53041
2009    6       4       0.2891197       74.16781
2009    6       5       0.3075869       77.87864
2009    6       6       0.4434148       103.5662
2009    6       7       0.5280079       118.2571
2009    7       0       0.3834891       93.12855
2009    7       1       0.3384196       84.29271
2009    7       2       0.3124623       79.01607
2009    7       3       0.3081977       78.15303
2009    7       4       0.2841785       73.10636
2009    7       5       0.2719815       70.45255
2009    7       6       0.3427842       84.94875
2009    7       7       0.4203705       99.85046
2009    8       0       0.3330303       83.41486
2009    8       1       0.3237643       81.46594
2009    8       2       0.3447381       85.32505
2009    8       3       0.2717915       70.48812
2009    8       4       0.2621372       68.60531
2009    8       5       0.333154        83.29349
2009    8       6       0.4633842       107.3626
2009    8       7       0.4628888       107.5727
2009    9       0       0.3507816       87.04999
2009    9       1       0.2914628       75.28152
2009    9       2       0.3445355       85.78327
2009    9       3       0.4016166       96.19784
2009    9       4       0.4215212       99.53314
2009    9       5       0.4266758       100.2457
2009    9       6       0.5362779       119.0027
2009    9       7       0.6015513       129.4313
2009    10      0       0.487714        111.4273
2009    10      1       0.5120127       115.4315
2009    10      2       0.5650255       123.781
2009    10      3       0.5674432       124.1201
2009    10      4       0.6173531       131.493
2009    10      5       0.83709         161.1267
2009    10      6       0.6525508       137.222
2009    10      7       0.5773962       126.273
2009    11      0       0.497176        113.3407
2009    11      1       0.4730142       109.2327
2009    11      2       0.4425801       103.7754
2009    11      3       0.4334097       101.9941
2009    11      4       0.3843643       92.96318
2009    11      5       0.4082423       96.7958
2009    11      6       0.5392737       119.0991
2009    11      7       0.6793807       139.9724
2009    12      0       0.6684193       138.0316
2009    12      1       0.7522722       148.8398
2009    12      2       0.8397837       158.4697
2009    12      3       0.8928568       163.9149
2009    12      4       0.9490076       169.4777
2009    12      5       1.098135        184.4729
2009    12      6       1.368032        206.8938
2009    12      7       1.621982        223.1568
2009    13      0       1.394139        209.0117
2009    13      1       1.18477         193.3268
2009    13      2       1.221437        196.9185
2009    13      3       1.220735        197.1368
2009    13      4       1.166937        193.0392
2009    13      5       1.262198        200.7681
2009    13      6       1.468519        215.7701
2009    13      7       1.528698        219.8816
2009    14      0       1.462487        215.5085
2009    14      1       1.385776        210.7476
2009    14      2       1.438795        214.7865
2009    14      3       1.48105         217.8106
2009    14      4       1.369066        210.6792
2009    14      5       1.209009        198.7162
2009    14      6       1.28058         205.0392
2009    14      7       1.305507        207.3847
2009    15      0       1.27959         204.7646
2009    15      1       1.218964        199.8726
2009    15      2       1.230321        200.7409
2009    15      3       1.244323        201.9264
2009    15      4       1.099953        189.6593
2009    15      5       1.012599        181.4582
2009    15      6       1.038802        184.2494
2009    15      7       0.9638697       177.0607
2009    16      0       0.7109468       146.7256
2009    16      1       0.4750691       110.4358
2009    16      2       0.4402018       103.9832
2009    16      3       0.4725628       109.3299
2009    16      4       0.5134219       115.7974
2009    16      5       0.6281268       133.7762
2009    16      6       0.6750293       140.8874
2009    16      7       0.5995162       130.1676
2009    17      0       0.562507        124.4799
2009    17      1       0.541943        120.8803
2009    17      2       0.549572        121.4704
2009    17      3       0.5652169       123.3803
2009    17      4       0.5381858       118.8547
2009    17      5       0.5759563       124.8743
2009    17      6       0.5879978       126.9371
2009    17      7       0.5163925       115.7106
2009    18      0       0.4765603       109.5554
2009    18      1       0.449631        105.1764
2009    18      2       0.4301645       101.6968
2009    18      3       0.4311888       101.8043
2009    18      4       0.4275646       101.109
2009    18      5       0.4525174       105.3354
2009    18      6       0.5152283       116.1788
2009    18      7       0.5077416       114.9632
2009    19      0       0.5114513       115.4918
2009    19      1       0.5567814       122.659
2009    19      2       0.61666         131.4851
2009    19      3       0.6578229       137.1708
2009    19      4       0.6358846       133.8879
2009    19      5       0.6451386       135.669
2009    19      6       0.740088        149.4381
2009    19      7       0.7809254       155.1178
2009    20      0       0.6508687       137.1934
2009    20      1       0.6432253       136.0509
2009    20      2       0.6553166       137.7591
2009    20      3       0.6703143       139.9707
2009    20      4       0.6670535       139.7191
2009    20      5       0.6713722       140.4644
2009    20      6       0.7089354       145.6912
2009    20      7       0.7189784       147.2297
2009    21      0       0.5645299       124.4531
2009    21      1       0.4804999       110.5439
2009    21      2       0.4501481       105.2326
2009    21      3       0.4192945       99.77729
2009    21      4       0.3594136       88.80988
2009    21      5       0.4027647       96.93823
2009    21      6       0.4891482       112.0422
2009    21      7       0.6157569       132.0679
2009    22      0       0.5382468       120.1994
2009    22      1       0.4711031       109.1906
2009    22      2       0.4549915       106.152
2009    22      3       0.4711404       108.6814
2009    22      4       0.4953935       112.7045
2009    22      5       0.5361845       119.4247
2009    22      6       0.632804        134.1404
2009    22      7       0.7333088       148.0732
2009    23      0       0.5997479       129.497
2009    23      1       0.5503567       121.8385
2009    23      2       0.5362282       119.3119
2009    23      3       0.5236351       117.1429
2009    23      4       0.4392805       103.028
2009    23      5       0.4702715       108.4716
2009    23      6       0.6474239       136.2769
2009    23      7       0.7397422       149.0417
2009    24      0       0.5841438       126.9817
2009    24      1       0.561783        123.5118
2009    24      2       0.5721787       124.8837
2009    24      3       0.5079141       114.3292
2009    24      4       0.4642225       106.695
2009    24      5       0.5559363       121.6992
2009    24      6       0.7224841       145.902
2009    24      7       0.7722223       153.295
2009    25      0       0.54445         120.3361
2009    25      1       0.480092        109.7255
2009    25      2       0.4736845       108.4942
2009    25      3       0.485864        110.5613
2009    25      4       0.4493082       104.3922
2009    25      5       0.4673148       107.5621
2009    25      6       0.5981874       128.6496
2009    25      7       0.634172        134.7428
2009    26      0       0.4791636       109.7611
2009    26      1       0.4728526       108.5426
2009    26      2       0.4517102       104.6787
2009    26      3       0.414439        97.9681
2009    26      4       0.3650806       88.87678
2009    26      5       0.3602528       87.97531
2009    26      6       0.4431647       102.9391
2009    26      7       0.4936958       111.6451
2009    27      0       0.3784727       91.446
2009    27      1       0.2764385       71.43385
2009    27      2       0.2193718       59.13419
2009    27      3       0.2382273       63.16921
2009    27      4       0.2708177       70.08303
2009    27      5       0.3495143       85.9279
2009    27      6       0.4170332       98.61031
2009    27      7       0.4242646       99.96786
2009    28      0       0.3299884       82.36842
2009    28      1       0.2699434       70.09631
2009    28      2       0.2689252       69.77386
2009    28      3       0.2935242       74.7381
2009    28      4       0.3105435       78.26233
2009    28      5       0.488434        110.877
2009    28      6       0.6049485       129.5604
2009    28      7       0.6516579       136.4153
2009    29      0       0.5255872       117.3906
2009    29      1       0.3891557       93.87041
2009    29      2       0.3257676       81.4695
2009    29      3       0.3344289       83.10864
2009    29      4       0.3554832       86.95834
2009    29      5       0.5063596       113.5524
2009    29      6       0.6397618       134.2165
2009    29      7       0.7706032       151.8665
2009    30      0       0.7081073       143.6546
2009    30      1       0.5640371       123.4015
2009    30      2       0.5016954       112.4251
2009    30      3       0.4387305       100.3661
2009    30      4       0.470971        105.5916
2009    30      5       0.5277522       115.3325
2009    30      6       0.6033194       127.4339
2009    30      7       0.6334607       132.3023
2010    1       0       0.6014467       129.7485
2010    1       1       0.5044102       114.3992
2010    1       2       0.4671278       108.0548
2010    1       3       0.4365426       102.7328
2010    1       4       0.3785367       92.40389
2010    1       5       0.4101365       98.38445
2010    1       6       0.4784048       110.4421
2010    1       7       0.4418926       103.8268
2010    2       0       0.385724        93.40718
2010    2       1       0.3921016       94.38118
2010    2       2       0.3810416       92.19041
2010    2       3       0.3746572       90.90175
2010    2       4       0.3674236       89.33875
2010    2       5       0.4320836       101.3477
2010    2       6       0.5471446       120.927
2010    2       7       0.50456         113.8091
2010    3       0       0.4245166       99.82454
2010    3       1       0.4263862       100.0268
2010    3       2       0.449435        103.7633
2010    3       3       0.4922786       111.0295
2010    3       4       0.4946662       111.2551
2010    3       5       0.582776        125.443
2010    3       6       0.7236536       146.0543
2010    3       7       0.8126647       157.802
2010    4       0       0.7550602       150.2894
2010    4       1       0.7541863       150.1125
2010    4       2       0.7755406       152.506
2010    4       3       0.7500003       149.1632
2010    4       4       0.7168856       144.9222
2010    4       5       0.7018955       143.3399
2010    4       6       0.6985664       143.4115
2010    4       7       0.7316284       148.0722
2010    5       0       0.568249        124.843
2010    5       1       0.5139905       116.1113
2010    5       2       0.542827        120.5779
2010    5       3       0.6480245       136.0806
2010    5       4       0.6671376       138.501
2010    5       5       0.7190287       145.4408
2010    5       6       0.7762328       153.3724
2010    5       7       0.9125731       169.679
2010    6       0       0.8706353       164.1585
2010    6       1       0.9268409       169.2647
2010    6       2       0.8444556       159.8589
2010    6       3       0.6871043       140.013
2010    6       4       0.6065945       128.4272
2010    6       5       0.6558398       136.4401
2010    6       6       0.7803405       152.5954
2010    6       7       0.8844642       164.0906
2010    7       0       0.7645614       149.2095
2010    7       1       0.7727902       149.993
2010    7       2       0.7743017       150.3212
2010    7       3       0.791712        152.751
2010    7       4       0.8291937       157.6191
2010    7       5       0.8666214       162.749
2010    7       6       0.8775009       165.0172
2010    7       7       0.7766758       153.3403
2010    8       0       0.7416411       148.3936
2010    8       1       0.692576        142.0353
2010    8       2       0.6672448       138.8999
2010    8       3       0.6027823       129.492
2010    8       4       0.5755998       125.504
2010    8       5       0.594348        128.4818
2010    8       6       0.6196218       132.4104
2010    8       7       0.5373982       120.1577
2010    9       0       0.437965        103.0904
2010    9       1       0.3774103       92.02005
2010    9       2       0.3681593       90.207
2010    9       3       0.4037134       96.64966
2010    9       4       0.3897552       94.14091
2010    9       5       0.451455        105.3092
2010    9       6       0.554793        122.6661
2010    9       7       0.5848405       127.6199
2010    10      0       0.4565609       106.6244
2010    10      1       0.441064        103.6011
2010    10      2       0.4799862       110.0466
2010    10      3       0.4612646       106.4205
2010    10      4       0.4516136       104.6947
2010    10      5       0.480492        109.5873
2010    10      6       0.5834418       126.0888
2010    10      7       0.708872        144.3109
2010    11      0       0.6279026       132.9292
2010    11      1       0.5661461       123.5532
2010    11      2       0.4993511       112.7955
2010    11      3       0.434082        101.3481
2010    11      4       0.3691532       89.37479
2010    11      5       0.4204712       98.85715
2010    11      6       0.5004659       112.9178
2010    11      7       0.5281348       117.5665
2010    12      0       0.3819853       91.90291
2010    12      1       0.3553256       86.17993
2010    12      2       0.3681493       88.35652
2010    12      3       0.3805924       90.26554
2010    12      4       0.3650122       87.33903
2010    12      5       0.4259124       98.70914
2010    12      6       0.5713909       122.7408
2010    12      7       0.6566852       135.2765
2010    13      0       0.5160824       113.6137
2010    13      1       0.4917579       109.0429
2010    13      2       0.5314643       114.9066
2010    13      3       0.5778001       121.4872
2010    13      4       0.5765297       121.2332
2010    13      5       0.5995134       125.1993
2010    13      6       0.6968824       139.6377
2010    13      7       0.7745498       150.5281
2010    14      0       0.7376478       145.6747
2010    14      1       0.7469671       146.7667
2010    14      2       0.7624493       148.4967
2010    14      3       0.7465659       146.2919
2010    14      4       0.6799956       137.5831
2010    14      5       0.770793        150.0108
2010    14      6       0.9810356       174.2744
2010    14      7       1.088097        184.9316
2010    15      0       0.9250651       168.632
2010    15      1       0.754923        148.84
2010    15      2       0.6927833       140.3166
2010    15      3       0.7095493       142.1505
2010    15      4       0.7980021       153.4412
2010    15      5       0.9333498       169.4813
2010    15      6       0.9315113       170.1033
2010    15      7       0.965577        173.6854
2010    16      0       0.7374364       146.694
2010    16      1       0.7395618       146.4585
2010    16      2       0.8111977       155.1517
2010    16      3       0.8401337       157.9851
2010    16      4       0.8901441       163.6081
2010    16      5       0.8860559       163.5643
2010    16      6       0.9373024       169.3819
2010    16      7       0.9305502       168.6895
2010    17      0       0.7694017       149.4909
2010    17      1       0.7518125       146.6298
2010    17      2       0.7803726       149.796
2010    17      3       0.8231158       154.9898
2010    17      4       0.8549015       159.1027
2010    17      5       0.9003423       163.8406
2010    17      6       0.9369735       167.4769
2010    17      7       0.8120038       153.7727
2010    18      0       0.6959335       139.4773
2010    18      1       0.7180474       143.2462
2010    18      2       0.700613        141.7614
2010    18      3       0.6286228       132.0615
2010    18      4       0.48938         110.7475
2010    18      5       0.5235704       116.4697
2010    18      6       0.4998462       113.0169
2010    18      7       0.4325836       101.682
2010    19      0       0.2550052       67.37154
2010    19      1       0.2196986       59.72338
2010    19      2       0.246477        65.3915
2010    19      3       0.2893939       74.2537
2010    19      4       0.3116369       78.68771
2010    19      5       0.3795176       91.9142
2010    19      6       0.4587278       106.0455
2010    19      7       0.3759645       91.06841
2010    20      0       0.2562102       66.81116
2010    20      1       0.1863906       51.17554
2010    20      2       0.2083511       56.03908
2010    20      3       0.2325505       60.96288
2010    20      4       0.2201146       58.2073
2010    20      5       0.2940423       74.25328
2010    20      6       0.4036508       95.45915
2010    20      7       0.4520526       104.0454
2010    21      0       0.4021599       94.59527
2010    21      1       0.3593542       86.85248
2010    21      2       0.3776056       90.67301
2010    21      3       0.3931593       93.59009
2010    21      4       0.4000379       94.79725
2010    21      5       0.4447559       103.1695
2010    21      6       0.5247738       116.765
2010    21      7       0.5346255       117.8868
2010    22      0       0.4376911       101.3204
2010    22      1       0.4324793       100.0869
2010    22      2       0.4394493       101.0104
2010    22      3       0.5010361       111.7424
2010    22      4       0.4200178       98.027
2010    22      5       0.479309        108.5872
2010    22      6       0.5026293       112.5102
2010    22      7       0.4052411       96.38743
2010    23      0       0.2463414       65.43138
2010    23      1       0.1613841       46.6036
2010    23      2       0.1401422       41.63115
2010    23      3       0.1487526       43.5239
2010    23      4       0.162815        46.83584
2010    23      5       0.2290075       61.94886
2010    23      6       0.2876688       74.06135
2010    23      7       0.2802762       72.40676
2010    24      0       0.2083728       56.84103
2010    24      1       0.2121044       57.25978
2010    24      2       0.251619        65.36937
2010    24      3       0.3035195       75.91049
2010    24      4       0.3477592       84.30184
2010    24      5       0.4256493       98.21416
2010    24      6       0.5130016       112.6312
2010    24      7       0.5275628       114.5138
2010    25      0       0.4226971       96.71543
2010    25      1       0.4389935       99.35961
2010    25      2       0.4647608       104.2305
2010    25      3       0.4712691       105.9847
2010    25      4       0.4486801       102.223
2010    25      5       0.4800692       107.5189
2010    25      6       0.4506823       103.0898
2010    25      7       0.3518931       85.89311
2010    26      0       0.2501921       65.59413
2010    26      1       0.220986        59.28124
2010    26      2       0.179826        49.99281
2010    26      3       0.2236484       59.05346
2010    26      4       0.3542658       83.91299
2010    26      5       0.4056808       93.46699
2010    26      6       0.4950149       108.9447
2010    26      7       0.6711871       134.18
2010    27      0       0.7270319       140.1408
2010    27      1       0.7203494       139.5962
2010    27      2       0.7420928       143.2369
2010    27      3       0.6253788       128.4755
2010    27      4       0.5865196       123.0296
2010    27      5       0.621928        128.2816
2010    27      6       0.6357952       130.9819
2010    27      7       0.6153571       128.2349
2010    28      0       0.4917609       108.4789
2010    28      1       0.4442586       100.3099
2010    28      2       0.4662715       104.3
2010    28      3       0.4542575       102.6267
2010    28      4       0.4629111       104.0219
2010    28      5       0.5355118       116.0626
2010    28      6       0.5960888       125.4083
2010    28      7       0.6800186       136.9554
2010    29      0       0.624521        128.9182
2010    29      1       0.6159018       127.5646
2010    29      2       0.5740937       121.525
2010    29      3       0.5332718       115.6861
2010    29      4       0.5172724       113.3804
2010    29      5       0.5346254       116.3741
2010    29      6       0.6468024       133.0164
2010    29      7       0.8550739       158.351
2010    30      0       0.9939257       170.932
2010    30      1       1.057047        175.792
2010    30      2       1.376617        200.5042
2010    30      3       1.814398        227.2563
2010    30      4       1.411544        207.7848
2010    30      5       1.319975        203.6485
2010    30      6       1.318988        204.1722
2010    30      7       1.414215        210.9909
2011    1       0       0.4301093       102.2815
2011    1       1       0.3720007       91.40913
2011    1       2       0.3727439       91.49769
2011    1       3       0.3558191       88.13954
2011    1       4       0.3584769       88.34656
2011    1       5       0.3122159       79.29738
2011    1       6       0.427279        101.3881
2011    1       7       0.4889214       112.6394
2011    2       0       0.3338211       83.93088
2011    2       1       0.2915585       75.4042
2011    2       2       0.2762183       72.25972
2011    2       3       0.35864         88.4591
2011    2       4       0.364405        89.81274
2011    2       5       0.4055344       97.29871
2011    2       6       0.5729692       125.4628
2011    2       7       0.6143665       132.3757
2011    3       0       0.5019794       114.1113
2011    3       1       0.5180175       116.1774
2011    3       2       0.5197745       116.1266
2011    3       3       0.4838583       109.9633
2011    3       4       0.4935186       111.7359
2011    3       5       0.5641948       122.8375
2011    3       6       0.6683325       138.2805
2011    3       7       0.7535481       150.0227
2011    4       0       0.6638447       138.1746
2011    4       1       0.574333        124.6507
2011    4       2       0.5502927       120.7741
2011    4       3       0.5021344       112.911
2011    4       4       0.3836661       92.04481
2011    4       5       0.3757383       90.55779
2011    4       6       0.4486582       104.043
2011    4       7       0.505498        114.1458
2011    5       0       0.3785345       91.8888
2011    5       1       0.3174244       79.86348
2011    5       2       0.3077931       77.6816
2011    5       3       0.3192679       79.76138
2011    5       4       0.3139046       78.66137
2011    5       5       0.3504703       85.98404
2011    5       6       0.3872322       93.28196
2011    5       7       0.3858091       93.39465
2011    6       0       0.2881592       74.24498
2011    6       1       0.3227059       80.83184
2011    6       2       0.3963866       93.58474
2011    6       3       0.4082493       95.23275
2011    6       4       0.9008123       163.5055
2011    6       5       1.28951         200.419
2011    6       6       1.296039        201.9892
2011    6       7       1.365381        207.1277
2011    7       0       1.191982        192.7684
2011    7       1       1.165151        190.2267
2011    7       2       1.149356        189.696
2011    7       3       1.111371        187.1056
2011    7       4       1.10017         186.6386
2011    7       5       1.233929        198.561
2011    7       6       1.214907        197.3536
2011    7       7       1.188635        195.0458
2011    8       0       0.9952769       177.2307
2011    8       1       0.8551696       162.1607
2011    8       2       0.8233001       158.4092
2011    8       3       0.819612        158.0334
2011    8       4       0.8852876       165.6994
2011    8       5       0.9020775       167.8794
2011    8       6       0.9006515       168.2227
2011    8       7       0.9301578       171.3991
2011    9       0       1.023054        179.82
2011    9       1       1.255279        199.2691
2011    9       2       1.556026        219.3485
2011    9       3       1.725287        227.8849
2011    9       4       1.694636        226.9169
2011    9       5       1.786042        231.5971
2011    9       6       2.332592        251.6183
2011    9       7       2.940923        263.7045
2011    10      0       2.938344        262.8794
2011    10      1       2.882908        260.9334
2011    10      2       2.611675        255.4588
2011    10      3       2.022397        239.6783
2011    10      4       1.471789        213.6021
2011    10      5       1.240619        197.9207
2011    10      6       0.9924855       176.4537
2011    10      7       0.5696464       124.0347
2011    11      0       0.2153729       58.61326
2011    11      1       0.1541213       44.5965
2011    11      2       0.1553748       44.62953
2011    11      3       0.1642609       46.50319
2011    11      4       0.1852643       51.26962
2011    11      5       0.3536486       86.32876
2011    11      6       0.486661        110.3214
2011    11      7       0.7235377       145.2938
2011    12      0       0.7433684       147.8336
2011    12      1       0.6817099       139.1269
2011    12      2       0.5336132       116.3978
2011    12      3       0.4648833       104.742
2011    12      4       0.4939809       109.5716
2011    12      5       0.599812        126.5939
2011    12      6       0.6993578       141.2092
2011    12      7       0.7700225       150.9241
2011    13      0       0.6468799       134.8571
2011    13      1       0.4799482       108.9002
2011    13      2       0.3493621       84.77388
2011    13      3       0.3233593       79.94793
2011    13      4       0.3207984       80.02855
2011    13      5       0.4400122       102.2879
2011    13      6       0.6091489       129.148
2011    13      7       0.6524888       135.6232
2011    14      0       0.5578131       121.6499
2011    14      1       0.4557137       104.8609
2011    14      2       0.3630244       87.67028
2011    14      3       0.3429308       83.52721
2011    14      4       0.3701903       88.94802
2011    14      5       0.4576637       105.18
2011    14      6       0.5877494       126.4752
2011    14      7       0.7041201       143.659
2011    15      0       0.6050155       129.8311
2011    15      1       0.5685151       123.5117
2011    15      2       0.5283996       116.2198
2011    15      3       0.5380278       117.5895
2011    15      4       0.5059639       112.7032
2011    15      5       0.4686743       106.6609
2011    15      6       0.5429929       119.9382
2011    15      7       0.4836181       110.3269
2011    16      0       0.3507905       86.37505
2011    16      1       0.2811843       72.46912
2011    16      2       0.2496237       65.70439
2011    16      3       0.241438        63.73129
2011    16      4       0.2592173       67.42895
2011    16      5       0.334628        82.7673
2011    16      6       0.3851301       92.80605
2011    16      7       0.3181379       79.59034
2011    17      0       0.2685925       68.88013
2011    17      1       0.3212225       78.86129
2011    17      2       0.4250566       97.6249
2011    17      3       0.4621606       104.1164
2011    17      4       0.4131605       95.96454
2011    17      5       0.4207282       98.05024
2011    17      6       0.4465409       103.3688
2011    17      7       0.348891        85.84346
2011    18      0       0.2490409       65.63477
2011    18      1       0.2175664       58.73736
2011    18      2       0.2220647       59.55695
2011    18      3       0.2348378       62.10731
2011    18      4       0.2369285       62.47214
2011    18      5       0.2741073       70.85225
2011    18      6       0.3694617       89.93969
2011    18      7       0.4086686       97.32057
2011    19      0       0.3600583       87.82188
2011    19      1       0.3599992       87.67739
2011    19      2       0.3623149       87.9384
2011    19      3       0.3762186       90.62279
2011    19      4       0.3344898       82.27972
2011    19      5       0.3240134       80.58375
2011    19      6       0.4231463       99.01414
2011    19      7       0.4497062       104.0133
2011    20      0       0.3560361       86.00961
2011    20      1       0.3504227       85.07055
2011    20      2       0.346404        84.6784
2011    20      3       0.3305732       81.76706
2011    20      4       0.3092806       77.62776
2011    20      5       0.3417536       83.78709
2011    20      6       0.4014516       94.81262
2011    20      7       0.4107634       96.88972
2011    21      0       0.3659644       88.14075
2011    21      1       0.3226074       79.13696
2011    21      2       0.333163        81.27085
2011    21      3       0.3853365       91.17327
2011    21      4       0.4173424       97.00886
2011    21      5       0.4462557       102.4232
2011    21      6       0.5657303       122.2749
2011    21      7       0.5578375       121.2041
2011    22      0       0.4685904       106.4562
2011    22      1       0.4243027       98.12627
2011    22      2       0.4235044       97.66436
2011    22      3       0.5192925       113.4225
2011    22      4       0.5935089       124.6757
2011    22      5       0.6457842       132.6537
2011    22      6       0.7242031       143.7287
2011    22      7       0.6721608       137.8312
2011    23      0       0.5017664       112.94
2011    23      1       0.4192654       99.11701
2011    23      2       0.3596308       88.18676
2011    23      3       0.321641        80.83643
2011    23      4       0.2861773       73.77135
2011    23      5       0.2846574       73.5489
2011    23      6       0.37792         91.84966
2011    23      7       0.433785        102.546
2011    24      0       0.29353         75.64332
2011    24      1       0.2478289       66.02945
2011    24      2       0.2396202       64.15289
2011    24      3       0.2474236       65.69993
2011    24      4       0.257931        67.89295
2011    24      5       0.2784546       72.05932
2011    24      6       0.3771658       91.59079
2011    24      7       0.4374712       102.7428
2011    25      0       0.3714473       90.61139
2011    25      1       0.3284649       81.95956
2011    25      2       0.2696351       69.91334
2011    25      3       0.2298156       61.26113
2011    25      4       0.2176204       58.54207
2011    25      5       0.2181637       58.98021
2011    25      6       0.2850747       73.37004
2011    25      7       0.3995385       95.53176
2011    26      0       0.3700457       89.59633
2011    26      1       0.3280065       81.01407
2011    26      2       0.2944879       74.27403
2011    26      3       0.3147282       77.03112
2011    26      4       0.3157826       76.72919
2011    26      5       0.3414647       81.67515
2011    26      6       0.4219579       96.72361
2011    26      7       0.4319263       98.85991
2011    27      0       0.364058        86.87702
2011    27      1       0.3388235       81.83996
2011    27      2       0.3301649       80.24204
2011    27      3       0.3190947       78.0645
2011    27      4       0.2739023       69.06108
2011    27      5       0.3097003       76.29286
2011    27      6       0.3948534       93.14359
2011    27      7       0.4822061       108.8907
2011    28      0       0.4728683       106.5564
2011    28      1       0.4866385       108.5985
2011    28      2       0.4503364       103.0734
2011    28      3       0.3017034       76.31165
2011    28      4       0.2632362       68.43185
2011    28      5       0.2728641       70.30796
2011    28      6       0.2695527       69.6471
2011    28      7       0.2781156       71.26957
2011    29      0       0.5189281       114.394
2011    29      1       0.6848962       139.4058
2011    29      2       0.6626969       136.7238
2011    29      3       0.5483267       120.0471
2011    29      4       0.3876373       93.15075
2011    29      5       0.316227        79.3986
2011    29      6       0.3381851       83.74074
2011    29      7       0.3183643       80.04574
2011    30      0       0.1933272       53.38679
2011    30      1       0.1783561       49.7107
2011    30      2       0.2132844       57.04239
2011    30      3       0.2249742       59.66111
2011    30      4       0.1781528       49.67266
2011    30      5       0.2195721       59.1156
2011    30      6       0.2518497       66.20197
2011    30      7       0.2634877       68.72038
2012    1       0       0.703664        143.5796
2012    1       1       0.6380469       134.2017
2012    1       2       0.633406        133.396
2012    1       3       0.6693143       138.4635
2012    1       4       0.7071559       143.4332
2012    1       5       0.8340768       159.0058
2012    1       6       0.9356456       170.714
2012    1       7       0.9953272       177.1768
2012    2       0       0.9256758       169.1424
2012    2       1       0.8431607       160.0319
2012    2       2       0.8112504       156.485
2012    2       3       0.8105716       156.4346
2012    2       4       0.7635497       150.8811
2012    2       5       0.6892218       140.8552
2012    2       6       0.8263372       158.7233
2012    2       7       0.8219895       158.2827
2012    3       0       0.6497998       134.9173
2012    3       1       0.6030433       128.1999
2012    3       2       0.5461168       119.5891
2012    3       3       0.568268        122.7033
2012    3       4       0.6204524       129.8813
2012    3       5       0.7431197       147.2163
2012    3       6       0.9586279       172.7211
2012    3       7       1.076302        184.8218
2012    4       0       0.8911269       164.8651
2012    4       1       0.8042679       154.7346
2012    4       2       0.7701934       150.3076
2012    4       3       0.7640436       149.414
2012    4       4       0.692215        140.7686
2012    4       5       0.6449926       134.2915
2012    4       6       0.6922103       140.7373
2012    4       7       0.7632216       149.5807
2012    5       0       1.047555        181.129
2012    5       1       1.216094        196.2904
2012    5       2       1.135264        189.3058
2012    5       3       1.208047        194.9812
2012    5       4       0.9260182       167.1726
2012    5       5       0.6737434       136.4485
2012    5       6       0.6085852       127.5086
2012    5       7       0.5524872       118.0783
2012    6       0       0.6062857       126.6467
2012    6       1       0.627512        130.246
2012    6       2       0.623042        129.2832
2012    6       3       0.6478009       132.7456
2012    6       4       0.4387          99.16125
2012    6       5       0.418224        97.05179
2012    6       6       0.5207775       115.6712
2012    6       7       0.4710961       106.5813
2012    7       0       0.4462079       101.2075
2012    7       1       0.4655514       104.1643
2012    7       2       0.4905681       108.9709
2012    7       3       0.5179553       113.9725
2012    7       4       0.5508722       119.2625
2012    7       5       0.5230346       115.6345
2012    7       6       0.579907        125.2116
2012    7       7       0.5627255       123.1208
2012    8       0       0.4708497       107.7932
2012    8       1       0.5550183       121.4413
2012    8       2       0.6875506       141.1181
2012    8       3       0.6442128       134.8438
2012    8       4       0.6557527       136.2035
2012    8       5       0.6956062       141.4466
2012    8       6       0.7497306       149.0731
2012    8       7       0.6771678       139.7722
2012    9       0       0.5896739       127.0634
2012    9       1       0.5815424       125.1477
2012    9       2       0.7178854       143.0706
2012    9       3       0.89879         163.9551
2012    9       4       0.9979811       174.2393
2012    9       5       1.238419        196.9465
2012    9       6       1.661448        223.4538
2012    9       7       1.72313         226.467
2012    10      0       1.47898         213.5191
2012    10      1       1.30711         202.0031
2012    10      2       1.154238        189.7058
2012    10      3       1.100969        184.7798
2012    10      4       1.048938        179.3812
2012    10      5       1.314744        201.5827
2012    10      6       1.476342        212.8059
2012    10      7       1.382585        207.0689
2012    11      0       1.084051        183.6039
2012    11      1       0.9232829       167.4485
2012    11      2       0.9648411       172.0855
2012    11      3       1.015817        177.2647
2012    11      4       1.004832        176.1087
2012    11      5       1.02143         177.8224
2012    11      6       1.01495         177.7452
2012    11      7       1.104391        186.0589
2012    12      0       0.9995475       175.8266
2012    12      1       1.000434        175.3768
2012    12      2       1.40096         206.9368
2012    12      3       1.923808        233.3358
2012    12      4       2.494945        250.1741
2012    12      5       2.868764        257.7773
2012    12      6       3.086964        261.2695
2012    12      7       2.59889         253.8323
2012    13      0       2.215167        244.3271
2012    13      1       1.826209        230.4644
2012    13      2       1.240315        196.0037
2012    13      3       0.9944153       174.1746
2012    13      4       1.067449        180.6081
2012    13      5       1.360599        203.6842
2012    13      6       1.410956        207.5686
2012    13      7       1.36761         205.0128
2012    14      0       1.087781        183.5314
2012    14      1       0.7927905       152.9705
2012    14      2       0.5736943       123.4283
2012    14      3       0.5155907       114.3633
2012    14      4       0.5055519       112.8214
2012    14      5       0.5694984       123.2324
2012    14      6       0.6322604       132.7821
2012    14      7       0.6320199       132.9248
2012    15      0       0.3973392       95.01532
2012    15      1       0.2957852       75.39221
2012    15      2       0.2830918       72.72776
2012    15      3       0.281611        72.40148
2012    15      4       0.2952943       75.17831
2012    15      5       0.3932017       94.11774
2012    15      6       0.5115404       114.6246
2012    15      7       0.5344833       118.6073
2012    16      0       0.371055        90.30509
2012    16      1       0.263896        68.97586
2012    16      2       0.2226329       60.05522
2012    16      3       0.2343061       62.53508
2012    16      4       0.1988508       54.66969
2012    16      5       0.2635816       68.93981
2012    16      6       0.3531693       87.12855
2012    16      7       0.422835        100.1828
2012    17      0       0.2979786       76.42143
2012    17      1       0.2182529       59.40985
2012    17      2       0.1668252       47.40713
2012    17      3       0.1428421       41.4917
2012    17      4       0.1376522       40.21091
2012    17      5       0.203575        55.64475
2012    17      6       0.3310957       82.49544
2012    17      7       0.3659719       89.51504
2012    18      0       0.2187661       59.45412
2012    18      1       0.1617435       46.47798
2012    18      2       0.1548847       44.89479
2012    18      3       0.2070746       55.96054
2012    18      4       0.2216827       58.71427
2012    18      5       0.2288851       60.3155
2012    18      6       0.3404923       83.20562
2012    18      7       0.4624333       105.9033
2012    19      0       0.3939524       93.61514
2012    19      1       0.3740044       89.43285
2012    19      2       0.3370024       82.47291
2012    19      3       0.3220858       79.54174
2012    19      4       0.3092438       77.1755
2012    19      5       0.3118598       77.90392
2012    19      6       0.3747352       90.23444
2012    19      7       0.4097446       96.86378
2012    20      0       0.3127379       78.33159
2012    20      1       0.3149189       78.66467
2012    20      2       0.3323467       82.2191
2012    20      3       0.3861963       92.61541
2012    20      4       0.47487         108.3789
2012    20      5       0.4968738       111.9427
2012    20      6       0.4939758       111.6318
2012    20      7       0.4061476       96.91967
2012    21      0       0.2689938       70.16892
2012    21      1       0.1996891       54.96289
2012    21      2       0.2026086       55.52372
2012    21      3       0.2203966       59.3857
2012    21      4       0.2333262       61.92153
2012    21      5       0.2835779       72.4341
2012    21      6       0.3713468       89.64695
2012    21      7       0.3898423       92.91953
2012    22      0       0.2748981       70.30357
2012    22      1       0.2156638       57.66867
2012    22      2       0.2282467       60.54873
2012    22      3       0.2756988       70.43396
2012    22      4       0.3524153       85.41611
2012    22      5       0.4405296       101.3951
2012    22      6       0.5809286       124.2325
2012    22      7       0.690284        139.8915
2012    23      0       0.6813143       137.9188
2012    23      1       0.7043372       140.3756
2012    23      2       0.6940939       139.1271
2012    23      3       0.7440972       145.5008
2012    23      4       0.8812128       161.7652
2012    23      5       1.014491        175.271
2012    23      6       1.109402        183.9533
2012    23      7       1.109663        183.7913
2012    24      0       0.9948333       172.6923
2012    24      1       0.9276003       167.011
2012    24      2       0.855051        159.7642
2012    24      3       0.8769853       162.4894
2012    24      4       0.923863        168.112
2012    24      5       1.00118         176.4521
2012    24      6       1.128414        188.4466
2012    24      7       1.256905        199.0435
2012    25      0       1.185397        193.1208
2012    25      1       1.102836        185.8589
2012    25      2       1.015426        177.2402
2012    25      3       1.00256         175.4471
2012    25      4       0.9135624       165.7727
2012    25      5       1.03661         178.5028
2012    25      6       1.007805        175.2096
2012    25      7       0.7460092       146.2873
2012    26      0       0.4128481       96.85321
2012    26      1       0.2683762       68.745
2012    26      2       0.3004675       75.02682
2012    26      3       0.3419984       82.97351
2012    26      4       0.3277249       80.54522
2012    26      5       0.5079347       112.6189
2012    26      6       0.6663124       136.5385
2012    26      7       0.6389055       132.5864
2012    27      0       0.4383536       100.4077
2012    27      1       0.4688754       105.3138
2012    27      2       0.4720185       105.3638
2012    27      3       0.5130319       111.7931
2012    27      4       0.6138923       126.5368
2012    27      5       0.8907604       159.1881
2012    27      6       1.072929        178.9432
2012    27      7       0.8281403       153.7128
2012    28      0       0.4550669       102.3052
2012    28      1       0.2422154       63.1547
2012    28      2       0.3081753       74.92792
2012    28      3       0.3636335       83.49648
2012    28      4       0.3551204       83.41916
2012    28      5       0.4637051       102.2361
2012    28      6       0.6380706       129.2099
2012    28      7       0.7420842       142.9134
2012    29      0       0.6951715       137.1808
2012    29      1       0.6639951       133.3467
2012    29      2       0.6446069       131.0873
2012    29      3       0.6477751       131.669
2012    29      4       0.5932699       123.9005
2012    29      5       0.7581413       147.3866
2012    29      6       0.7165566       143.212
2012    29      7       0.5942465       126.8512
2012    30      0       0.4538271       104.1793
2012    30      1       0.3898678       93.11658
2012    30      2       0.3635128       88.32676
2012    30      3       0.3725631       89.98896
2012    30      4       0.3520898       86.04265
2012    30      5       0.3376455       83.23533
2012    30      6       0.4072441       96.62795
2012    30      7       0.4282992       100.7596
2013    1       0       0.3053318       77.1159
2013    1       1       0.2213902       59.752
2013    1       2       0.1949635       53.97374
2013    1       3       0.1817545       50.97437
2013    1       4       0.1749066       49.29817
2013    1       5       0.2019524       55.41439
2013    1       6       0.2592627       67.5694
2013    1       7       0.271521        69.94483
2013    2       0       0.2119976       56.92365
2013    2       1       0.1997254       54.04098
2013    2       2       0.2296462       60.49625
2013    2       3       0.2981193       74.70266
2013    2       4       0.3194495       78.74571
2013    2       5       0.4243901       98.37756
2013    2       6       0.5534673       119.8307
2013    2       7       0.5907414       125.6112
2013    3       0       0.4587874       104.068
2013    3       1       0.3938812       92.30811
2013    3       2       0.3899121       91.70036
2013    3       3       0.3672297       87.75777
2013    3       4       0.3498873       84.82478
2013    3       5       0.3726753       89.45163
2013    3       6       0.4156354       97.62134
2013    3       7       0.4617032       105.8845
2013    4       0       0.3581116       87.13589
2013    4       1       0.3065878       77.06169
2013    4       2       0.2856339       73.11174
2013    4       3       0.2372117       63.19792
2013    4       4       0.214843        58.43945
2013    4       5       0.2819512       72.73814
2013    4       6       0.3447518       85.27035
2013    4       7       0.3654775       89.23763
2013    5       0       0.2712032       70.77011
2013    5       1       0.1627928       47.04236
2013    5       2       0.1651666       47.36917
2013    5       3       0.1725648       49.05019
2013    5       4       0.1859248       51.92926
2013    5       5       0.2862583       72.84409
2013    5       6       0.4147045       97.1406
2013    5       7       0.5409928       118.1719
2013    6       0       0.5275199       115.4765
2013    6       1       0.5590948       120.0167
2013    6       2       0.5759082       123.0249
2013    6       3       0.5876703       124.9504
2013    6       4       0.551283        119.4355
2013    6       5       0.5733472       123.3751
2013    6       6       0.6598818       136.4953
2013    6       7       0.6738968       138.8005
2013    7       0       0.4725366       107.9167
2013    7       1       0.3427554       84.51489
2013    7       2       0.3578085       87.41398
2013    7       3       0.3843612       92.41963
2013    7       4       0.3589972       87.72673
2013    7       5       0.3746162       90.92838
2013    7       6       0.4575506       105.9577
2013    7       7       0.51975         116.5429
2013    8       0       0.3835964       92.69685
2013    8       1       0.263773        68.91461
2013    8       2       0.2298262       61.40222
2013    8       3       0.2948468       74.85678
2013    8       4       0.3103401       77.9031
2013    8       5       0.3690013       89.32824
2013    8       6       0.4335589       101.0998
2013    8       7       0.4601559       105.7745
2013    9       0       0.3479223       84.88797
2013    9       1       0.3105335       76.98799
2013    9       2       0.3177391       78.38576
2013    9       3       0.3304598       80.94144
2013    9       4       0.3161883       78.39341
2013    9       5       0.3711336       88.8062
2013    9       6       0.4842502       108.7254
2013    9       7       0.5795084       123.8051
2013    10      0       0.4888414       109.1385
2013    10      1       0.4162644       96.56184
2013    10      2       0.421451        96.7012
2013    10      3       0.4606822       103.0833
2013    10      4       0.4796955       106.0959
2013    10      5       0.5491435       117.4046
2013    10      6       0.6308168       129.993
2013    10      7       0.7613463       147.4561
2013    11      0       0.8007714       150.5229
2013    11      1       0.8285796       153.2154
2013    11      2       0.8920783       159.6806
2013    11      3       1.029983        172.2663
2013    11      4       1.076505        177.3575
2013    11      5       0.9882762       171.0511
2013    11      6       0.959728        169.4662
2013    11      7       0.8935843       164.0418
2013    12      0       0.6282508       131.6278
2013    12      1       0.4585839       105.236
2013    12      2       0.4056275       95.88206
2013    12      3       0.4036027       95.14318
2013    12      4       0.386401        91.83162
2013    12      5       0.3325336       82.16405
2013    12      6       0.3485795       85.23201
2013    12      7       0.3545696       86.59093
2013    13      0       0.2678611       69.39961
2013    13      1       0.2163295       57.93852
2013    13      2       0.2250717       58.92802
2013    13      3       0.2927316       72.24976
2013    13      4       0.2990068       73.77915
2013    13      5       0.3197042       78.63694
2013    13      6       0.4858385       108.8143
2013    13      7       0.6970611       140.9931
2013    14      0       0.7032903       141.2219
2013    14      1       0.6693309       136.6647
2013    14      2       0.5588943       120.0553
2013    14      3       0.462068        104.3275
2013    14      4       0.3523867       85.44183
2013    14      5       0.3362398       83.30134
2013    14      6       0.3445651       85.29312
2013    14      7       0.3388148       84.47515
2013    15      0       0.2503853       66.19015
2013    15      1       0.2303376       61.77638
2013    15      2       0.2130604       57.88349
2013    15      3       0.2026399       55.62284
2013    15      4       0.2110942       57.61088
2013    15      5       0.2303457       61.94072
2013    15      6       0.263801        69.34752
2013    15      7       0.248546        66.29414
2013    16      0       0.1635454       47.01852
2013    16      1       0.1357073       40.38616
2013    16      2       0.1288113       38.70441
2013    16      3       0.1525893       44.35834
2013    16      4       0.1974403       54.49313
2013    16      5       0.260503        68.0658
2013    16      6       0.3015718       76.93962
2013    16      7       0.3030511       77.61062
2013    17      0       0.2602911       68.13294
2013    17      1       0.2577808       67.26916
2013    17      2       0.2460026       64.80388
2013    17      3       0.2553471       66.99015
2013    17      4       0.3004611       76.34602
2013    17      5       0.3622484       88.39237
2013    17      6       0.4222541       99.8459
2013    17      7       0.4850613       111.0259
2013    18      0       0.4933447       111.1944
2013    18      1       0.4476535       103.5251
2013    18      2       0.3947977       94.55262
2013    18      3       0.3419753       84.49866
2013    18      4       0.2707056       69.71971
2013    18      5       0.2886959       73.13413
2013    18      6       0.3828804       91.78563
2013    18      7       0.4441089       103.2024
2013    19      0       0.3759574       90.36492
2013    19      1       0.4145639       96.55084
2013    19      2       0.5479897       117.5753
2013    19      3       0.613275        127.7925
2013    19      4       0.6331434       131.5488
2013    19      5       0.6310409       131.932
2013    19      6       0.5920067       126.6019
2013    19      7       0.5445376       119.8573
2013    20      0       0.4445945       103.1978
2013    20      1       0.3959943       94.65278
2013    20      2       0.3533994       86.66628
2013    20      3       0.3278123       81.85809
2013    20      4       0.2682151       70.02495
2013    20      5       0.2827785       72.80862
2013    20      6       0.3404994       84.23277
2013    20      7       0.3690586       89.6885
2013    21      0       0.327793        81.25465
2013    21      1       0.304185        76.48888
2013    21      2       0.2737847       70.15461
2013    21      3       0.2649039       68.25304
2013    21      4       0.2443607       64.22855
2013    21      5       0.2603534       68.06923
2013    21      6       0.2854065       73.36566
2013    21      7       0.2716235       70.29456
2013    22      0       0.2590479       67.11741
2013    22      1       0.2740737       70.06079
2013    22      2       0.2667188       68.6006
2013    22      3       0.2487772       64.8387
2013    22      4       0.2339141       61.6273
2013    22      5       0.2623492       67.5268
2013    22      6       0.2768548       70.99664
2013    22      7       0.2766824       70.94565
2013    23      0       0.2888711       72.29975
2013    23      1       0.3632287       86.46088
2013    23      2       0.4138814       96.09189
2013    23      3       0.4154643       96.71923
2013    23      4       0.4431258       101.97
2013    23      5       0.5021877       112.3324
2013    23      6       0.5607113       122.146
2013    23      7       0.4733613       107.7901
2013    24      0       0.450865        104.1882
2013    24      1       0.4652667       106.8963
2013    24      2       0.4705711       107.8066
2013    24      3       0.4860085       110.2006
2013    24      4       0.4300015       100.7296
2013    24      5       0.4256939       100.2879
2013    24      6       0.4623355       106.9395
2013    24      7       0.4077981       96.72901
2013    25      0       0.3646451       88.15224
2013    25      1       0.349947        84.79863
2013    25      2       0.3442148       83.36076
2013    25      3       0.3271019       79.9643
2013    25      4       0.3078964       76.36063
2013    25      5       0.3414714       83.33861
2013    25      6       0.3777375       90.75219
2013    25      7       0.3722914       89.99214
2013    26      0       0.3984768       94.30748
2013    26      1       0.5561512       120.6417
2013    26      2       0.6923525       140.1026
2013    26      3       0.7589939       148.9303
2013    26      4       0.7113339       143.4281
2013    26      5       0.688741        140.4672
2013    26      6       0.6466696       134.8586
2013    26      7       0.5039931       113.078
2013    27      0       0.4044973       95.70176
2013    27      1       0.3884007       92.50349
2013    27      2       0.3537636       86.22856
2013    27      3       0.3152998       78.68007
2013    27      4       0.2569351       66.84931
2013    27      5       0.2569345       67.07834
2013    27      6       0.3754466       90.43759
2013    27      7       0.434533        101.1588
2013    28      0       0.3652839       88.04103
2013    28      1       0.3372603       81.80509
2013    28      2       0.4256249       97.24938
2013    28      3       0.5057076       110.6427
2013    28      4       0.5035447       110.3577
2013    28      5       0.6488428       132.5433
2013    28      6       0.7863583       151.6905
2013    28      7       0.8092635       155.0726
2013    29      0       0.7591371       148.8509
2013    29      1       0.7143309       143.3561
2013    29      2       0.6988599       141.4189
2013    29      3       0.7156529       143.6155
2013    29      4       0.7261077       144.8874
2013    29      5       0.6806732       139.0254
2013    29      6       0.6083658       129.2521
2013    29      7       0.546514        120.3442
2013    30      0       0.3866679       93.0525
2013    30      1       0.3251101       81.15129
2013    30      2       0.3653364       88.72235
2013    30      3       0.4396249       101.6833
2013    30      4       0.4415731       101.8841
2013    30      5       0.4466549       102.6604
2013    30      6       0.4712493       107.2524
2013    30      7       0.5075779       113.2382
2014    1       0       0.3117354       77.65506
2014    1       1       0.2163749       57.84258
2014    1       2       0.2073177       55.97603
2014    1       3       0.2146118       57.8093
2014    1       4       0.2000429       54.66547
2014    1       5       0.2488185       65.5373
2014    1       6       0.3088882       78.13356
2014    1       7       0.3333584       83.24746
2014    2       0       0.2770017       72.03521
2014    2       1       0.2031186       56.18638
2014    2       2       0.1632669       46.96083
2014    2       3       0.1636142       46.79977
2014    2       4       0.1796029       50.56879
2014    2       5       0.2749534       71.62098
2014    2       6       0.3635495       89.22762
2014    2       7       0.3955633       95.4251
2014    3       0       0.339281        84.69064
2014    3       1       0.3524696       86.87399
2014    3       2       0.3931121       94.44189
2014    3       3       0.4418916       103.1242
2014    3       4       0.4750185       109.0506
2014    3       5       0.5613606       123.0999
2014    3       6       0.6579272       137.8036
2014    3       7       0.7503911       150.3132
2014    4       0       0.6465318       135.4767
2014    4       1       0.6255649       131.955
2014    4       2       0.6615476       136.5665
2014    4       3       0.7819466       151.6349
2014    4       4       0.6922338       140.0224
2014    4       5       0.7475134       146.8308
2014    4       6       1.069065        180.0233
2014    4       7       1.380586        203.7787
2014    5       0       1.456853        209.249
2014    5       1       1.359349        203.5045
2014    5       2       1.553484        216.9546
2014    5       3       1.717807        225.5762
2014    5       4       1.929993        235.0928
2014    5       5       1.966827        237.6458
2014    5       6       1.868317        234.2625
2014    5       7       2.003325        239.8226
2014    6       0       2.121802        244.1258
2014    6       1       2.269398        248.2544
2014    6       2       2.331183        249.4933
2014    6       3       2.470767        253.0891
2014    6       4       2.548686        255.402
2014    6       5       2.453524        253.8886
2014    6       6       2.359113        251.7388
2014    6       7       2.356987        251.4824
2014    7       0       2.091633        243.689
2014    7       1       1.622985        223.7881
2014    7       2       1.168829        193.6486
2014    7       3       0.8466387       162.0632
2014    7       4       0.6765633       140.6138
2014    7       5       0.5924196       128.4866
2014    7       6       0.5990516       129.5329
2014    7       7       0.4920898       112.7988
2014    8       0       0.327765        82.95809
2014    8       1       0.2354977       63.5888
2014    8       2       0.2007191       55.77767
2014    8       3       0.1964446       54.81997
2014    8       4       0.2159765       59.23064
2014    8       5       0.2225952       60.64983
2014    8       6       0.2691353       70.80139
2014    8       7       0.3336502       84.30351
2014    9       0       0.2618479       69.12356
2014    9       1       0.2590345       68.27072
2014    9       2       0.2640056       69.0696
2014    9       3       0.2843993       73.44806
2014    9       4       0.348226        85.7653
2014    9       5       0.4070819       96.77847
2014    9       6       0.4756794       109.1503
2014    9       7       0.5368562       119.4368
2014    10      0       0.4639096       107.0897
2014    10      1       0.4391646       102.4006
2014    10      2       0.3670068       88.3674
2014    10      3       0.2673047       68.20152
2014    10      4       0.2898619       72.96516
2014    10      5       0.4411665       101.6964
2014    10      6       0.5318198       116.9342
2014    10      7       0.5354035       117.6267
2014    11      0       0.4291839       99.70229
2014    11      1       0.43114         99.94653
2014    11      2       0.4906363       110.5404
2014    11      3       0.4267251       99.91266
2014    11      4       0.4360415       101.3518
2014    11      5       0.4495557       103.6681
2014    11      6       0.6124505       129.7772
2014    11      7       0.6788833       139.528
2014    12      0       0.6049178       129.5151
2014    12      1       0.4895369       111.4299
2014    12      2       0.4777015       109.3668
2014    12      3       0.5020044       113.7871
2014    12      4       0.5130114       115.5474
2014    12      5       0.5460269       120.8215
2014    12      6       0.5633517       123.7625
2014    12      7       0.5465259       121.8237
2014    13      0       0.4031889       97.12361
2014    13      1       0.3642527       89.88724
2014    13      2       0.3310847       83.25399
2014    13      3       0.340432        84.93548
2014    13      4       0.3310971       83.11815
2014    13      5       0.3373876       84.18557
2014    13      6       0.3954328       95.30455
2014    13      7       0.4198092       100.2189
2014    14      0       0.322969        81.45702
2014    14      1       0.3168067       80.10495
2014    14      2       0.3095998       78.6789
2014    14      3       0.2995884       76.55655
2014    14      4       0.292022        75.16119
2014    14      5       0.3268472       82.39941
2014    14      6       0.3953572       95.74681
2014    14      7       0.4209611       101.0031
2014    15      0       0.3110209       79.40093
2014    15      1       0.3408148       85.14722
2014    15      2       0.3387625       84.4672
2014    15      3       0.3324514       83.0762
2014    15      4       0.3204251       80.80859
2014    15      5       0.3486578       86.26592
2014    15      6       0.4205446       99.66578
2014    15      7       0.4608471       106.6838
2014    16      0       0.3963646       95.10041
2014    16      1       0.3156955       79.64542
2014    16      2       0.2571899       67.17723
2014    16      3       0.2674125       68.93419
2014    16      4       0.2685882       69.06672
2014    16      5       0.2895499       74.44639
2014    16      6       0.3548518       87.71618
2014    16      7       0.4338603       102.3751
2014    17      0       0.4436965       103.9429
2014    17      1       0.3920947       94.45013
2014    17      2       0.3205214       80.61639
2014    17      3       0.3063773       77.59388
2014    17      4       0.3271022       81.83724
2014    17      5       0.347845        86.10594
2014    17      6       0.4427716       103.3986
2014    17      7       0.57273         124.7817
2014    18      0       0.484375        110.6782
2014    18      1       0.448659        104.5483
2014    18      2       0.4237356       99.8196
2014    18      3       0.39639         94.52922
2014    18      4       0.3403413       83.92656
2014    18      5       0.3305651       82.02793
2014    18      6       0.3956899       94.37551
2014    18      7       0.459941        106.0406
2014    19      0       0.4046461       96.41537
2014    19      1       0.3686674       89.42293
2014    19      2       0.3660935       88.07172
2014    19      3       0.3770193       89.73284
2014    19      4       0.3311998       81.51417
2014    19      5       0.3547672       86.58916
2014    19      6       0.4006811       95.49906
2014    19      7       0.4062301       96.79904
2014    20      0       0.3335703       83.03874
2014    20      1       0.3256135       81.55591
2014    20      2       0.3389132       84.28019
2014    20      3       0.3394829       84.34127
2014    20      4       0.3255143       81.57733
2014    20      5       0.355351        87.31739
2014    20      6       0.373116        90.76095
2014    20      7       0.4101169       97.62141
2014    21      0       0.3653549       89.24031
2014    21      1       0.3737243       90.41391
2014    21      2       0.3976485       94.39616
2014    21      3       0.4319398       100.3382
2014    21      4       0.4064736       95.69561
2014    21      5       0.4292775       100.0757
2014    21      6       0.5038874       112.9502
2014    21      7       0.575252        124.3051
2014    22      0       0.5266031       116.5615
2014    22      1       0.4935774       111.3623
2014    22      2       0.492521        111.0251
2014    22      3       0.4874646       109.8797
2014    22      4       0.4428381       102.3199
2014    22      5       0.4501844       103.4916
2014    22      6       0.5061354       112.773
2014    22      7       0.5688261       122.6702
2014    23      0       0.5146284       114.187
2014    23      1       0.4595539       104.498
2014    23      2       0.4676319       104.6945
2014    23      3       0.496719        109.4514
2014    23      4       0.4687558       105.2252
2014    23      5       0.4911112       109.4385
2014    23      6       0.5637626       121.3496
2014    23      7       0.5772743       123.8744
2014    24      0       0.4716863       106.7515
2014    24      1       0.4368534       100.5713
2014    24      2       0.432951        100.1072
2014    24      3       0.4420684       101.7816
2014    24      4       0.4593442       104.8167
2014    24      5       0.5107575       113.5944
2014    24      6       0.6623806       136.9954
2014    24      7       0.7237661       145.8296
2014    25      0       0.5899362       127.0127
2014    25      1       0.5058504       113.5069
2014    25      2       0.5231562       115.8238
2014    25      3       0.5218528       115.3394
2014    25      4       0.4641713       105.9258
2014    25      5       0.4621608       105.6301
2014    25      6       0.5358302       117.6593
2014    25      7       0.5327203       117.512
2014    26      0       0.4300533       100.1626
2014    26      1       0.36271         87.89929
2014    26      2       0.4248373       98.77833
2014    26      3       0.5514498       119.3874
2014    26      4       0.5757841       123.1173
2014    26      5       0.585132        124.5905
2014    26      6       0.5774972       123.5321
2014    26      7       0.5246104       115.2664
2014    27      0       0.4181601       97.2869
2014    27      1       0.4026635       94.16236
2014    27      2       0.4283527       98.22112
2014    27      3       0.574848        120.9439
2014    27      4       0.7612914       145.814
2014    27      5       0.8472349       156.5057
2014    27      6       0.8162442       153.8193
2014    27      7       0.7144584       141.8272
2014    28      0       0.6090327       127.7366
2014    28      1       0.5686016       122.1402
2014    28      2       0.5353529       117.2275
2014    28      3       0.49584         110.9029
2014    28      4       0.4762876       107.6206
2014    28      5       0.4838752       108.8988
2014    28      6       0.4675946       106.3505
2014    28      7       0.4488516       102.7305
2014    29      0       0.3837837       90.87482
2014    29      1       0.380862        90.14095
2014    29      2       0.4223204       97.71997
2014    29      3       0.4694346       105.5177
2014    29      4       0.4836765       108.0598
2014    29      5       0.5483207       118.5475
2014    29      6       0.6520272       133.7682
2014    29      7       0.6758183       136.7464
2014    30      0       0.6993288       139.4232
2014    30      1       0.6887632       137.8274
2014    30      2       0.6687693       134.7347
2014    30      3       0.6392014       130.0999
2014    30      4       0.4894394       107.847
2014    30      5       0.4339743       99.66625
2014    30      6       0.536131        116.6202
2014    30      7       0.5638125       120.8046
2015    1       0       0.4513604       105.2705
2015    1       1       0.3769409       91.93098
2015    1       2       0.391452        94.46304
2015    1       3       0.3858916       93.30389
2015    1       4       0.3409898       84.59835
2015    1       5       0.3860293       93.16497
2015    1       6       0.5035707       114.0819
2015    1       7       0.5005517       113.9792
2015    2       0       0.4052899       96.48206
2015    2       1       0.4387919       101.815
2015    2       2       0.4782179       108.3107
2015    2       3       0.4910021       110.3349
2015    2       4       0.4790135       108.4494
2015    2       5       0.5935255       127.3448
2015    2       6       0.77449         152.6159
2015    2       7       0.8045483       156.7459
2015    3       0       0.6166412       131.0135
2015    3       1       0.5083407       113.9218
2015    3       2       0.4752853       108.3264
2015    3       3       0.4963995       111.4861
2015    3       4       0.450805        103.8887
2015    3       5       0.5621749       122.3068
2015    3       6       0.6728664       138.7883
2015    3       7       0.5882955       126.5755
2015    4       0       0.4138937       96.34629
2015    4       1       0.3175737       78.28695
2015    4       2       0.3092664       76.79975
2015    4       3       0.3337288       81.51947
2015    4       4       0.349453        84.07625
2015    4       5       0.4031012       93.80385
2015    4       6       0.4522974       103.2134
2015    4       7       0.474974        107.3242
2015    5       0       0.3659716       87.18357
2015    5       1       0.3627994       86.58405
2015    5       2       0.3577416       85.84272
2015    5       3       0.3838054       90.64949
2015    5       4       0.4173425       96.59452
2015    5       5       0.3954638       92.70584
2015    5       6       0.4436057       101.8549
2015    5       7       0.4841138       108.8871
2015    6       0       0.3658125       86.92224
2015    6       1       0.3862663       89.96599
2015    6       2       0.4276326       97.21028
2015    6       3       0.4836893       106.3663
2015    6       4       0.525992        113.0082
2015    6       5       0.588469        122.9308
2015    6       6       0.7318405       143.5905
2015    6       7       0.8396526       157.5215
2015    7       0       0.7363109       144.1694
2015    7       1       0.7132499       141.0978
2015    7       2       0.7162268       141.3739
2015    7       3       0.6382981       131.8856
2015    7       4       0.587367        125.0662
2015    7       5       0.6099576       129.09
2015    7       6       0.5762931       124.8877
2015    7       7       0.5096468       114.281
2015    8       0       0.4869096       110.3328
2015    8       1       0.4614155       106.2524
2015    8       2       0.4419109       102.7826
2015    8       3       0.4402361       102.2327
2015    8       4       0.4446837       102.9343
2015    8       5       0.4462351       103.1948
2015    8       6       0.5100044       114.2231
2015    8       7       0.4781866       109.0582
2015    9       0       0.3931544       93.67629
2015    9       1       0.3898281       93.20132
2015    9       2       0.4138388       97.51471
2015    9       3       0.4259934       99.62615
2015    9       4       0.3866547       93.12278
2015    9       5       0.3657194       89.61244
2015    9       6       0.4077874       97.81163
2015    9       7       0.3694365       90.71553
2015    10      0       0.3002811       76.93861
2015    10      1       0.2814523       73.00409
2015    10      2       0.2608325       68.55689
2015    10      3       0.2340359       62.37538
2015    10      4       0.2081948       56.18781
2015    10      5       0.2717883       70.01525
2015    10      6       0.4745623       108.0633
2015    10      7       0.5822341       124.5441
2015    11      0       0.5381329       116.4294
2015    11      1       0.5274239       113.8828
2015    11      2       0.5937137       122.9772
2015    11      3       0.684823        134.8492
2015    11      4       0.9142051       162.4462
2015    11      5       1.033599        175.1112
2015    11      6       1.15166         186.5264
2015    11      7       1.27908         196.4124
2015    12      0       1.217224        191.925
2015    12      1       1.105251        184.5095
2015    12      2       1.054762        180.2577
2015    12      3       1.165516        187.5605
2015    12      4       1.354511        202.0045
2015    12      5       1.288212        199.9462
2015    12      6       1.16123         192.1808
2015    12      7       1.140754        190.6687
2015    13      0       1.029198        179.666
2015    13      1       0.9191882       168.2809
2015    13      2       0.8503338       160.4551
2015    13      3       0.8401655       158.9881
2015    13      4       0.7098987       143.0618
2015    13      5       0.716726        144.3967
2015    13      6       0.7728046       151.9051
2015    13      7       0.7794527       152.4008
2015    14      0       0.6978631       140.6514
2015    14      1       0.7020842       140.9261
2015    14      2       0.7242514       143.38
2015    14      3       0.7128514       141.4335
2015    14      4       0.6893032       138.0883
2015    14      5       0.7636175       147.743
2015    14      6       0.9991794       174.4709
2015    14      7       1.114181        186.0184
2015    15      0       0.9458318       169.8886
2015    15      1       0.7712695       150.3001
2015    15      2       0.7880883       152.2356
2015    15      3       0.8320596       157.2978
2015    15      4       0.7926342       152.692
2015    15      5       0.8130565       155.3665
2015    15      6       0.8405243       158.8543
2015    15      7       0.8753005       162.9811
2015    16      0       0.670311        137.2305
2015    16      1       0.4741923       106.8161
2015    16      2       0.4471579       101.8981
2015    16      3       0.46893         105.2336
2015    16      4       0.4929028       109.0133
2015    16      5       0.6431118       131.4204
2015    16      6       0.7731242       148.9187
2015    16      7       0.8693444       160.6585
2015    17      0       0.7707094       148.8052
2015    17      1       0.7354607       143.9815
2015    17      2       0.7516927       145.7752
2015    17      3       0.737379        144.0038
2015    17      4       0.6822339       137.1569
2015    17      5       0.6899702       138.5249
2015    17      6       0.74057         145.3187
2015    17      7       0.6842718       138.4544
2015    18      0       0.6536219       133.9344
2015    18      1       0.6989465       139.9733
2015    18      2       0.7112014       141.3102
2015    18      3       0.6477295       132.5657
2015    18      4       0.6770792       136.7291
2015    18      5       0.703898        140.6401
2015    18      6       0.6566031       134.9868
2015    18      7       0.5565446       121.0599
2015    19      0       0.4546317       104.4282
2015    19      1       0.4182236       98.0908
2015    19      2       0.40792         95.9402
2015    19      3       0.3854992       92.11913
2015    19      4       0.3899366       92.90332
2015    19      5       0.5398588       118.2941
2015    19      6       0.6966489       141.0697
2015    19      7       0.6732489       138.5812
2015    20      0       0.5097972       114.551
2015    20      1       0.3807593       91.79852
2015    20      2       0.3434937       84.21194
2015    20      3       0.3994951       94.06775
2015    20      4       0.4411817       101.0901
2015    20      5       0.5064789       112.2785
2015    20      6       0.5727393       122.9685
2015    20      7       0.6364606       132.0404
2015    21      0       0.6138857       127.5247
2015    21      1       0.5719275       121.0179
2015    21      2       0.5476509       117.5508
2015    21      3       0.4918144       109.1185
2015    21      4       0.3945684       93.21922
2015    21      5       0.4355322       101.2261
2015    21      6       0.4764651       108.5665
2015    21      7       0.4966706       112.0965
2015    22      0       0.4258762       99.87386
2015    22      1       0.4065853       96.34
2015    22      2       0.3759319       90.55863
2015    22      3       0.4132366       97.34543
2015    22      4       0.3899287       92.99871
2015    22      5       0.4127705       97.34324
2015    22      6       0.4326413       101.0946
2015    22      7       0.4981289       112.8075
2015    23      0       0.4150622       98.5897
2015    23      1       0.3409742       84.41131
2015    23      2       0.3547493       86.83781
2015    23      3       0.4055428       95.71447
2015    23      4       0.4682171       105.4699
2015    23      5       0.4553004       102.8645
2015    23      6       0.4383423       99.75604
2015    23      7       0.4915152       109.3946
2015    24      0       0.3850941       91.4068
2015    24      1       0.34305         83.20475
2015    24      2       0.3907452       91.37693
2015    24      3       0.4847037       106.8594
2015    24      4       0.6454654       131.0704
2015    24      5       0.8858372       161.2604
2015    24      6       1.28067         198.3294
2015    24      7       1.555132        218.1276
2015    25      0       1.688979        225.9949
2015    25      1       1.85665         234.1096
2015    25      2       1.98442         239.9482
2015    25      3       1.89824         237.5683
2015    25      4       1.579043        222.5924
2015    25      5       1.281232        202.7773
2015    25      6       1.309244        205.0911
2015    25      7       1.206658        197.4443
2015    26      0       0.9750325       175.8603
2015    26      1       0.8152358       158.0973
2015    26      2       0.7707703       152.6003
2015    26      3       0.6270883       133.1515
2015    26      4       0.5151486       116.0467
2015    26      5       0.5223374       117.4978
2015    26      6       0.5683022       124.8828
2015    26      7       0.5187858       117.1127
2015    27      0       0.3209722       80.84328
2015    27      1       0.2581681       67.74571
2015    27      2       0.2887781       74.10034
2015    27      3       0.3443122       85.16654
2015    27      4       0.3616249       88.61878
2015    27      5       0.3974284       95.56197
2015    27      6       0.5041311       114.5394
2015    27      7       0.4801781       110.5961
2015    28      0       0.3705048       90.71355
2015    28      1       0.3340254       83.75131
2015    28      2       0.3880076       93.82652
2015    28      3       0.4704719       108.2667
2015    28      4       0.5069367       114.275
2015    28      5       0.5301065       118.4145
2015    28      6       0.5781491       126.1858
2015    28      7       0.6261271       133.4154
2015    29      0       0.5530337       122.2559
2015    29      1       0.5266231       118.1067
2015    29      2       0.4909492       112.1204
2015    29      3       0.4287442       101.2362
2015    29      4       0.3632768       89.23636
2015    29      5       0.3985329       95.86665
2015    29      6       0.4766663       109.9042
2015    29      7       0.4050797       97.46975
2015    30      0       0.2958815       76.25945
2015    30      1       0.2828891       73.53601
2015    30      2       0.3041694       77.78303
2015    30      3       0.3234335       81.42527
2015    30      4       0.3198143       80.56292
2015    30      5       0.3566218       87.7617
2015    30      6       0.452952        105.5441
2015    30      7       0.4932869       112.8515
2016    1       0       0.6109311       129.5294
2016    1       1       0.5905273       125.7281
2016    1       2       0.5910288       125.3823
2016    1       3       0.5451486       118.7147
2016    1       4       0.5795241       124.6511
2016    1       5       0.6581791       136.7527
2016    1       6       0.76799         151.4584
2016    1       7       0.8329584       159.403
2016    2       0       0.7418198       146.9691
2016    2       1       0.7302491       144.9253
2016    2       2       0.7300432       145.2866
2016    2       3       0.699782        141.6978
2016    2       4       0.6423477       134.3618
2016    2       5       0.5811456       126.2506
2016    2       6       0.6684034       139.1868
2016    2       7       0.7583724       151.1178
2016    3       0       0.6833465       140.2613
2016    3       1       0.6857024       139.476
2016    3       2       0.7323312       144.2419
2016    3       3       0.8031769       152.4999
2016    3       4       0.8616837       159.3174
2016    3       5       1.037936        178.9496
2016    3       6       1.327693        203.7476
2016    3       7       1.5138          216.0946
2016    4       0       1.475308        213.683
2016    4       1       1.489374        214.1865
2016    4       2       1.51941         216.1293
2016    4       3       1.519147        215.6439
2016    4       4       1.448228        211.1884
2016    4       5       1.6028          220.5041
2016    4       6       1.944635        236.7274
2016    4       7       2.313252        249.0412
2016    5       0       2.405158        250.9631
2016    5       1       2.424203        251.3052
2016    5       2       2.206975        245.643
2016    5       3       2.189654        244.3682
2016    5       4       2.332109        249.3406
2016    5       5       2.07273         242.5457
2016    5       6       1.789812        231.6927
2016    5       7       1.508181        216.9217
2016    6       0       1.124139        189.1246
2016    6       1       0.9532959       172.9223
2016    6       2       0.8974693       167.0218
2016    6       3       0.8913678       166.236
2016    6       4       0.8245571       158.809
2016    6       5       0.8150954       158.0732
2016    6       6       0.8324551       160.3925
2016    6       7       0.7971861       156.0818
2016    7       0       0.4168094       99.27897
2016    7       1       0.2321067       62.72371
2016    7       2       0.1860211       51.97008
2016    7       3       0.206975        56.02582
2016    7       4       0.2688533       69.27428
2016    7       5       0.3937376       94.13497
2016    7       6       0.4997571       112.7794
2016    7       7       0.4849795       110.3334
2016    8       0       0.3981767       94.9717
2016    8       1       0.3854663       92.50642
2016    8       2       0.3761015       90.67813
2016    8       3       0.375737        90.49276
2016    8       4       0.4083887       96.45381
2016    8       5       0.4818652       109.3613
2016    8       6       0.557355        121.7084
2016    8       7       0.5479837       120.5859
2016    9       0       0.4071756       96.94712
2016    9       1       0.3328213       82.73463
2016    9       2       0.310538        78.0794
2016    9       3       0.3325942       82.31561
2016    9       4       0.3751517       90.40031
2016    9       5       0.4615587       106.0549
2016    9       6       0.5598642       122.4594
2016    9       7       0.5572844       122.2061
2016    10      0       0.3817187       92.19271
2016    10      1       0.2851489       73.31481
2016    10      2       0.2536108       66.96618
2016    10      3       0.2474793       65.49108
2016    10      4       0.2554264       66.7003
2016    10      5       0.3200329       79.67106
2016    10      6       0.4635283       105.656
2016    10      7       0.4943317       110.3382
2016    11      0       0.4320616       99.22517
2016    11      1       0.3981408       93.41566
2016    11      2       0.3931763       92.51874
2016    11      3       0.4269768       98.38748
2016    11      4       0.5332964       114.8687
2016    11      5       0.6427557       130.5245
2016    11      6       0.6893791       136.4181
2016    11      7       0.6942552       139.0305
2016    12      0       0.7206843       143.7044
2016    12      1       0.7590614       148.2814
2016    12      2       0.8312443       156.2359
2016    12      3       0.9198872       165.2003
2016    12      4       0.9519578       169.3817
2016    12      5       0.7574609       148.2351
2016    12      6       0.7032821       141.8
2016    12      7       0.6147949       129.5334
2016    13      0       0.5021404       110.5977
2016    13      1       0.4520956       102.7163
2016    13      2       0.4821673       107.6001
2016    13      3       0.5533404       119.2947
2016    13      4       0.6413311       131.9527
2016    13      5       0.7726454       150.2143
2016    13      6       0.8442744       159.0489
2016    13      7       0.8482239       160.1202
2016    14      0       0.7588908       149.3505
2016    14      1       0.679183        138.7608
2016    14      2       0.675108        138.1711
2016    14      3       0.7130615       143.4236
2016    14      4       0.696024        141.1336
2016    14      5       0.7139286       143.5926
2016    14      6       0.8005256       155.219
2016    14      7       0.9029366       167.7992
2016    15      0       0.8077447       156.9576
2016    15      1       0.7503018       149.2929
2016    15      2       0.7799289       152.7064
2016    15      3       0.8527936       161.3729
2016    15      4       0.7629448       150.7245
2016    15      5       0.7419153       147.9317
2016    15      6       0.8079254       156.5721
2016    15      7       0.8658919       164.0049
2016    16      0       0.7871134       154.6928
2016    16      1       0.813756        157.8575
2016    16      2       0.8225393       158.6319
2016    16      3       0.8201008       158.1744
2016    16      4       0.8576669       163.2498
2016    16      5       0.734826        147.9168
2016    16      6       0.7382782       148.5843
2016    16      7       0.8192158       158.8484
2016    17      0       0.7009288       143.9186
2016    17      1       0.6129498       130.8072
2016    17      2       0.6950689       140.0272
2016    17      3       0.8861294       160.9714
2016    17      4       1.015404        173.7212
2016    17      5       1.142584        186.8622
2016    17      6       1.473363        212.0766
2016    17      7       1.660325        222.7864
2016    18      0       1.602508        218.9604
2016    18      1       1.491996        213.7549
2016    18      2       1.622223        220.8285
2016    18      3       1.910747        233.9819
2016    18      4       2.065997        240.7321
2016    18      5       1.846656        233.3041
2016    18      6       1.700118        225.9484
2016    18      7       1.846227        232.4373
2016    19      0       1.706662        225.5176
2016    19      1       1.497737        214.9728
2016    19      2       1.315881        203.6748
2016    19      3       1.267719        199.9575
2016    19      4       1.232166        197.8817
2016    19      5       1.322957        205.0761
2016    19      6       1.379955        209.1217
2016    19      7       1.455126        213.5573
2016    20      0       1.575438        220.3951
2016    20      1       1.631956        223.2757
2016    20      2       1.832013        232.4983
2016    20      3       1.828489        231.7046
2016    20      4       1.276249        199.3506
2016    20      5       0.7899017       152.9549
2016    20      6       0.6708512       137.7424
2016    20      7       0.728738        145.4215
2016    21      0       0.6539321       135.7267
2016    21      1       0.5011909       112.1563
2016    21      2       0.4795569       108.3952
2016    21      3       0.4856496       109.4138
2016    21      4       0.4220679       98.43195
2016    21      5       0.4387649       101.6142
2016    21      6       0.4976092       111.9508
2016    21      7       0.5989827       128.3398
2016    22      0       0.5814022       126.0166
2016    22      1       0.4940076       111.8998
2016    22      2       0.4564318       105.41
2016    22      3       0.4569087       105.4779
2016    22      4       0.4295566       100.5873
2016    22      5       0.4041285       95.90517
2016    22      6       0.4931712       110.5735
2016    22      7       0.5393117       118.3586
2016    23      0       0.4969479       110.9328
2016    23      1       0.5964059       125.8126
2016    23      2       0.5758964       122.2483
2016    23      3       0.6425162       130.8457
2016    23      4       0.6653952       134.4584
2016    23      5       0.7611814       146.5996
2016    23      6       0.9136864       164.2701
2016    23      7       1.017874        174.222
2016    24      0       1.033893        174.3819
2016    24      1       0.9268771       163.4234
2016    24      2       1.056094        175.5582
2016    24      3       1.307184        196.4741
2016    24      4       1.398578        203.2076
2016    24      5       1.787375        224.1603
2016    24      6       1.808106        227.1316
2016    24      7       1.404627        206.8832
2016    25      0       1.13493         186.5766
2016    25      1       0.9228274       166.5222
2016    25      2       0.9162395       165.2579
2016    25      3       0.8827858       161.7626
2016    25      4       0.8916352       162.7664
2016    25      5       1.028437        176.2709
2016    25      6       1.212745        191.8136
2016    25      7       1.395933        204.04
2016    26      0       1.289784        196.3678
2016    26      1       1.069522        179.8191
2016    26      2       0.7415849       146.0305
2016    26      3       0.5109063       113.1994
2016    26      4       0.3793301       90.49067
2016    26      5       0.3110594       78.40424
2016    26      6       0.3305588       82.51027
2016    26      7       0.3401124       83.73386
2016    27      0       0.259038        67.29596
2016    27      1       0.1891525       52.12858
2016    27      2       0.2167548       56.80484
2016    27      3       0.3482013       82.22981
2016    27      4       0.5056256       108.7001
2016    27      5       0.9133229       160.8162
2016    27      6       0.9212352       164.0333
2016    27      7       0.9126001       163.1694
2016    28      0       1.059322        177.3733
2016    28      1       1.164768        186.4807
2016    28      2       1.22332         191.5757
2016    28      3       1.145895        185.4808
2016    28      4       1.082809        180.9235
2016    28      5       1.221086        191.2941
2016    28      6       1.344322        201.2878
2016    28      7       1.308636        200.1746
2016    29      0       1.266647        197.1007
2016    29      1       1.284672        198.2858
2016    29      2       1.184802        190.7466
2016    29      3       1.120173        185.7191
2016    29      4       1.135495        188.0682
2016    29      5       1.135072        188.6687
2016    29      6       1.134158        188.8605
2016    29      7       1.093516        185.7706
2016    30      0       1.049178        182.0171
2016    30      1       0.9681963       174.7197
2016    30      2       0.9172186       169.3271
2016    30      3       0.9495315       172.9265
2016    30      4       0.9180065       169.3154
2016    30      5       0.8709515       164.1654
2016    30      6       0.7792215       153.2184
2016    30      7       0.6885794       140.5888
2017    1       0       0.8541821       161.4529
2017    1       1       0.77667         151.7989
2017    1       2       0.8376928       159.0003
2017    1       3       0.9073703       166.7494
2017    1       4       0.8900317       165.1286
2017    1       5       0.8510988       161.128
2017    1       6       0.9724362       174.3189
2017    1       7       1.083422        184.8385
2017    2       0       1.054855        181.9474
2017    2       1       0.9247512       168.9179
2017    2       2       0.780401        152.5357
2017    2       3       0.5944629       127.6589
2017    2       4       0.4820928       110.4416
2017    2       5       0.5608942       123.5151
2017    2       6       0.5967942       129.1558
2017    2       7       0.6687629       139.6618
2017    3       0       0.5334816       119.5448
2017    3       1       0.3592832       89.02543
2017    3       2       0.388854        94.50802
2017    3       3       0.4379474       103.1392
2017    3       4       0.4560012       106.3028
2017    3       5       0.5225204       117.383
2017    3       6       0.5389178       119.9963
2017    3       7       0.5499795       121.7008
2017    4       0       0.3582254       88.22508
2017    4       1       0.3102139       78.40057
2017    4       2       0.3846253       92.71024
2017    4       3       0.4376839       102.0946
2017    4       4       0.450207        104.1156
2017    4       5       0.541543        119.3006
2017    4       6       0.6370925       133.4769
2017    4       7       0.6670664       137.6391
2017    5       0       0.4368915       101.7676
2017    5       1       0.3529087       86.13274
2017    5       2       0.3230316       80.07037
2017    5       3       0.3230911       79.99067
2017    5       4       0.3452381       84.20446
2017    5       5       0.4454123       102.7738
2017    5       6       0.5473957       120.1646
2017    5       7       0.6082643       130.1217
2017    6       0       0.4226995       99.40939
2017    6       1       0.4046789       95.78134
2017    6       2       0.4196198       98.38875
2017    6       3       0.4168859       98.0048
2017    6       4       0.3958864       94.18456
2017    6       5       0.4556342       105.0919
2017    6       6       0.5556443       122.0526
2017    6       7       0.5759311       125.8228
2017    7       0       0.3949187       94.55614
2017    7       1       0.3636943       88.65338
2017    7       2       0.3862243       92.94808
2017    7       3       0.3585129       87.52871
2017    7       4       0.3461055       84.66937
2017    7       5       0.4824174       109.0404
2017    7       6       0.5664728       122.7705
2017    7       7       0.606966        129.3864
2017    8       0       0.4671869       106.8454
2017    8       1       0.4427368       102.4598
2017    8       2       0.4711071       107.2272
2017    8       3       0.4903873       110.1705
2017    8       4       0.4500869       103.2241
2017    8       5       0.459955        105.1473
2017    8       6       0.5097475       113.4277
2017    8       7       0.5081094       113.4023
2017    9       0       0.408677        96.50981
2017    9       1       0.4359824       101.1715
2017    9       2       0.5200117       114.9966
2017    9       3       0.4953242       111.0216
2017    9       4       0.4002355       94.955
2017    9       5       0.4246471       99.26264
2017    9       6       0.5051272       112.9355
2017    9       7       0.525909        116.5574
2017    10      0       0.430501        100.4227
2017    10      1       0.3571751       87.0058
2017    10      2       0.3536771       86.21492
2017    10      3       0.4288676       99.63549
2017    10      4       0.4286965       99.85896
2017    10      5       0.4741269       107.9419
2017    10      6       0.5719625       124.1933
2017    10      7       0.6172523       131.5388
2017    11      0       0.5091958       115.0768
2017    11      1       0.4547644       105.9511
2017    11      2       0.4453943       104.0173
2017    11      3       0.4357857       102.1375
2017    11      4       0.4026783       96.13348
2017    11      5       0.4141368       98.58807
2017    11      6       0.5418473       120.4895
2017    11      7       0.5561558       123.0112
2017    12      0       0.3344619       83.94386
2017    12      1       0.1869664       52.41432
2017    12      2       0.1586859       45.79983
2017    12      3       0.1905311       53.00692
2017    12      4       0.2137296       58.11769
2017    12      5       0.2899009       74.60839
2017    12      6       0.3104019       78.65064
2017    12      7       0.332608        83.10711
2017    13      0       0.2516148       66.22038
2017    13      1       0.2010213       54.9317
2017    13      2       0.2208406       59.06018
2017    13      3       0.2663332       68.75876
2017    13      4       0.2996579       75.43421
2017    13      5       0.3737595       90.25515
2017    13      6       0.4869059       110.2612
2017    13      7       0.509043        114.3361
2017    14      0       0.4052174       95.84281
2017    14      1       0.3908247       92.57522
2017    14      2       0.4240096       98.38033
2017    14      3       0.446379        102.5885
2017    14      4       0.5047942       112.489
2017    14      5       0.5914795       126.6098
2017    14      6       0.6833271       140.0852
2017    14      7       0.6444773       134.5157
2017    15      0       0.4953931       111.085
2017    15      1       0.4548094       103.7482
2017    15      2       0.4526407       103.0958
2017    15      3       0.4811944       108.3279
2017    15      4       0.4164518       97.67744
2017    15      5       0.4147919       97.47379
2017    15      6       0.4261975       100.0145
2017    15      7       0.4963642       112.1472
2017    16      0       0.4686023       106.8798
2017    16      1       0.4659262       106.4383
2017    16      2       0.477517        108.4253
2017    16      3       0.4916385       110.5059
2017    16      4       0.5090523       113.052
2017    16      5       0.4992106       111.7925
2017    16      6       0.522609        115.8142
2017    16      7       0.5191344       115.1138
2017    17      0       0.5236886       115.2505
2017    17      1       0.5599929       120.7104
2017    17      2       0.6091684       128.1734
2017    17      3       0.6433311       132.8813
2017    17      4       0.716579        142.7879
2017    17      5       0.8638452       159.7522
2017    17      6       0.9963319       174.0733
2017    17      7       1.135688        186.9852
2017    18      0       1.298969        199.8879
2017    18      1       1.276162        199.4751
2017    18      2       1.438373        210.482
2017    18      3       1.293288        200.1628
2017    18      4       1.059355        180.6569
2017    18      5       1.171076        190.017
2017    18      6       1.20239         192.052
2017    18      7       0.8973415       163.3288
2017    19      0       0.6429291       131.519
2017    19      1       0.6477897       131.6508
2017    19      2       0.6734568       134.6646
2017    19      3       0.5020592       109.9777
2017    19      4       0.4123607       95.3049
2017    19      5       0.5953942       124.2487
2017    19      6       0.9394938       167.0518
2017    19      7       1.117376        184.79
2017    20      0       1.13458         186.6926
2017    20      1       1.075865        181.3852
2017    20      2       1.165707        188.9019
2017    20      3       1.444354        209.7638
2017    20      4       1.441411        210.2484
2017    20      5       1.447269        210.0096
2017    20      6       1.352764        205.6062
2017    20      7       1.357271        207.1875
2017    21      0       1.288756        202.3784
2017    21      1       1.408025        212.0681
2017    21      2       0.8657624       163.7393
2017    21      3       0.5945535       128.3676
2017    21      4       0.3960368       95.3299
2017    21      5       0.4564797       105.8871
2017    21      6       0.5357098       119.2304
2017    21      7       0.5279819       118.127
2017    22      0       0.3946571       94.927
2017    22      1       0.3529736       87.24165
2017    22      2       0.3475452       86.05706
2017    22      3       0.3456385       85.422
2017    22      4       0.421187        99.33351
2017    22      5       0.5571232       121.9653
2017    22      6       0.6452147       135.5242
2017    22      7       0.5940306       128.5816
2017    23      0       0.4908835       112.1827
2017    23      1       0.4396282       103.2149
2017    23      2       0.4270329       100.7149
2017    23      3       0.4131555       97.91942
2017    23      4       0.3972593       95.043
2017    23      5       0.4814006       109.7308
2017    23      6       0.5516393       121.1107
2017    23      7       0.4795323       109.744
2017    24      0       0.3655513       88.77617
2017    24      1       0.4221737       98.78823
2017    24      2       0.494241        110.8283
2017    24      3       0.5056062       112.457
2017    24      4       0.5317664       116.3997
2017    24      5       0.6100314       128.3577
2017    24      6       0.7198906       144.0002
2017    24      7       0.7792857       151.882
2017    25      0       0.6022841       127.3584
2017    25      1       0.5450653       118.5385
2017    25      2       0.5422854       117.8256
2017    25      3       0.5290808       115.851
2017    25      4       0.4144389       96.9532
2017    25      5       0.4456539       102.8207
2017    25      6       0.4909261       110.6693
2017    25      7       0.5234139       116.0214
2017    26      0       0.3651419       88.63195
2017    26      1       0.3787133       91.06676
2017    26      2       0.3649971       88.318
2017    26      3       0.3105107       77.39691
2017    26      4       0.304522        75.92809
2017    26      5       0.3435376       83.79531
2017    26      6       0.4160631       97.44952
2017    26      7       0.475189        108.0499
2017    27      0       0.4163942       97.44696
2017    27      1       0.3916205       92.97537
2017    27      2       0.3862773       92.05506
2017    27      3       0.3925519       93.09705
2017    27      4       0.4013795       94.87229
2017    27      5       0.4127415       97.05341
2017    27      6       0.4325437       100.8712
2017    27      7       0.4982883       112.3694
2017    28      0       0.4041448       96.20999
2017    28      1       0.3587098       87.82529
2017    28      2       0.3311974       82.52753
2017    28      3       0.2650063       69.00876
2017    28      4       0.2218453       59.75222
2017    28      5       0.2348583       62.62404
2017    28      6       0.2540498       66.91362
2017    28      7       0.3080182       78.32626
2017    29      0       0.2779875       72.22402
2017    29      1       0.2456339       65.31238
2017    29      2       0.1807339       50.81272
2017    29      3       0.1847573       51.67984
2017    29      4       0.2067654       56.65813
2017    29      5       0.2308934       61.93178
2017    29      6       0.2918082       74.44584
2017    29      7       0.3712555       89.78385
2017    30      0       0.4559409       104.6359
2017    30      1       0.5433286       118.4605
2017    30      2       0.5621989       121.2301
2017    30      3       0.5685901       122.1584
2017    30      4       0.5907536       125.7607
2017    30      5       0.5485059       119.4767
2017    30      6       0.4941298       110.8679
2017    30      7       0.4203453       98.18364
2018    1       0       0.6890481       141.6344
2018    1       1       0.6491891       136.0401
2018    1       2       0.7070468       143.9392
2018    1       3       0.7315224       146.9701
2018    1       4       0.7769954       152.8941
2018    1       5       0.8645669       163.2294
2018    1       6       0.8762123       164.7374
2018    1       7       0.8786802       165.0956
2018    2       0       0.728824        146.7676
2018    2       1       0.6549048       136.3918
2018    2       2       0.6225248       131.6673
2018    2       3       0.6227632       131.5472
2018    2       4       0.571222        124.0016
2018    2       5       0.6512843       135.8504
2018    2       6       0.7266824       146.4121
2018    2       7       0.7911274       154.8313
2018    3       0       0.6843288       140.9673
2018    3       1       0.5049077       113.7265
2018    3       2       0.3903106       93.27285
2018    3       3       0.4033307       95.25399
2018    3       4       0.4051228       95.57162
2018    3       5       0.4639566       106.2571
2018    3       6       0.5762304       124.7548
2018    3       7       0.799519        155.3852
2018    4       0       0.6976138       142.5806
2018    4       1       0.4662256       107.2631
2018    4       2       0.3261864       81.38362
2018    4       3       0.3742297       90.5535
2018    4       4       0.4326619       101.1709
2018    4       5       0.5637495       122.819
2018    4       6       0.6639072       137.8064
2018    4       7       0.7675949       151.7181
2018    5       0       0.6217059       132.2889
2018    5       1       0.4157552       98.86388
2018    5       2       0.3141526       79.44359
2018    5       3       0.3103628       78.57858
2018    5       4       0.319084        79.84067
2018    5       5       0.4481534       103.6989
2018    5       6       0.5734868       124.1822
2018    5       7       0.6387055       133.5922
2018    6       0       0.4844501       109.102
2018    6       1       0.3376957       82.24654
2018    6       2       0.2844764       71.73057
2018    6       3       0.2881914       72.54045
2018    6       4       0.3146082       78.20708
2018    6       5       0.4289273       100.1227
2018    6       6       0.4765277       108.6138
2018    6       7       0.5197982       116.2179
2018    7       0       0.3628325       88.98644
2018    7       1       0.2781737       71.46616
2018    7       2       0.2459377       64.38831
2018    7       3       0.2415929       63.55619
2018    7       4       0.2843234       72.41584
2018    7       5       0.3972789       94.52558
2018    7       6       0.4956297       112.0985
2018    7       7       0.5476021       120.7741
2018    8       0       0.444734        103.1717
2018    8       1       0.3938978       93.55185
2018    8       2       0.355686        86.2592
2018    8       3       0.2943152       74.08346
2018    8       4       0.2791917       70.62385
2018    8       5       0.42711         99.69184
2018    8       6       0.5886465       127.0964
2018    8       7       0.6390457       135.1219
2018    9       0       0.5811534       126.165
2018    9       1       0.5789283       125.4552
2018    9       2       0.6062811       129.149
2018    9       3       0.6475326       134.073
2018    9       4       0.7865376       151.2131
2018    9       5       0.9739671       171.6574
2018    9       6       1.24868         195.9619
2018    9       7       1.484427        212.1855
2018    10      0       1.375185        206.1006
2018    10      1       1.298612        200.9729
2018    10      2       1.268775        198.4366
2018    10      3       1.271504        198.1379
2018    10      4       1.365073        204.7937
2018    10      5       1.485755        213.6736
2018    10      6       1.53554         218.1405
2018    10      7       1.474824        214.3847
2018    11      0       1.80576         229.6011
2018    11      1       2.119066        241.8995
2018    11      2       2.109555        241.2467
2018    11      3       2.834749        258.977
2018    11      4       2.64537         256.6391
2018    11      5       2.565895        255.5046
2018    11      6       2.518665        254.9039
2018    11      7       2.442263        253.9536
2018    12      0       2.208967        247.9128
2018    12      1       2.169561        246.8625
2018    12      2       2.026242        241.8668
2018    12      3       1.856808        235.0772
2018    12      4       1.74565         230.3529
2018    12      5       1.689826        228.0338
2018    12      6       1.718044        229.4714
2018    12      7       1.534986        219.493
2018    13      0       1.3085          204.3457
2018    13      1       1.154035        192.2651
2018    13      2       1.287139        202.9104
2018    13      3       1.407965        211.7353
2018    13      4       1.277212        202.6961
2018    13      5       1.188444        196.0702
2018    13      6       1.219212        198.4048
2018    13      7       0.9809784       176.5352
2018    14      0       0.6995256       141.699
2018    14      1       0.6391704       132.6109
2018    14      2       0.6791537       138.0628
2018    14      3       0.7096161       142.556
2018    14      4       0.5935434       126.5885
2018    14      5       0.5214297       116.3754
2018    14      6       0.4973553       113.3393
2018    14      7       0.3518149       87.20223
2018    15      0       0.2669132       69.79803
2018    15      1       0.2374758       63.23126
2018    15      2       0.2004691       54.74189
2018    15      3       0.1762338       48.91188
2018    15      4       0.1910617       52.22205
2018    15      5       0.2918793       74.38914
2018    15      6       0.4357449       102.3114
2018    15      7       0.3880186       92.75729
2018    16      0       0.3797561       90.86233
2018    16      1       0.3817674       91.24804
2018    16      2       0.4553383       104.4703
2018    16      3       0.5083545       113.5604
2018    16      4       0.4590415       105.4531
2018    16      5       0.4217577       99.40039
2018    16      6       0.5022495       113.9825
2018    16      7       0.455626        105.8776
2018    17      0       0.3592417       87.34439
2018    17      1       0.417248        98.02456
2018    17      2       0.4773327       108.7711
2018    17      3       0.448399        103.8129
2018    17      4       0.4169587       98.20351
2018    17      5       0.5088178       114.94
2018    17      6       0.703776        144.2044
2018    17      7       0.8360646       161.055
2018    18      0       0.7337451       148.0891
2018    18      1       0.8017053       156.9462
2018    18      2       0.9268953       171.6177
2018    18      3       0.9920296       178.7012
2018    18      4       1.004718        180.383
2018    18      5       0.9686507       177.0624
2018    18      6       1.024678        182.6499
2018    18      7       0.9924139       179.9608
2018    19      0       0.7666023       153.1576
2018    19      1       0.7861337       155.4279
2018    19      2       0.8388925       161.7296
2018    19      3       0.8835848       166.6664
2018    19      4       0.8592331       163.7873
2018    19      5       0.8512322       163.1212
2018    19      6       0.8006968       157.6232
2018    19      7       0.6858508       142.384
2018    20      0       0.7244197       147.2079
2018    20      1       0.8191626       159.0526
2018    20      2       0.8788104       166.0161
2018    20      3       0.90901         169.1803
2018    20      4       0.9485642       173.3342
2018    20      5       0.9748356       176.2487
2018    20      6       0.910193        169.7716
2018    20      7       0.7342241       149.0749
2018    21      0       0.5202566       117.1446
2018    21      1       0.4649429       107.5648
2018    21      2       0.4465038       104.1131
2018    21      3       0.4241384       99.7181
2018    21      4       0.4155131       98.05176
2018    21      5       0.4746143       108.3589
2018    21      6       0.5450698       119.5422
2018    21      7       0.5029629       112.1488
2018    22      0       0.5002872       111.4684
2018    22      1       0.6109589       127.5636
2018    22      2       0.6474764       133.3133
2018    22      3       0.6371565       132.7824
2018    22      4       0.6629235       136.5378
2018    22      5       0.7002614       141.4327
2018    22      6       0.7552258       149.2925
2018    22      7       0.7980681       154.9627
2018    23      0       0.6502512       134.8586
2018    23      1       0.6346556       131.941
2018    23      2       0.6115737       128.3319
2018    23      3       0.5707965       121.857
2018    23      4       0.5645503       120.0217
2018    23      5       0.6495623       132.5088
2018    23      6       0.7641167       148.3922
2018    23      7       0.7772171       150.4331
2018    24      0       0.773241        149.4208
2018    24      1       0.8568714       159.1203
2018    24      2       0.8410472       157.5928
2018    24      3       0.7936341       151.8076
2018    24      4       0.7032729       140.0963
2018    24      5       0.7675147       149.6987
2018    24      6       0.810663        155.4827
2018    24      7       0.8448051       158.8354
2018    25      0       0.8817186       162.145
2018    25      1       0.8928909       162.7674
2018    25      2       0.873184        160.0262
2018    25      3       0.9346136       165.381
2018    25      4       0.9506954       166.7473
2018    25      5       0.9399827       166.8872
2018    25      6       1.087284        181.9785
2018    25      7       1.124338        183.9347
2018    26      0       1.390118        203.0197
2018    26      1       1.532282        212.3796
2018    26      2       1.297538        197.0046
2018    26      3       1.030115        174.1508
2018    26      4       0.9750068       169.2339
2018    26      5       1.092807        181.6883
2018    26      6       1.356483        204.1966
2018    26      7       1.537729        217.93
2018    27      0       1.383901        208.7281
2018    27      1       1.110948        187.8167
2018    27      2       0.7415147       147.9344
2018    27      3       0.6493421       135.4992
2018    27      4       0.6477115       135.254
2018    27      5       0.707011        143.4625
2018    27      6       0.7497411       149.2844
2018    27      7       0.7559458       150.4561
2018    28      0       0.6463048       135.848
2018    28      1       0.6096812       130.5442
2018    28      2       0.5911492       127.8021
2018    28      3       0.557758        122.7456
2018    28      4       0.5336996       119.0458
2018    28      5       0.5546889       122.2857
2018    28      6       0.5804791       126.2614
2018    28      7       0.5613065       123.561
2018    29      0       0.4588639       107.0221
2018    29      1       0.3734164       91.84058
2018    29      2       0.3870377       94.38212
2018    29      3       0.372497        91.63822
2018    29      4       0.3398827       84.96746
2018    29      5       0.3166636       79.70434
2018    29      6       0.4118755       97.67523
2018    29      7       0.44817         104.6989
2018    30      0       0.3851812       93.04395
2018    30      1       0.3530414       87.26655
2018    30      2       0.418634        98.83927
2018    30      3       0.4315626       100.7477
2018    30      4       0.4059875       95.90057
2018    30      5       0.3975997       94.0709
2018    30      6       0.3895237       92.79282
2018    30      7       0.3921444       93.37996
