####################################################################################################
# Month: 09Sep                                                                                     #
# Station: BMAC                                                                                    #
# Frequency: 230 GHz                                                                               #
# Columns are: year    day     tau     Tb (K)                                                      #
####################################################################################################
2009    1       0.2657871       65.77501625
2009    2       0.1981177       52.02344875
2009    3       0.09369941      28.2771975
2009    4       0.07899637      24.5195175
2009    5       0.18085696      48.6156425
2009    6       0.17683075      47.28933875
2009    7       0.14110118      39.82930875
2009    8       0.17667225      47.52353625
2009    9       0.19060191      50.1099925
2009    10      0.22274017      56.03106125
2009    11      0.0466985       16.42697125
2009    12      0.06231308      20.60094
2009    13      0.12454863      35.38987375
2009    14      0.43692641      96.459005
2009    15      0.34428929      81.447815
2009    16      0.17478928      47.210075
2009    17      0.14870397      41.00465125
2009    18      0.13498853      37.15553125
2009    19      0.13036212      36.64383375
2009    20      0.10865971      31.50942875
2009    21      0.15204244      41.2334525
2009    22      0.32638979      75.62140875
2009    23      0.33745554      79.8351225
2009    24      0.31626608      75.320405
2009    25      0.18230394      47.7268575
2009    26      0.19948517      50.44708125
2009    27      0.3293937       78.18559125
2009    28      0.32739052      77.8539525
2009    29      0.26042409      64.1247575
2009    30      0.38041541      86.94149125
2010    1       0.14338386      40.07502875
2010    2       0.137802        38.1844925
2010    3       0.04746201      16.68168
2010    4       0.11885872      33.77621125
2010    5       0.06381034      20.9863275
2010    6       0.22417467      56.460275
2010    7       0.10319186      29.8402975
2010    8       0.3662286       84.55663625
2010    9       0.39890405      89.61866
2010    10      0.09457046      28.24508875
2010    11      0.08614761      26.25250125
2010    12      0.0535052       18.42002625
2010    13      0.08702055      26.82438375
2010    14      0.14481448      40.80883125
2010    15      0.32565948      77.1524275
2010    16      0.30969788      74.17535125
2010    17      0.45533034      100.20336125
2010    18      0.52370139      111.93593
2010    19      0.65333197      131.786175
2010    20      0.50210259      108.9916925
2010    21      0.4218295       92.6812825
2010    22      0.08860199      27.13836875
2010    23      0.05618146      19.07605125
2010    24      0.13084448      36.979595
2010    25      0.3907652       89.14610375
2010    26      0.46157108      101.79697125
2010    27      0.08774728      26.37204125
2010    28      0.09728466      29.08352
2010    29      0.15938838      43.8898025
2010    30      0.1435343       39.98154125
2011    1       0.18924302      50.0902775
2011    2       0.11421988      32.66893
2011    3       0.08272435      25.6084475
2011    4       0.12995257      36.84224875
2011    5       0.06778569      22.0917625
2011    6       0.0676736       22.06988875
2011    7       0.08889311      27.3911975
2011    8       0.16462794      44.68185375
2011    9       0.23631604      60.88887875
2011    10      0.2203881       56.9703325
2011    11      0.20861857      54.38397
2011    12      0.23404402      59.64198875
2011    13      0.2998706       71.64293
2011    14      0.18238358      48.17837
2011    15      0.11860827      33.63824475
2011    16      0.05933698      19.597345
2011    17      0.06967071      22.1734475
2011    18      0.07220691      22.9618025
2011    19      0.06485347      20.9314475
2011    20      0.08729632      26.22453625
2011    21      0.13509528      37.1624175
2011    22      0.11661372      33.38124875
2011    23      0.07240842      22.9746125
2011    24      0.0817261       25.13401125
2011    25      0.22373275      56.05661125
2011    26      0.34262365      77.65448
2011    27      0.19606201      51.49829375
2011    28      0.16456693      43.9482425
2011    29      0.4695639       100.7727075
2011    30      0.18923512      50.1891675
2012    1       0.09230635      27.35213
2012    2       0.08542364      25.95603375
2012    3       0.13655321      37.8246725
2012    4       0.11944892      33.99615375
2012    5       0.24765658      59.71211625
2012    6       0.28486902      67.546505
2012    7       0.42501746      94.46003125
2012    8       0.36233976      83.8045475
2012    9       0.12660452      35.4740475
2012    10      0.10769218      31.42333875
2012    11      0.08974268      27.47959
2012    12      0.18046517      47.0812325
2012    13      0.14145669      39.06293625
2012    14      0.19901131      51.4607275
2012    15      0.27195195      65.4541325
2012    16      0.04616609      16.40442375
2012    17      0.0902653       26.97708
2012    18      0.39533578      88.36069625
2012    19      0.06759826      21.79299375
2012    20      0.17412467      44.41180125
2012    21      0.47145694      102.44039875
2012    22      0.41540934      90.50876875
2012    23      0.18624254      46.81712125
2012    24      0.15146633      41.52218375
2012    25      0.13262528      37.751635
2012    26      0.20213454      52.53057125
2012    27      0.36114529      84.54414375
2012    28      0.42716105      93.17700875
2012    29      0.09689999      28.56552125
2012    30      0.13713586      38.20236625
2013    1       0.09589036      28.014725
2013    2       0.07305588      23.1287925
2013    3       0.09467519      28.11129875
2013    4       0.06116235      20.06704875
2013    5       0.0594399       19.75982125
2013    6       0.12817053      35.65676375
2013    7       0.1063078       30.7757875
2013    8       0.30108229      71.9363275
2013    9       0.18160579      47.871845
2013    10      0.25294555      61.31782
2013    11      0.46723862      100.68148625
2013    12      0.58480755      119.7785375
2013    13      0.36870529      83.43906
2013    14      0.07720622      23.91382375
2013    15      0.10434466      30.98667
2013    16      0.12597955      36.08090125
2013    17      0.11288491      33.3086275
2013    18      0.0793953       25.08836875
2013    19      0.39977585      86.81424875
2013    20      0.30036445      72.61652125
2013    21      0.07583443      23.47384625
2013    22      0.05639556      18.9862675
2013    23      0.14773287      40.70371875
2013    24      0.1065133       31.5359
2013    25      0.14634685      40.25588375
2013    26      0.36116465      84.54734625
2013    27      0.43809154      97.51771125
2013    28      0.10093706      29.2568425
2013    29      0.05353966      18.1705825
2013    30      0.05202341      17.9515925
2014    1       0.10545776      30.90980875
2014    2       0.07995378      24.99725
2014    3       0.10431834      30.76952
2014    4       0.1674653       44.9473125
2014    5       0.12564965      35.6407625
2014    6       0.15227579      41.724905
2014    7       0.07403802      23.49958625
2014    8       0.08981722      27.542335
2014    9       0.14682902      41.037215
2014    10      0.1867978       50.26277875
2014    11      0.24262261      62.1193525
2014    12      0.13319175      37.42107
2014    13      0.1765355       46.50217125
2014    14      0.37404718      87.47315125
2014    15      0.63215693      128.198425
2014    16      0.61386716      125.406675
2014    17      0.60111308      123.62222875
2014    18      0.29515796      68.69796875
2014    19      0.04394285      15.66089425
2014    20      0.10476878      30.39401375
2014    21      0.12008908      34.47556
2014    22      0.2403199       60.263445
2014    23      0.57980153      119.6964625
2014    24      0.49850749      106.52961375
2014    25      0.23887781      60.34967
2014    26      0.32394762      74.30854625
2014    27      0.53926476      113.12649625
2014    28      0.59671724      119.7615875
2014    29      0.1990533       51.556235
2014    30      0.26831726      63.85645125
2015    1       0.2422409       60.2988875
2015    2       0.10668145      30.81834375
2015    3       0.10050895      29.56966125
2015    4       0.13080586      36.476975
2015    5       0.21464416      54.45526
2015    6       0.21318846      54.91034
2015    7       0.24985946      58.39606375
2015    8       0.23689975      57.7801125
2015    9       0.13246642      36.1037175
2015    10      0.13008334      36.4403525
2015    11      0.18040541      47.76362125
2015    12      0.27006498      65.3945275
2015    13      0.07978571      23.808185
2015    14      0.19904895      51.87437375
2015    15      0.40153972      90.98005375
2015    16      0.33930798      80.01920375
2015    17      0.27943809      68.67329375
2015    18      0.25566861      63.25983375
2015    19      0.08753511      26.52015875
2015    20      0.31006146      71.815825
2015    21      0.40188415      90.63003
2015    22      0.18893131      48.03940375
2015    23      0.25774923      64.66774625
2015    24      0.21397999      55.77977125
2015    25      0.27581339      67.8404425
2015    26      0.45614215      102.0855525
2015    27      0.46771885      103.6575425
2015    28      0.24316964      62.33000875
2015    29      0.37468026      85.31926
2015    30      0.61103454      125.00566125
2016    1       0.08199533      25.34056875
2016    2       0.13136164      37.55352875
2016    3       0.207909        53.92819375
2016    4       0.07962148      24.86702125
2016    5       0.18390586      48.13875125
2016    6       0.38607915      88.3316425
2016    7       0.28358602      68.8210375
2016    8       0.27564548      65.45792
2016    9       0.22572846      57.16227625
2016    10      0.23515334      58.441415
2016    11      0.5180479       110.64884375
2016    12      0.3709356       85.89635625
2016    13      0.12834449      36.16638875
2016    14      0.2624456       65.1250325
2016    15      0.20351869      52.6956125
2016    16      0.20325626      52.34936875
2016    17      0.24797162      60.0256825
2016    18      0.22241426      55.38223875
2016    19      0.10482629      30.1983275
2016    20      0.13166453      37.0109675
2016    21      0.18770469      49.35155125
2016    22      0.15396135      41.54036125
2016    23      0.21302849      54.644185
2016    24      0.21851658      55.96657
2016    25      0.09796838      29.26190875
2016    26      0.384581        85.9284775
2016    27      0.53639226      112.556885
2016    28      0.10485169      30.58376375
2016    29      0.06181144      20.09610875
2016    30      0.22760939      56.26383625
2017    1       0.05064467      17.45302625
2017    2       0.06908134      22.08421375
2017    3       0.06615897      21.2794725
2017    4       0.05694492      19.351115
2017    5       0.06937075      22.34127
2017    6       0.32036434      76.47991125
2017    7       0.13981335      39.4432475
2017    8       0.15589165      43.274595
2017    9       0.1974323       51.1561925
2017    10      0.27312351      68.2144475
2017    11      0.16010038      42.4742775
2017    12      0.30327059      74.32134
2017    13      0.25034509      63.93031125
2017    14      0.2615183       65.92705125
2017    15      0.31163491      75.42690375
2017    16      0.29741196      72.16275875
2017    17      0.18023535      47.8942775
2017    18      0.14205834      39.70335625
2017    19      0.14184585      38.823
2017    20      0.40268425      91.29254625
2017    21      0.3990597       91.017085
2017    22      0.4785772       103.323945
2017    23      0.0981109       28.32562875
2017    24      0.19526892      48.5153875
2017    25      0.36387748      83.53104875
2017    26      0.10005743      29.3122625
2017    27      0.07550236      23.4797775
2017    28      0.18834066      49.11038125
2017    29      0.32824254      77.6507875
2017    30      0.45996735      99.63396
2018    1       0.37368126      85.1620625
2018    2       0.46738769      101.94613
2018    3       0.16990856      44.82896
2018    4       0.06096836      20.25038625
2018    5       0.21864425      55.57389
2018    6       0.59215688      120.7151775
2018    7       0.13191745      35.64562625
2018    8       0.23119851      56.8887075
2018    9       0.06103679      19.67382375
2018    10      0.09063341      27.47328625
2018    11      0.06132339      20.24782125
2018    12      0.07244474      22.989155
2018    13      0.08460851      25.80837625
2018    14      0.08118342      24.86346125
2018    15      0.08617921      25.76998
2018    16      0.07262298      22.89054625
2018    17      0.07012676      22.5494875
2018    18      0.09741464      29.08693625
2018    19      0.17254768      46.185085
2018    20      0.10320168      30.05084
2018    21      0.16551138      43.84688625
2018    22      0.32409568      75.21369125
2018    23      0.36062664      82.7290525
2018    24      0.4161051       91.3575175
2018    25      0.46295172      102.37081875
2018    26      0.13288359      36.7174875
2018    27      0.17077851      45.91251
2018    28      0.08488884      26.1066375
2018    29      0.06491031      21.2059725
2018    30      0.1022412       30.45596375
