####################################################################################################
# Month: 09Sep                                                                                     #
# Station: BMAC                                                                                    #
# Frequency: 345 GHz                                                                               #
# Columns are: year    day     tau     Tb (K)                                                      #
####################################################################################################
2009    1       0.93522354      164.4090625
2009    2       0.69608888      136.6987375
2009    3       0.32156625      77.61989125
2009    4       0.26817555      66.20149
2009    5       0.63390191      129.9243
2009    6       0.62222771      126.841625
2009    7       0.49468918      109.09236875
2009    8       0.62235276      127.458875
2009    9       0.66966649      132.6499625
2009    10      0.74329581      137.49931125
2009    11      0.14872682      41.62216
2009    12      0.20746578      55.232625
2009    13      0.43435096      96.9364375
2009    14      1.47712042      204.9164125
2009    15      1.202603        187.3730625
2009    16      0.61486061      126.65055375
2009    17      0.52186785      112.0086375
2009    18      0.44827788      97.19781125
2009    19      0.45266614      99.68444
2009    20      0.37617941      87.01256
2009    21      0.53496384      112.41223
2009    22      1.11076939      171.9999875
2009    23      1.16620742      186.0728875
2009    24      1.09219606      179.0196875
2009    25      0.63981581      124.113785
2009    26      0.69043628      127.2562425
2009    27      1.15836622      184.944675
2009    28      1.14143301      182.5120375
2009    29      0.8162392       147.84925375
2009    30      1.11316236      180.2173625
2010    1       0.50041867      108.14478875
2010    2       0.47851765      101.02054625
2010    3       0.15371874      43.0184375
2010    4       0.41438604      91.82209625
2010    5       0.21457821      56.6652575
2010    6       0.76843719      140.21105125
2010    7       0.35464966      79.06076
2010    8       1.28544432      192.5013375
2010    9       1.28520382      190.7257625
2010    10      0.32324519      77.37767
2010    11      0.29597891      72.0852425
2010    12      0.17698872      48.76155625
2010    13      0.29699635      72.36319875
2010    14      0.50638064      111.21263875
2010    15      1.1319472       179.592725
2010    16      1.07636781      176.600775
2010    17      1.51916438      209.9599
2010    18      1.75407512      224.1246375
2010    19      2.13836387      240.944225
2010    20      1.7061105       223.1494
2010    21      1.43556854      192.920525
2010    22      0.30264773      74.51768125
2010    23      0.18549195      50.61237
2010    24      0.45652104      99.715935
2010    25      1.34143171      197.8004125
2010    26      1.5773115       214.861575
2010    27      0.29651411      69.0647725
2010    28      0.33222738      78.04191875
2010    29      0.55420915      116.7292875
2010    30      0.49862422      105.87654625
2011    1       0.66065151      129.64539625
2011    2       0.39460866      88.45976625
2011    3       0.28253619      70.4513475
2011    4       0.45020598      100.02192625
2011    5       0.22756891      59.7095375
2011    6       0.2272835       59.47161875
2011    7       0.30467906      75.45805625
2011    8       0.57708484      118.40499875
2011    9       0.83395546      156.29515
2011    10      0.77588472      145.9228875
2011    11      0.73644947      142.161075
2011    12      0.82463408      153.1113375
2011    13      1.03155658      171.806975
2011    14      0.62311742      125.18802875
2011    15      0.40667869      89.77188125
2011    16      0.19655077      51.9663
2011    17      0.235176        60.18615125
2011    18      0.24311171      61.17355375
2011    19      0.21291078      55.40283625
2011    20      0.29799739      70.98674875
2011    21      0.42568032      93.62605
2011    22      0.40389142      91.2507575
2011    23      0.24337409      61.92035625
2011    24      0.27626472      67.40328375
2011    25      0.71077221      131.63273875
2011    26      1.12639684      166.99673875
2011    27      0.68271749      131.81577
2011    28      0.57576943      114.0287375
2011    29      1.56925648      206.43945
2011    30      0.64403648      128.96966625
2012    1       0.2799585       67.45044375
2012    2       0.2918824       71.32549125
2012    3       0.47685996      102.63244375
2012    4       0.41371749      92.92551
2012    5       0.78033045      138.74343875
2012    6       0.90156744      155.1057
2012    7       1.41721372      201.6046
2012    8       1.15549191      182.04535
2012    9       0.43844336      94.27419875
2012    10      0.37284445      86.18145625
2012    11      0.30714972      75.66462
2012    12      0.62338014      118.103885
2012    13      0.48538428      102.69061125
2012    14      0.64712026      126.6671225
2012    15      0.78265824      142.5126875
2012    16      0.14753804      41.74049625
2012    17      0.30711641      70.6129475
2012    18      1.25710846      187.0567375
2012    19      0.2267834       58.96794375
2012    20      0.5968423       105.58512125
2012    21      1.59010864      211.2016125
2012    22      1.3716951       188.846575
2012    23      0.6476002       114.9735
2012    24      0.53104306      111.44385625
2012    25      0.46375459      103.72871375
2012    26      0.7090784       133.71608625
2012    27      1.2556133       193.7959625
2012    28      1.34129549      190.9722125
2012    29      0.33326628      78.416665
2012    30      0.47909714      104.16321125
2013    1       0.32300051      75.4780475
2013    2       0.24663021      62.746285
2013    3       0.32552209      76.7849
2013    4       0.20309181      53.24817125
2013    5       0.19662706      52.6798625
2013    6       0.44664381      95.35033875
2013    7       0.36632614      81.72944375
2013    8       1.04391588      168.97447375
2013    9       0.63568873      124.5657
2013    10      0.85836174      147.5457575
2013    11      1.5275345       207.5185875
2013    12      1.85514988      226.2841125
2013    13      1.22459999      182.4808875
2013    14      0.26085908      63.71539875
2013    15      0.36124416      85.60767375
2013    16      0.43980455      99.15958
2013    17      0.39155415      92.35291375
2013    18      0.26965626      68.66087375
2013    19      1.34548476      178.6878775
2013    20      1.03890051      172.1827375
2013    21      0.25474039      62.0657125
2013    22      0.18438514      49.46164625
2013    23      0.50754291      105.04880625
2013    24      0.36504828      85.4704175
2013    25      0.51244009      108.5723725
2013    26      1.27090012      194.8278125
2013    27      1.47099162      206.00745
2013    28      0.342815        78.9780475
2013    29      0.17223443      46.8802425
2013    30      0.16824283      46.61974375
2014    1       0.36404164      85.2077075
2014    2       0.2716542       68.524285
2014    3       0.36012544      84.694385
2014    4       0.58720047      121.2853125
2014    5       0.43956824      98.38506625
2014    6       0.53622087      113.7975575
2014    7       0.25148189      64.24498625
2014    8       0.30853221      75.83429875
2014    9       0.51423501      111.074185
2014    10      0.65747353      134.0215625
2014    11      0.85818952      158.9361625
2014    12      0.46394817      100.19725125
2014    13      0.61791972      118.759635
2014    14      1.30259088      198.3746125
2014    15      2.08988875      238.7297
2014    16      2.04365825      236.5988875
2014    17      2.00518687      235.4632625
2014    18      1.01314726      148.65706
2014    19      0.13863096      39.1829075
2014    20      0.3615367       82.91695125
2014    21      0.41816445      95.367255
2014    22      0.84191616      149.3476
2014    23      1.89465338      229.4669875
2014    24      1.64423634      214.2070125
2014    25      0.84436802      153.3301375
2014    26      1.09511425      165.90937875
2014    27      1.71020975      220.2494375
2014    28      1.83876637      223.10695
2014    29      0.68928449      131.6223575
2014    30      0.82689094      144.53141125
2015    1       0.73352118      134.31054
2015    2       0.36248526      83.02570875
2015    3       0.34269572      80.83158625
2015    4       0.45353923      99.26763625
2015    5       0.75477868      140.0851
2015    6       0.74199012      141.702725
2015    7       0.81493984      129.6624575
2015    8       0.76658702      133.1815675
2015    9       0.45638535      96.5879675
2015    10      0.45500529      99.44837375
2015    11      0.63535956      127.8479375
2015    12      0.93310846      158.546625
2015    13      0.27142572      61.72959375
2015    14      0.70103137      134.96587875
2015    15      1.34067304      198.4224125
2015    16      1.15596544      184.2657125
2015    17      0.91192096      162.105375
2015    18      0.81968752      149.778725
2015    19      0.29970374      72.6857825
2015    20      1.03469589      161.7665625
2015    21      1.25182869      187.5105
2015    22      0.64377451      119.6541725
2015    23      0.88588355      159.86995
2015    24      0.75227439      143.007215
2015    25      0.95404334      162.7398125
2015    26      1.5732975       216.7224125
2015    27      1.60188063      217.0454875
2015    28      0.85403849      157.8128875
2015    29      1.28637478      187.70383625
2015    30      2.03920263      235.5704625
2016    1       0.28011466      69.042445
2016    2       0.45739529      103.34903625
2016    3       0.68735118      134.8252
2016    4       0.27043816      67.831095
2016    5       0.64227985      124.225235
2016    6       1.306091        196.15765
2016    7       0.94527695      162.2574875
2016    8       0.93005131      150.637335
2016    9       0.79384686      145.53653875
2016    10      0.80855887      144.12560875
2016    11      1.74718162      222.61115
2016    12      1.20619261      187.557675
2016    13      0.44331157      97.28095
2016    14      0.9047239       159.7641625
2016    15      0.71208706      133.16999875
2016    16      0.70817561      132.86997875
2016    17      0.73397344      133.32538625
2016    18      0.67907324      128.37181125
2016    19      0.36210715      81.94578
2016    20      0.4572803       100.37865
2016    21      0.65016182      126.5008625
2016    22      0.53826972      109.7672525
2016    23      0.75229156      142.1149875
2016    24      0.77052989      143.456725
2016    25      0.33721694      80.5681125
2016    26      1.30408068      184.8690875
2016    27      1.75085212      221.25005
2016    28      0.3434122       79.96049
2016    29      0.20454355      53.28253875
2016    30      0.74969166      137.6272575
2017    1       0.16383798      45.30343875
2017    2       0.23261632      59.99414
2017    3       0.22218005      57.43395375
2017    4       0.18907155      51.72917125
2017    5       0.23432202      60.57519125
2017    6       1.07713488      177.5263
2017    7       0.48798862      107.09866875
2017    8       0.54773049      117.935725
2017    9       0.69066383      130.04142625
2017    10      0.96121171      169.09305
2017    11      0.56002201      108.65923125
2017    12      1.06886525      180.120675
2017    13      0.88114969      161.3298875
2017    14      0.91996164      164.39485
2017    15      1.08768284      180.1065
2017    16      1.00145185      168.74415
2017    17      0.61197409      123.047725
2017    18      0.49120691      106.08065
2017    19      0.49616951      102.5048525
2017    20      1.38031812      201.418725
2017    21      1.38386288      201.878225
2017    22      1.60812662      213.1975
2017    23      0.33287174      71.279625
2017    24      0.66969519      114.3115
2017    25      1.26183689      187.1464375
2017    26      0.33783452      78.94025125
2017    27      0.2559975       63.7062475
2017    28      0.66034514      127.24486875
2017    29      1.07171968      176.6414625
2017    30      1.30384632      192.6596875
2018    1       1.26825986      190.6531875
2018    2       1.54675262      211.4015875
2018    3       0.52961306      109.45779
2018    4       0.2034514       54.09934875
2018    5       0.76054606      138.9016075
2018    6       1.867298        225.6845375
2018    7       0.44416272      90.5736675
2018    8       0.70273724      133.407825
2018    9       0.19742606      50.77963
2018    10      0.31081155      75.742585
2018    11      0.2042115       54.17308625
2018    12      0.24472936      62.53799
2018    13      0.28944185      70.8565725
2018    14      0.27656854      67.94918125
2018    15      0.29435549      70.589805
2018    16      0.24595985      62.30676875
2018    17      0.23701688      61.507605
2018    18      0.33752806      80.6468225
2018    19      0.60818952      123.338125
2018    20      0.35736419      82.46482625
2018    21      0.57634114      117.63266125
2018    22      1.105879        171.035375
2018    23      1.19908655      184.711325
2018    24      1.39067784      194.3962375
2018    25      1.59375562      216.3816375
2018    26      0.45895384      95.2740025
2018    27      0.5989312       121.32821625
2018    28      0.29020606      71.26891
2018    29      0.21706184      57.09511625
2018    30      0.35029999      82.9556625
