####################################################################################################
# Month: 11Nov                                                                                     #
# Station: MOR                                                                                     #
# Frequency: 345 GHz                                                                               #
# Columns are: year    day     segment         tau     Tb (K)                                      #
####################################################################################################
2009    1       0       0.6213687       129.2795
2009    1       1       0.4990344       110.682
2009    1       2       0.4402054       100.6541
2009    1       3       0.4145099       96.0957
2009    1       4       0.5842298       123.3213
2009    1       5       0.790357        150.7769
2009    1       6       0.9027856       164.0644
2009    1       7       0.7352454       144.843
2009    2       0       0.6661488       135.3323
2009    2       1       0.6362406       130.8687
2009    2       2       0.6020077       125.7882
2009    2       3       0.6065048       126.3105
2009    2       4       0.7084053       140.402
2009    2       5       0.836293        156.3503
2009    2       6       0.9001871       163.7786
2009    2       7       0.8288013       156.1701
2009    3       0       0.7821242       150.5127
2009    3       1       0.7028487       140.5656
2009    3       2       0.5626061       120.7413
2009    3       3       0.4284747       99.08759
2009    3       4       0.452606        102.8331
2009    3       5       0.6036931       126.1698
2009    3       6       0.6223167       128.7244
2009    3       7       0.4424628       99.88783
2009    4       0       0.4765728       104.3168
2009    4       1       0.5462331       114.6317
2009    4       2       0.5015893       107.7079
2009    4       3       0.4559824       100.6584
2009    4       4       0.6049173       124.6737
2009    4       5       0.9062899       163.2051
2009    4       6       0.86986         159.994
2009    4       7       0.8219113       154.4777
2009    5       0       0.8410528       155.9505
2009    5       1       0.8553673       157.56
2009    5       2       0.9733188       170.5194
2009    5       3       1.049392        178.2744
2009    5       4       1.113182        183.9713
2009    5       5       1.060059        179.5021
2009    5       6       0.5073644       112.1909
2009    5       7       0.3273243       78.8389
2009    6       0       0.4204729       95.9444
2009    6       1       0.4403273       99.18246
2009    6       2       0.6428223       128.8615
2009    6       3       0.5229961       111.7052
2009    6       4       0.525843        111.9159
2009    6       5       0.5373592       114.672
2009    6       6       0.6081898       125.5626
2009    6       7       0.7245541       141.1826
2009    7       0       0.7484994       144.2255
2009    7       1       0.7647375       146.8156
2009    7       2       0.8383442       155.7487
2009    7       3       0.907186        163.3909
2009    7       4       0.9009674       162.7323
2009    7       5       0.8504861       157.255
2009    7       6       0.6037019       125.8708
2009    7       7       0.4350715       100.0112
2009    8       0       0.4169993       97.08191
2009    8       1       0.4731396       106.5373
2009    8       2       0.4598081       104.1176
2009    8       3       0.3379294       81.85391
2009    8       4       0.6105668       127.2647
2009    8       5       1.018613        176.7921
2009    8       6       0.9283477       168.1524
2009    8       7       0.6047366       127.605
2009    9       0       0.5405047       117.8094
2009    9       1       0.6344859       131.4338
2009    9       2       0.6902659       139.1469
2009    9       3       0.6836828       138.5541
2009    9       4       0.6165604       128.886
2009    9       5       0.8085073       154.2419
2009    9       6       0.7644267       148.66
2009    9       7       0.8019777       153.1458
2009    10      0       0.8476263       158.4089
2009    10      1       0.9016242       164.3298
2009    10      2       0.9513607       169.7115
2009    10      3       0.8692026       161.2883
2009    10      4       0.8717217       161.448
2009    10      5       0.9868569       173.1918
2009    10      6       1.062821        180.2975
2009    10      7       0.9295363       167.572
2009    11      0       0.8807326       162.2473
2009    11      1       0.8392484       157.2132
2009    11      2       0.7960996       152.0282
2009    11      3       0.7814784       150.2777
2009    11      4       0.8323652       156.0698
2009    11      5       1.028723        176.2235
2009    11      6       1.19372         190.3414
2009    11      7       1.100676        182.5439
2009    12      0       0.8923678       162.4772
2009    12      1       0.7287772       143.2496
2009    12      2       0.6791392       136.7055
2009    12      3       0.6768572       136.4893
2009    12      4       0.6094605       127.2756
2009    12      5       0.7222491       142.374
2009    12      6       0.8458333       157.036
2009    12      7       0.8386093       156.6021
2009    13      0       0.8364616       156.5363
2009    13      1       0.8183002       154.4299
2009    13      2       0.8379397       156.6737
2009    13      3       0.94723         169.0782
2009    13      4       0.9189386       166.0982
2009    13      5       0.9597101       170.1324
2009    13      6       0.9904271       173.0299
2009    13      7       0.8438112       157.9722
2009    14      0       0.7253778       143.6981
2009    14      1       0.6878923       138.5366
2009    14      2       0.6623591       135.3437
2009    14      3       0.6814246       137.5128
2009    14      4       0.8123108       153.5992
2009    14      5       0.9306053       166.859
2009    14      6       0.9401324       167.752
2009    14      7       0.8352866       156.334
2009    15      0       0.5823446       122.9838
2009    15      1       0.3959662       92.08786
2009    15      2       0.3450211       82.79247
2009    15      3       0.3335887       80.72368
2009    15      4       0.3552429       84.95289
2009    15      5       0.4226135       97.17821
2009    15      6       0.4072673       94.47709
2009    15      7       0.2944319       73.45158
2009    16      0       0.2723324       69.52402
2009    16      1       0.4293588       99.40202
2009    16      2       0.4958567       110.5607
2009    16      3       0.546643        118.421
2009    16      4       0.5227528       114.1631
2009    16      5       0.7065523       140.4313
2009    16      6       0.690139        138.0743
2009    16      7       0.4634443       103.2793
2009    17      0       0.3444803       82.79577
2009    17      1       0.3636225       86.26102
2009    17      2       0.3464761       82.13572
2009    17      3       0.3636031       84.17424
2009    17      4       0.4467163       98.92303
2009    17      5       0.6322639       127.4781
2009    17      6       0.7471282       142.4585
2009    17      7       0.7926156       147.5791
2009    18      0       0.8106196       149.9587
2009    18      1       0.8824797       156.5765
2009    18      2       1.153166        182.5128
2009    18      3       0.9190158       162.6427
2009    18      4       0.9149727       162.7285
2009    18      5       1.063956        177.4013
2009    18      6       1.285965        195.3653
2009    18      7       1.502454        209.6075
2009    19      0       1.323742        197.9833
2009    19      1       1.090458        180.1521
2009    19      2       0.8502986       156.7487
2009    19      3       0.8352559       154.666
2009    19      4       0.8289795       154.1491
2009    19      5       0.8833252       160.116
2009    19      6       0.8361933       154.8573
2009    19      7       0.6168319       126.9427
2009    20      0       0.5558929       117.0052
2009    20      1       0.5568815       116.063
2009    20      2       0.5890444       120.8246
2009    20      3       0.5913902       120.3865
2009    20      4       0.6683779       131.6057
2009    20      5       0.7413616       142.4045
2009    20      6       0.6435805       130.1141
2009    20      7       0.4774494       105.4436
2009    21      0       0.3716561       87.23023
2009    21      1       0.3145608       76.89583
2009    21      2       0.2949691       73.15767
2009    21      3       0.2822175       70.52802
2009    21      4       0.3476447       83.63307
2009    21      5       0.491684        108.8379
2009    21      6       0.5043226       110.8682
2009    21      7       0.4252787       97.51883
2009    22      0       0.3735387       88.04261
2009    22      1       0.3829085       89.49641
2009    22      2       0.4130351       94.58764
2009    22      3       0.4155371       94.75819
2009    22      4       0.4986823       108.4898
2009    22      5       0.6248997       127.5434
2009    22      6       0.6772336       134.83
2009    22      7       0.6806409       135.4209
2009    23      0       0.7603546       145.4717
2009    23      1       0.8875147       159.7921
2009    23      2       0.9616486       166.9967
2009    23      3       0.978735        168.5995
2009    23      4       1.016416        172.2084
2009    23      5       1.086858        178.684
2009    23      6       1.066327        177.1215
2009    23      7       0.9902247       170.3828
2009    24      0       0.9414159       165.8567
2009    24      1       0.8646546       157.8503
2009    24      2       0.7998091       150.4212
2009    24      3       0.7670112       146.2111
2009    24      4       0.8213015       152.3814
2009    24      5       0.8984434       160.9285
2009    24      6       0.874922        158.7423
2009    24      7       0.7923714       149.7057
2009    25      0       0.6626295       133.3112
2009    25      1       0.5542412       117.7025
2009    25      2       0.4789214       105.767
2009    25      3       0.4338154       98.19778
2009    25      4       0.5277122       113.7504
2009    25      5       0.6276253       128.5707
2009    25      6       0.6104708       126.3569
2009    25      7       0.49302         108.744
2009    26      0       0.3986687       92.53912
2009    26      1       0.407257        93.17323
2009    26      2       0.4168492       94.23156
2009    26      3       0.491831        106.5177
2009    26      4       0.6301157       127.6643
2009    26      5       0.7062537       138.6798
2009    26      6       0.6544477       132.3411
2009    26      7       0.5372339       115.4984
2009    27      0       0.4967932       109.1862
2009    27      1       0.5191805       112.7813
2009    27      2       0.5508693       117.7212
2009    27      3       0.6535115       132.1594
2009    27      4       0.6437635       130.5034
2009    27      5       0.6604829       132.7356
2009    27      6       0.6657751       133.5882
2009    27      7       0.6096211       125.7116
2009    28      0       0.5019491       109.2199
2009    28      1       0.5168198       110.9196
2009    28      2       0.605834        122.83
2009    28      3       0.6815811       132.6216
2009    28      4       0.6927669       134.8958
2009    28      5       0.7330124       140.9543
2009    28      6       0.6971262       136.6051
2009    28      7       0.5354909       113.7477
2009    29      0       0.4491578       99.47784
2009    29      1       0.3608453       83.85581
2009    29      2       0.4516715       100.1022
2009    29      3       0.5309713       114.4427
2009    29      4       0.4388199       99.09184
2009    29      5       0.4420908       99.39032
2009    29      6       0.5195827       112.3744
2009    29      7       0.5754196       120.3041
2009    30      0       0.8126654       151.187
2009    30      1       0.9845195       170.4335
2009    30      2       1.062987        178.8059
2009    30      3       1.052131        177.9286
2009    30      4       0.8799326       160.8364
2009    30      5       0.7989489       151.6682
2009    30      6       0.700866        139.6391
2009    30      7       0.6071301       126.2753
2010    1       0       0.6366079       131.8386
2010    1       1       0.6595285       134.6473
2010    1       2       0.6008023       126.3807
2010    1       3       0.5092827       112.1202
2010    1       4       0.4744897       106.2937
2010    1       5       0.5208493       113.9687
2010    1       6       0.6378839       131.3267
2010    1       7       0.5660677       120.887
2010    2       0       0.5346502       116.3704
2010    2       1       0.5529479       119.5631
2010    2       2       0.645396        132.8217
2010    2       3       0.6894294       138.6926
2010    2       4       0.6920042       139.7029
2010    2       5       0.5989975       126.9485
2010    2       6       0.5205954       114.9711
2010    2       7       0.4504414       103.4803
2010    3       0       0.2847058       72.86534
2010    3       1       0.2014874       55.07653
2010    3       2       0.2024321       54.98865
2010    3       3       0.2221671       58.93693
2010    3       4       0.2371989       62.15154
2010    3       5       0.3868032       91.83392
2010    3       6       0.3864476       91.78548
2010    3       7       0.3109041       77.73932
2010    4       0       0.2808255       71.54533
2010    4       1       0.2818733       71.48407
2010    4       2       0.3110989       77.29093
2010    4       3       0.3345821       81.80568
2010    4       4       0.401135        94.42109
2010    4       5       0.5471332       118.4977
2010    4       6       0.6216435       129.4886
2010    4       7       0.6169038       128.7795
2010    5       0       0.5022203       111.6033
2010    5       1       0.5036397       111.7355
2010    5       2       0.5420868       117.4659
2010    5       3       0.5487793       118.496
2010    5       4       0.5835715       123.5111
2010    5       5       0.7007876       139.5493
2010    5       6       0.6689269       135.1678
2010    5       7       0.4769974       106.5813
2010    6       0       0.3955635       92.11256
2010    6       1       0.4236279       96.83981
2010    6       2       0.3892495       90.5905
2010    6       3       0.3611724       85.45973
2010    6       4       0.4161653       95.71417
2010    6       5       0.435857        99.23133
2010    6       6       0.3964272       92.51981
2010    6       7       0.3266002       79.61685
2010    7       0       0.302612        74.58081
2010    7       1       0.3189246       77.41662
2010    7       2       0.3368928       80.88487
2010    7       3       0.3267772       79.29053
2010    7       4       0.3146891       77.19517
2010    7       5       0.3805962       89.28162
2010    7       6       0.3719746       87.51969
2010    7       7       0.2803963       69.39407
2010    8       0       0.2701514       67.74195
2010    8       1       0.3021503       75.10582
2010    8       2       0.2915213       72.91325
2010    8       3       0.2924767       72.54324
2010    8       4       0.4035468       93.26987
2010    8       5       0.6667828       134.1098
2010    8       6       1.046855        176.3176
2010    8       7       1.185214        190.0926
2010    9       0       1.227833        196.2973
2010    9       1       0.9250544       167.9509
2010    9       2       0.6723003       136.2656
2010    9       3       0.5653577       120.4484
2010    9       4       0.4904831       108.4299
2010    9       5       0.5791388       121.858
2010    9       6       0.7507008       145.7616
2010    9       7       0.6779078       136.3775
2010    10      0       0.5696893       121.312
2010    10      1       0.8378502       156.036
2010    10      2       0.8288199       154.9653
2010    10      3       0.7175506       141.7049
2010    10      4       0.7739528       149.1217
2010    10      5       0.8645661       160.1806
2010    10      6       0.6299967       130.5951
2010    10      7       0.3070792       75.18561
2010    11      0       0.2946107       71.67424
2010    11      1       0.3621678       83.75444
2010    11      2       0.3959278       89.84291
2010    11      3       0.3919914       89.63984
2010    11      4       0.4426951       99.85587
2010    11      5       0.6561203       133.1875
2010    11      6       0.7107192       141.2379
2010    11      7       0.508976        112.9308
2010    12      0       0.4482389       102.3322
2010    12      1       0.4492769       102.1336
2010    12      2       0.4378208       100.0331
2010    12      3       0.4295796       98.32751
2010    12      4       0.4749754       106.036
2010    12      5       0.6959861       138.7086
2010    12      6       0.7076009       140.4262
2010    12      7       0.5557873       118.7277
2010    13      0       0.5455595       116.9806
2010    13      1       0.5528575       117.8167
2010    13      2       0.5429297       116.2213
2010    13      3       0.5139434       111.7462
2010    13      4       0.581481        122.2136
2010    13      5       0.7838393       149.6033
2010    13      6       0.7409351       144.8007
2010    13      7       0.5403946       116.7125
2010    14      0       0.5007387       109.5137
2010    14      1       0.5398952       115.2168
2010    14      2       0.5929578       122.8977
2010    14      3       0.6937474       136.5219
2010    14      4       0.8557953       156.0742
2010    14      5       1.067949        176.794
2010    14      6       1.093373        178.5332
2010    14      7       1.194344        186.8116
2010    15      0       1.252327        192.9511
2010    15      1       1.01275         173.4621
2010    15      2       0.7415843       144.1271
2010    15      3       0.4612939       103.2497
2010    15      4       0.3327163       80.13467
2010    15      5       0.4257641       97.39894
2010    15      6       0.3877798       90.98576
2010    15      7       0.3268627       79.8601
2010    16      0       0.2869834       72.07755
2010    16      1       0.2582735       66.35962
2010    16      2       0.2328814       60.93676
2010    16      3       0.1913239       51.96305
2010    16      4       0.2385904       62.59957
2010    16      5       0.4939114       109.6246
2010    16      6       0.5099229       112.1398
2010    16      7       0.2829278       71.3849
2010    17      0       0.1842068       49.35018
2010    17      1       0.1729657       46.65857
2010    17      2       0.1951973       51.16232
2010    17      3       0.2318495       58.61017
2010    17      4       0.3510378       80.99926
2010    17      5       0.8949611       156.3345
2010    17      6       1.744757        220.9659
2010    17      7       1.852629        228.7089
2010    18      0       1.530075        213.4734
2010    18      1       1.025312        175.8063
2010    18      2       0.6302177       129.1322
2010    18      3       0.3516955       83.69831
2010    18      4       0.3486928       83.74878
2010    18      5       0.6533079       132.4378
2010    18      6       0.776998        148.3406
2010    18      7       0.6970298       138.3612
2010    19      0       0.6380246       129.4002
2010    19      1       0.6697228       132.7304
2010    19      2       0.6418          128.6638
2010    19      3       0.7494911       141.5562
2010    19      4       1.050117        173.8877
2010    19      5       1.456831        206.0104
2010    19      6       1.541406        212.1799
2010    19      7       1.579069        215.8242
2010    20      0       1.577926        215.9889
2010    20      1       1.658116        219.6249
2010    20      2       1.696357        221.2297
2010    20      3       1.572604        215.0631
2010    20      4       1.640358        218.2696
2010    20      5       1.998789        234.1825
2010    20      6       2.020308        235.0326
2010    20      7       1.333562        199.3908
2010    21      0       0.882748        157.9679
2010    21      1       0.8127569       150.19
2010    21      2       0.8508281       154.5166
2010    21      3       0.9288566       163.5661
2010    21      4       0.9317342       164.3633
2010    21      5       0.8889637       160.4726
2010    21      6       0.7125418       138.9143
2010    21      7       0.6119732       124.2487
2010    22      0       0.5694187       118.2187
2010    22      1       0.5105199       109.6252
2010    22      2       0.4337306       97.70168
2010    22      3       0.4296445       96.06651
2010    22      4       0.5401951       114.7195
2010    22      5       0.7457867       143.3315
2010    22      6       0.9605924       166.6487
2010    22      7       0.9032624       161.3469
2010    23      0       0.9995099       171.5107
2010    23      1       1.075638        178.8764
2010    23      2       0.9729703       169.6888
2010    23      3       0.8546966       156.6325
2010    23      4       0.8314903       154.0904
2010    23      5       0.8150252       150.8043
2010    23      6       0.7853987       147.0636
2010    23      7       0.7023966       136.7329
2010    24      0       0.6188571       125.6967
2010    24      1       0.5115158       110.4085
2010    24      2       0.5102705       109.8421
2010    24      3       0.4432898       99.24506
2010    24      4       0.5070215       110.3453
2010    24      5       0.6838945       136.6025
2010    24      6       0.6354344       130.3924
2010    24      7       0.5563018       119.0416
2010    25      0       0.6008026       125.7679
2010    25      1       0.6738033       135.6397
2010    25      2       0.6858144       136.6055
2010    25      3       0.6073869       125.8737
2010    25      4       0.5939235       122.5054
2010    25      5       0.771062        145.3719
2010    25      6       1.440958        204.4201
2010    25      7       1.204768        187.4264
2010    26      0       1.037219        172.7703
2010    26      1       1.253931        191.882
2010    26      2       1.219334        191.0001
2010    26      3       0.9473783       166.8316
2010    26      4       0.9519376       166.657
2010    26      5       1.641015        216.6288
2010    26      6       1.004029        172.5739
2010    26      7       1.049769        175.5924
2010    27      0       1.496633        207.808
2010    27      1       1.866629        226.279
2010    27      2       2.139167        236.117
2010    27      3       1.786637        224.095
2010    27      4       1.78331         225.3148
2010    27      5       1.251808        195.3304
2010    27      6       0.8853629       160.5722
2010    27      7       1.046396        176.5081
2010    28      0       0.7907791       149.3985
2010    28      1       0.8303431       153.548
2010    28      2       0.9404306       165.3076
2010    28      3       0.9618456       168.6064
2010    28      4       1.186957        190.0342
2010    28      5       1.485739        211.1921
2010    28      6       1.502945        211.7534
2010    28      7       0.7879          148.6279
2010    29      0       0.895528        159.919
2010    29      1       1.788071        225.0319
2010    29      2       2.266538        242.1532
2010    29      3       2.019044        234.2981
2010    29      4       1.99986         233.6323
2010    29      5       1.83077         226.8931
2010    29      6       2.031946        234.6506
2010    29      7       2.175516        239.8735
2010    30      0       1.977768        232.7665
2010    30      1       2.07169         236.8981
2010    30      2       2.329831        243.4352
2010    30      3       1.726345        221.8683
2010    30      4       1.671669        219.8225
2010    30      5       2.253307        239.4209
2010    30      6       2.464897        247.4601
2010    30      7       0.5923925       124.9209
2011    1       0       0.7991352       151.3659
2011    1       1       0.9083168       162.0602
2011    1       2       0.9323706       164.8663
2011    1       3       0.8931807       161.0453
2011    1       4       0.8847454       161.0819
2011    1       5       1.104568        182.7914
2011    1       6       1.179994        189.1961
2011    1       7       1.17251         188.3118
2011    2       0       1.215738        190.6561
2011    2       1       1.423839        204.4679
2011    2       2       1.393735        203.6639
2011    2       3       1.455954        207.9514
2011    2       4       1.348293        201.3938
2011    2       5       1.428783        206.4641
2011    2       6       1.317386        198.225
2011    2       7       0.9617431       168.7809
2011    3       0       0.7790879       149.2956
2011    3       1       0.8102846       153.0742
2011    3       2       0.7364149       143.3602
2011    3       3       0.8720153       161.2976
2011    3       4       1.715166        226.4385
2011    3       5       2.227307        244.8952
2011    3       6       2.052704        238.9798
2011    3       7       1.887272        232.5456
2011    4       0       1.91075         233.2679
2011    4       1       1.868951        231.7084
2011    4       2       0.8846712       162.3068
2011    4       3       0.7291393       144.0373
2011    4       4       0.9063381       164.5489
2011    4       5       0.8476797       157.5714
2011    4       6       0.6317106       129.8523
2011    4       7       0.7079551       140.6045
2011    5       0       0.597186        124.8475
2011    5       1       0.5211603       114.0153
2011    5       2       0.370916        88.82434
2011    5       3       0.325523        80.34355
2011    5       4       0.3627862       87.11221
2011    5       5       0.41538         96.1544
2011    5       6       0.3655831       86.79699
2011    5       7       0.3443644       82.15955
2011    6       0       0.3716485       86.53441
2011    6       1       0.3879125       89.12002
2011    6       2       0.3292904       78.96817
2011    6       3       0.3130165       75.68377
2011    6       4       0.4346662       97.62316
2011    6       5       0.607567        124.3019
2011    6       6       0.6862916       135.1995
2011    6       7       0.5023939       109.2623
2011    7       0       0.5254695       112.8676
2011    7       1       0.5323078       114.1495
2011    7       2       0.4629079       103.2742
2011    7       3       0.3445555       82.36843
2011    7       4       0.3874414       90.77453
2011    7       5       0.4623528       103.8979
2011    7       6       0.6612872       133.3931
2011    7       7       0.9458546       166.6679
2011    8       0       0.8588545       157.8567
2011    8       1       0.7418552       144.5756
2011    8       2       0.6565085       133.8527
2011    8       3       0.5492655       117.9547
2011    8       4       0.8079638       150.6884
2011    8       5       1.534814        209.8481
2011    8       6       1.546367        211.6692
2011    8       7       1.565543        214.1362
2011    9       0       1.512658        211.549
2011    9       1       1.422434        206.4172
2011    9       2       1.45536         208.3077
2011    9       3       1.378848        203.4689
2011    9       4       1.38353         203.6933
2011    9       5       1.496028        210.9113
2011    9       6       1.195175        190.4688
2011    9       7       0.9310273       166.2276
2011    10      0       0.7828353       149.6897
2011    10      1       0.6764643       136.4813
2011    10      2       0.5817066       123.1698
2011    10      3       0.6327229       130.4911
2011    10      4       0.8002129       152.1277
2011    10      5       1.026583        175.8701
2011    10      6       1.156043        187.2662
2011    10      7       1.092107        181.9596
2011    11      0       0.905077        163.9401
2011    11      1       0.7857755       150.1544
2011    11      2       0.7110826       140.42
2011    11      3       0.6630446       133.1416
2011    11      4       0.8506168       155.754
2011    11      5       1.211883        188.9059
2011    11      6       1.484258        206.9913
2011    11      7       1.48563         207.1488
2011    12      0       1.46499         206.1009
2011    12      1       1.548886        211.9213
2011    12      2       1.590889        214.0124
2011    12      3       1.544392        211.6583
2011    12      4       1.910324        228.3367
2011    12      5       1.745212        222.5035
2011    12      6       1.516344        210.1784
2011    12      7       1.306514        196.4106
2011    13      0       1.075896        177.4574
2011    13      1       1.269316        192.7106
2011    13      2       1.289635        194.0518
2011    13      3       1.472708        206.142
2011    13      4       1.323874        196.4697
2011    13      5       1.084579        178.5972
2011    13      6       1.031308        174.9916
2011    13      7       1.067049        178.2313
2011    14      0       1.035347        175.3642
2011    14      1       0.9000899       162.2095
2011    14      2       0.8729993       158.8697
2011    14      3       0.878415        160.0085
2011    14      4       0.8541574       156.891
2011    14      5       0.8899054       160.0992
2011    14      6       0.9622804       167.4549
2011    14      7       0.8671299       158.2366
2011    15      0       0.7467831       144.7155
2011    15      1       0.6250834       128.5498
2011    15      2       0.4767597       105.5824
2011    15      3       0.4413894       99.21256
2011    15      4       0.442471        99.23231
2011    15      5       0.4766162       104.8073
2011    15      6       0.4761103       104.8943
2011    15      7       0.5615834       118.0583
2011    16      0       0.7283467       140.9246
2011    16      1       0.9028831       161.002
2011    16      2       1.15667         184.6559
2011    16      3       1.263436        192.7958
2011    16      4       1.361197        200.1207
2011    16      5       1.490569        208.1839
2011    16      6       1.658651        217.1626
2011    16      7       1.430444        205.2356
2011    17      0       1.594935        213.7752
2011    17      1       1.623836        215.3455
2011    17      2       1.359334        200.2668
2011    17      3       1.261312        193.033
2011    17      4       1.424558        203.7589
2011    17      5       1.889127        226.5302
2011    17      6       1.83794         224.429
2011    17      7       1.803558        222.5472
2011    18      0       1.598016        212.5135
2011    18      1       1.349341        197.9427
2011    18      2       1.120283        180.7324
2011    18      3       0.8246294       152.2885
2011    18      4       0.7796326       147.7116
2011    18      5       1.063031        176.8654
2011    18      6       1.048943        175.4366
2011    18      7       0.9579994       166.3573
2011    19      0       0.8899324       158.7272
2011    19      1       0.9960344       168.6372
2011    19      2       1.139484        180.8947
2011    19      3       1.311329        193.3737
2011    19      4       1.09357         178.3279
2011    19      5       1.027213        172.8917
2011    19      6       0.9241115       162.387
2011    19      7       1.330636        198.3266
2011    20      0       1.580121        213.2653
2011    20      1       1.554441        210.0075
2011    20      2       1.156539        180.7041
2011    20      3       1.034985        171.7365
2011    20      4       1.284193        191.8359
2011    20      5       1.438555        201.9881
2011    20      6       1.082641        177.2308
2011    20      7       1.067512        176.1557
2011    21      0       0.9243982       163.0362
2011    21      1       0.5620893       118.8457
2011    21      2       0.6175792       126.6241
2011    21      3       0.6948635       136.2589
2011    21      4       0.8064183       150.24
2011    21      5       0.825988        152.2097
2011    21      6       0.8579369       157.0513
2011    21      7       0.5635135       119.5464
2011    22      0       0.2133151       56.6219
2011    22      1       0.1939069       51.66974
2011    22      2       0.1898604       50.7874
2011    22      3       0.2202834       57.44787
2011    22      4       0.3335599       79.7205
2011    22      5       0.3935159       90.54967
2011    22      6       0.3166638       76.448
2011    22      7       0.3141802       76.17358
2011    23      0       0.2523615       64.0598
2011    23      1       0.1933671       51.53753
2011    23      2       0.1985905       52.35463
2011    23      3       0.2698819       66.94398
2011    23      4       0.4727438       103.0213
2011    23      5       0.7354152       139.2896
2011    23      6       0.9175803       159.2538
2011    23      7       0.936541        161.1887
2011    24      0       0.9252657       159.8185
2011    24      1       0.8716006       154.1739
2011    24      2       0.933142        160.9793
2011    24      3       1.022297        169.8614
2011    24      4       1.035992        171.3735
2011    24      5       1.35887         195.8765
2011    24      6       1.397057        198.8675
2011    24      7       1.311308        193.0211
2011    25      0       1.117075        177.8518
2011    25      1       0.8066213       148.0223
2011    25      2       0.7333531       139.2555
2011    25      3       0.789106        145.654
2011    25      4       1.079732        173.8994
2011    25      5       1.246195        187.8702
2011    25      6       0.9246784       161.0114
2011    25      7       0.6387691       128.0871
2011    26      0       0.418627        94.77654
2011    26      1       0.4118347       93.4903
2011    26      2       0.5218658       111.1789
2011    26      3       0.5572597       116.2016
2011    26      4       0.6551878       130.7598
2011    26      5       0.7198741       139.093
2011    26      6       0.6895658       135.7656
2011    26      7       0.6212983       126.3111
2011    27      0       0.620321        125.8973
2011    27      1       0.637017        128.0461
2011    27      2       0.6028551       123.3376
2011    27      3       0.4946356       107.4418
2011    27      4       0.534267        113.8911
2011    27      5       0.6726945       133.5533
2011    27      6       0.5570563       117.6348
2011    27      7       0.4238392       96.52789
2011    28      0       0.3465669       82.37897
2011    28      1       0.2695435       67.04285
2011    28      2       0.2743487       67.98418
2011    28      3       0.2994499       73.18749
2011    28      4       0.343976        82.04544
2011    28      5       0.4023109       92.67539
2011    28      6       0.3360422       80.86764
2011    28      7       0.2672475       67.62131
2011    29      0       0.2551697       65.09772
2011    29      1       0.2548401       64.95928
2011    29      2       0.2586029       65.72346
2011    29      3       0.2689386       67.80347
2011    29      4       0.3290147       79.43407
2011    29      5       0.4809937       105.7619
2011    29      6       0.464254        103.1064
2011    29      7       0.3216496       77.96666
2011    30      0       0.2986639       72.99364
2011    30      1       0.3387848       80.51392
2011    30      2       0.3207647       77.21796
2011    30      3       0.2909116       71.73542
2011    30      4       0.3285008       79.30699
2011    30      5       0.4376908       98.73447
2011    30      6       0.4607958       102.5495
2011    30      7       0.3394556       81.63949
2012    1       0       1.935562        234.8992
2012    1       1       1.67798         223.2461
2012    1       2       1.629081        221.1981
2012    1       3       1.703696        225.7375
2012    1       4       2.032834        238.3395
2012    1       5       1.90858         232.883
2012    1       6       2.234077        244.7761
2012    1       7       2.309749        247.3139
2012    2       0       2.415925        250.7292
2012    2       1       2.279547        247.3095
2012    2       2       1.894638        234.5323
2012    2       3       2.315511        249.3794
2012    2       4       2.483983        253.2916
2012    2       5       2.73096         258.0479
2012    2       6       2.522545        253.5515
2012    2       7       2.068236        240.8819
2012    3       0       2.246622        246.6798
2012    3       1       2.410882        250.8777
2012    3       2       2.474434        252.1917
2012    3       3       2.350081        248.7557
2012    3       4       2.693561        256.5685
2012    3       5       3.046395        261.8943
2012    3       6       2.484235        252.4924
2012    3       7       2.417132        250.868
2012    4       0       2.422022        250.4695
2012    4       1       2.177083        243.8316
2012    4       2       2.107848        241.066
2012    4       3       2.043541        238.5596
2012    4       4       2.248158        245.0412
2012    4       5       3.009849        260.7399
2012    4       6       2.594164        253.9009
2012    4       7       2.299082        247.031
2012    5       0       2.124375        242.2248
2012    5       1       1.932529        235.6551
2012    5       2       1.69636         225.3092
2012    5       3       1.597045        220.0454
2012    5       4       1.895396        233.5054
2012    5       5       2.30078         246.3975
2012    5       6       2.221542        244.114
2012    5       7       2.226872        244.0759
2012    6       0       2.269625        244.4198
2012    6       1       2.421449        248.024
2012    6       2       2.428628        248.9453
2012    6       3       2.301033        245.9747
2012    6       4       2.067588        237.6553
2012    6       5       2.735239        255.0577
2012    6       6       2.058687        237.811
2012    6       7       1.875164        230.9955
2012    7       0       1.917175        233.0913
2012    7       1       1.669904        221.5976
2012    7       2       1.640552        219.8448
2012    7       3       1.756391        225.1808
2012    7       4       1.759546        225.2331
2012    7       5       1.905772        231.5203
2012    7       6       2.076574        238.27
2012    7       7       2.224359        243.0521
2012    8       0       2.104344        239.7304
2012    8       1       2.042594        237.9235
2012    8       2       1.867221        231.1728
2012    8       3       1.678724        222.2674
2012    8       4       1.850882        229.5552
2012    8       5       2.457765        249.4316
2012    8       6       2.503475        251.1741
2012    8       7       1.926863        233.4462
2012    9       0       1.754766        226.1932
2012    9       1       1.46816         210.8678
2012    9       2       1.091784        182.8336
2012    9       3       0.8007667       152.8043
2012    9       4       0.6716499       136.2811
2012    9       5       0.6075063       126.9464
2012    9       6       0.4939422       109.0223
2012    9       7       0.3621371       86.0208
2012    10      0       0.4405          99.41778
2012    10      1       0.8128655       150.6385
2012    10      2       1.015441        172.3125
2012    10      3       0.6248139       128.5979
2012    10      4       0.5069709       111.1544
2012    10      5       0.8055616       152.6543
2012    10      6       0.5026104       111.1409
2012    10      7       0.3344596       81.13959
2012    11      0       0.3448452       81.54765
2012    11      1       0.3530182       83.55923
2012    11      2       0.4063998       93.34006
2012    11      3       0.4806303       105.7867
2012    11      4       0.6914763       137.8326
2012    11      5       0.6821098       136.4538
2012    11      6       0.638983        129.712
2012    11      7       0.4345364       98.89278
2012    12      0       0.3118673       76.72773
2012    12      1       0.3585865       84.82006
2012    12      2       0.2872575       71.72296
2012    12      3       0.3054463       75.11298
2012    12      4       0.3423702       81.97908
2012    12      5       0.3277165       79.6619
2012    12      6       0.2209364       58.18553
2012    12      7       0.2682124       67.9892
2012    13      0       0.2182247       57.53503
2012    13      1       0.2820251       71.05061
2012    13      2       0.340467        82.51137
2012    13      3       0.3946777       92.48521
2012    13      4       0.4169281       96.8121
2012    13      5       0.4753947       106.9863
2012    13      6       0.459608        104.5005
2012    13      7       0.3653682       88.25811
2012    14      0       0.3508737       85.60861
2012    14      1       0.3427871       84.04473
2012    14      2       0.3344883       82.60103
2012    14      3       0.3619997       87.46396
2012    14      4       0.3872042       91.56447
2012    14      5       0.5693603       120.6343
2012    14      6       0.5812389       121.4125
2012    14      7       0.6137633       126.2489
2012    15      0       0.6262648       128.0517
2012    15      1       0.618872        127.3466
2012    15      2       0.5676711       119.8019
2012    15      3       0.2624269       67.67596
2012    15      4       0.2639228       68.03919
2012    15      5       0.4264063       98.49934
2012    15      6       0.4099218       94.94316
2012    15      7       0.2616554       65.11387
2012    16      0       0.2989098       72.329
2012    16      1       0.2804188       68.93152
2012    16      2       0.2768699       67.93756
2012    16      3       0.2691011       66.40829
2012    16      4       0.3844895       88.12654
2012    16      5       0.9123004       159.8733
2012    16      6       0.8616585       153.9869
2012    16      7       0.9102561       158.0785
2012    17      0       0.679622        132.0974
2012    17      1       0.7441403       140.6843
2012    17      2       0.876352        158.1613
2012    17      3       1.201199        189.6286
2012    17      4       1.554125        213.3275
2012    17      5       1.376705        202.1287
2012    17      6       1.278338        194.2816
2012    17      7       1.176069        186.3271
2012    18      0       1.368306        200.3675
2012    18      1       1.320628        197.074
2012    18      2       0.829719        152.9808
2012    18      3       0.3856274       90.00616
2012    18      4       0.2881801       70.86512
2012    18      5       0.4017585       91.81327
2012    18      6       0.4257929       96.32161
2012    18      7       0.4545516       100.9489
2012    19      0       0.4742176       103.5682
2012    19      1       0.5396193       113.0192
2012    19      2       0.6084291       122.6901
2012    19      3       0.6547173       129.2276
2012    19      4       0.8595545       154.7319
2012    19      5       1.149739        182.7559
2012    19      6       1.005733        171.8382
2012    19      7       0.8052685       151.6014
2012    20      0       0.7101433       140.1755
2012    20      1       0.6444373       131.6885
2012    20      2       0.610866        126.7717
2012    20      3       0.5683162       120.3522
2012    20      4       0.5822537       122.2702
2012    20      5       0.5151078       112.1923
2012    20      6       0.4630556       103.105
2012    20      7       0.3300448       78.06034
2012    21      0       0.2988744       72.09003
2012    21      1       0.2279471       59.00006
2012    21      2       0.233132        60.5179
2012    21      3       0.3696503       87.48872
2012    21      4       0.6117397       126.9641
2012    21      5       0.9523476       167.1826
2012    21      6       1.106711        180.7305
2012    21      7       1.115921        180.9177
2012    22      0       1.098136        179.2668
2012    22      1       1.113633        180.7743
2012    22      2       1.222751        189.8612
2012    22      3       1.165263        185.4217
2012    22      4       1.219712        189.6697
2012    22      5       1.391908        202.0694
2012    22      6       1.175757        187.1831
2012    22      7       0.9467252       166.7198
2012    23      0       0.7447786       144.2517
2012    23      1       0.6237593       128.1625
2012    23      2       0.5989715       124.1237
2012    23      3       0.6157892       126.1707
2012    23      4       0.775268        146.5428
2012    23      5       1.006756        171.5768
2012    23      6       1.087435        179.0588
2012    23      7       1.09339         179.7039
2012    24      0       1.075484        177.6052
2012    24      1       1.132121        182.5177
2012    24      2       1.12871         182.2048
2012    24      3       1.247961        190.8864
2012    24      4       1.534308        209.7731
2012    24      5       1.726509        219.8191
2012    24      6       1.547406        211.0727
2012    24      7       1.277397        194.4984
2012    25      0       1.124919        182.8614
2012    25      1       1.013671        172.6104
2012    25      2       1.009286        171.2101
2012    25      3       1.166956        184.5624
2012    25      4       1.174638        186.1044
2012    25      5       1.226001        190.6846
2012    25      6       0.9619111       167.3437
2012    25      7       0.8022153       149.6906
2012    26      0       0.8815424       157.6957
2012    26      1       1.006057        169.2634
2012    26      2       0.914926        161.3868
2012    26      3       1.164067        185.3806
2012    26      4       1.603681        213.757
2012    26      5       1.898762        227.1378
2012    26      6       1.878337        226.6239
2012    26      7       1.683431        217.7923
2012    27      0       1.532687        210.1215
2012    27      1       1.483523        207.6173
2012    27      2       1.340775        198.7346
2012    27      3       0.9230978       164.1877
2012    27      4       0.8671888       159.2297
2012    27      5       0.4808758       107.2665
2012    27      6       0.1873096       50.97061
2012    27      7       0.1684432       47.01772
2012    28      0       0.2079709       55.80596
2012    28      1       0.2761          69.86554
2012    28      2       0.3203635       78.43208
2012    28      3       0.3329087       80.89724
2012    28      4       0.4202702       96.79013
2012    28      5       0.4723603       105.7267
2012    28      6       0.4040863       94.32062
2012    28      7       0.2998773       74.64224
2012    29      0       0.3129436       76.98305
2012    29      1       0.3282389       79.64988
2012    29      2       0.3234558       78.63029
2012    29      3       0.2189366       57.41633
2012    29      4       0.1838164       49.89539
2012    29      5       0.1476381       42.22558
2012    29      6       0.1289174       37.67188
2012    29      7       0.1643672       45.22389
2012    30      0       0.1893373       50.53802
2012    30      1       0.1565812       43.52961
2012    30      2       0.1915343       50.64986
2012    30      3       0.3318758       78.23926
2012    30      4       0.4945909       106.5173
2012    30      5       0.8653595       156.533
2012    30      6       0.5648339       117.6695
2012    30      7       0.6384159       127.7181
2013    1       0       0.5710116       122.006
2013    1       1       0.4691657       105.8633
2013    1       2       0.4459181       101.3381
2013    1       3       0.4846708       107.6768
2013    1       4       0.6511692       133.006
2013    1       5       0.8401632       156.7736
2013    1       6       0.8076532       153.2658
2013    1       7       0.5562447       119.6397
2013    2       0       0.4162432       96.09176
2013    2       1       0.4344723       98.9818
2013    2       2       0.4691057       104.7254
2013    2       3       0.4886103       107.9089
2013    2       4       0.6565709       133.4539
2013    2       5       0.7668774       148.3169
2013    2       6       0.8196085       154.7785
2013    2       7       0.7579195       147.3835
2013    3       0       0.6904343       138.78
2013    3       1       0.6109274       127.2664
2013    3       2       0.5479735       117.0431
2013    3       3       0.5766761       120.5792
2013    3       4       1.048921        175.7501
2013    3       5       1.44839         206.9641
2013    3       6       1.579944        214.0047
2013    3       7       1.743477        221.3841
2013    4       0       1.667264        218.9902
2013    4       1       1.535455        212.7185
2013    4       2       1.390175        204.1576
2013    4       3       1.249991        194.7282
2013    4       4       1.245488        194.5002
2013    4       5       1.600386        216.8258
2013    4       6       1.317095        199.7372
2013    4       7       1.009696        174.6459
2013    5       0       0.846824        157.3661
2013    5       1       0.7568394       146.0277
2013    5       2       0.7197073       141.455
2013    5       3       0.6327274       130.3079
2013    5       4       0.727378        143.5464
2013    5       5       1.004197        174.7698
2013    5       6       0.9584463       170.6373
2013    5       7       0.7650006       149.4469
2013    6       0       0.7594841       148.8373
2013    6       1       0.7574698       148.3342
2013    6       2       0.6857534       138.9105
2013    6       3       0.6285064       130.7693
2013    6       4       0.6450166       133.3018
2013    6       5       0.8401154       158.2945
2013    6       6       0.8793835       162.9081
2013    6       7       0.7768351       150.4016
2013    7       0       0.7854505       150.9177
2013    7       1       0.7451097       145.587
2013    7       2       0.7991871       150.7615
2013    7       3       0.8047032       150.8025
2013    7       4       0.8289144       153.6546
2013    7       5       0.934144        165.9981
2013    7       6       0.9185797       164.7639
2013    7       7       0.8249441       153.2502
2013    8       0       0.8944955       160.2511
2013    8       1       1.037058        174.1645
2013    8       2       1.069613        177.6792
2013    8       3       0.9785142       169.4475
2013    8       4       0.95722         167.9243
2013    8       5       0.9274488       165.4943
2013    8       6       0.9022711       163.2416
2013    8       7       0.7685016       147.6222
2013    9       0       0.7778072       148.4496
2013    9       1       0.81622         152.9874
2013    9       2       0.8552954       157.2947
2013    9       3       0.771951        148.3576
2013    9       4       0.7208911       142.5154
2013    9       5       0.7446306       146.0273
2013    9       6       0.6597466       135.1919
2013    9       7       0.4063075       95.49399
2013    10      0       0.3249748       79.76619
2013    10      1       0.3501287       84.27433
2013    10      2       0.3808137       89.848
2013    10      3       0.3941441       92.115
2013    10      4       0.6005854       126.0029
2013    10      5       0.7233787       143.3408
2013    10      6       0.6816287       138.2972
2013    10      7       0.5129398       113.459
2013    11      0       0.415823        96.75847
2013    11      1       0.3751334       88.87738
2013    11      2       0.3481681       83.10497
2013    11      3       0.3472208       82.41964
2013    11      4       0.4574842       102.6416
2013    11      5       0.553948        118.3842
2013    11      6       0.5280694       114.475
2013    11      7       0.4594471       103.2936
2013    12      0       0.457432        103.0385
2013    12      1       0.5631347       120.1581
2013    12      2       0.7033973       139.9333
2013    12      3       0.7636121       147.3815
2013    12      4       0.9192386       164.9712
2013    12      5       1.024365        175.4578
2013    12      6       1.057987        179.0912
2013    12      7       1.014994        175.8207
2013    13      0       0.9006954       164.7986
2013    13      1       0.7638899       149.0107
2013    13      2       0.7172973       142.7603
2013    13      3       0.713609        141.9688
2013    13      4       0.6963366       139.7408
2013    13      5       0.7103789       141.6523
2013    13      6       0.6529082       134.049
2013    13      7       0.4864491       108.9275
2013    14      0       0.4241446       98.3357
2013    14      1       0.3872066       91.70439
2013    14      2       0.3451041       83.93963
2013    14      3       0.3572014       86.14132
2013    14      4       0.5434311       117.5379
2013    14      5       0.7212468       142.4985
2013    14      6       0.9146778       164.9676
2013    14      7       0.9661407       170.2116
2013    15      0       0.7865087       150.4207
2013    15      1       0.7635508       147.001
2013    15      2       0.7826769       149.0045
2013    15      3       0.7773503       148.2508
2013    15      4       0.7696542       146.9343
2013    15      5       0.7996104       150.5366
2013    15      6       0.5844156       122.878
2013    15      7       0.2545696       65.54364
2013    16      0       0.1465057       41.31129
2013    16      1       0.2399937       61.17171
2013    16      2       0.3541839       83.43557
2013    16      3       0.3209951       77.9334
2013    16      4       0.3819927       88.93
2013    16      5       0.5926088       123.0712
2013    16      6       0.5241404       112.9834
2013    16      7       0.3608628       85.82625
2013    17      0       0.2705557       68.4375
2013    17      1       0.2985221       73.50667
2013    17      2       0.3004908       73.47525
2013    17      3       0.1684996       46.09468
2013    17      4       0.2115505       55.55782
2013    17      5       0.3421438       81.38818
2013    17      6       0.2903879       71.98101
2013    17      7       0.2304525       59.73975
2013    18      0       0.236473        60.7297
2013    18      1       0.3364168       80.3158
2013    18      2       0.4166133       94.93911
2013    18      3       0.2071385       54.80805
2013    18      4       0.1600604       44.40585
2013    18      5       0.2861878       69.97056
2013    18      6       0.3955851       90.16848
2013    18      7       0.3846855       88.16698
2013    19      0       0.3523179       82.19257
2013    19      1       0.3048891       74.12978
2013    19      2       0.3019485       74.23814
2013    19      3       0.258294        65.44962
2013    19      4       0.1968705       52.07157
2013    19      5       0.3195372       77.23106
2013    19      6       0.3187987       76.8558
2013    19      7       0.2905594       71.76418
2013    20      0       0.3820034       88.72882
2013    20      1       0.356659        84.55955
2013    20      2       0.3212339       77.81526
2013    20      3       0.2789617       69.9544
2013    20      4       0.2489937       64.16444
2013    20      5       0.248513        64.09526
2013    20      6       0.1216767       36.03189
2013    20      7       0.1037853       31.52851
2013    21      0       0.1270256       36.956
2013    21      1       0.159229        44.25341
2013    21      2       0.2131457       55.01255
2013    21      3       0.2716893       66.7359
2013    21      4       0.3822863       86.98562
2013    21      5       0.5894356       121.3448
2013    21      6       0.8964331       159.6467
2013    21      7       1.132137        182.1231
2013    22      0       1.295861        195.5557
2013    22      1       1.317821        198.2484
2013    22      2       1.733927        223.9573
2013    22      3       2.151994        241.5584
2013    22      4       2.34987         247.3298
2013    22      5       2.637271        253.5496
2013    22      6       2.415692        249.0171
2013    22      7       1.746181        226.0572
2013    23      0       1.558663        215.5497
2013    23      1       1.474504        211.8342
2013    23      2       0.9935473       174.555
2013    23      3       0.7137026       142.5708
2013    23      4       0.4232655       97.6869
2013    23      5       0.2622271       66.51887
2013    23      6       0.2576825       65.15161
2013    23      7       0.5505141       118.2902
2013    24      0       0.6389483       130.6223
2013    24      1       0.6573001       132.5696
2013    24      2       0.7691071       148.9047
2013    24      3       0.8104664       154.0696
2013    24      4       1.006163        175.069
2013    24      5       1.25651         196.6233
2013    24      6       1.081322        182.0241
2013    24      7       0.800088        153.233
2013    25      0       0.3474116       84.31399
2013    25      1       0.1620222       44.60445
2013    25      2       0.1305025       37.81591
2013    25      3       0.108715        33.02057
2013    25      4       0.112927        34.09242
2013    25      5       0.148177        42.44953
2013    25      6       0.1212532       36.15159
2013    25      7       0.1625047       45.70022
2013    26      0       0.1077616       33.01009
2013    26      1       0.1039053       31.95969
2013    26      2       0.1045433       31.97152
2013    26      3       0.09929106      30.23128
2013    26      4       0.1582515       43.88307
2013    26      5       0.2795054       69.40793
2013    26      6       0.3758459       87.33706
2013    26      7       0.3646139       85.13784
2013    27      0       0.3310101       78.9188
2013    27      1       0.3656476       83.9132
2013    27      2       0.4543137       98.08931
2013    27      3       0.5202077       108.6776
2013    27      4       0.5965161       120.0499
2013    27      5       0.6818207       132.1249
2013    27      6       0.9817612       166.7186
2013    27      7       1.062405        175.5325
2013    28      0       1.053699        174.2257
2013    28      1       1.000285        169.3551
2013    28      2       0.8045989       149.3171
2013    28      3       0.7991986       149.0516
2013    28      4       0.8935202       160.1186
2013    28      5       0.9475679       165.7972
2013    28      6       1.016448        172.6348
2013    28      7       1.044329        175.384
2013    29      0       1.154828        185.2403
2013    29      1       1.211271        189.8195
2013    29      2       1.095577        180.1846
2013    29      3       1.019531        173.0283
2013    29      4       0.8997398       161.3396
2013    29      5       0.9741761       168.6235
2013    29      6       0.856489        156.7175
2013    29      7       0.7243093       140.6347
2013    30      0       0.8776303       157.9537
2013    30      1       1.052866        174.9125
2013    30      2       1.054881        175.1926
2013    30      3       0.9689          167.7641
2013    30      4       1.073317        178.5624
2013    30      5       1.245433        192.5217
2013    30      6       1.14829         185.3659
2013    30      7       0.8199702       153.4959
2014    1       0       1.199488        189.9914
2014    1       1       1.155635        186.1629
2014    1       2       1.17039         186.8191
2014    1       3       1.239199        191.7562
2014    1       4       1.589413        213.9955
2014    1       5       2.008859        232.6941
2014    1       6       2.119223        236.8201
2014    1       7       1.842399        226.8328
2014    2       0       1.669534        218.9571
2014    2       1       1.725635        221.5724
2014    2       2       1.9247          228.9891
2014    2       3       1.84358         226.5839
2014    2       4       2.001996        232.9253
2014    2       5       2.109012        235.8548
2014    2       6       1.803903        224.3491
2014    2       7       1.36607         201.2152
2014    3       0       1.29326         196.2533
2014    3       1       1.209291        189.5305
2014    3       2       1.163452        185.7453
2014    3       3       1.207583        189.4946
2014    3       4       1.441562        205.4736
2014    3       5       1.552505        212.8428
2014    3       6       1.528484        211.8982
2014    3       7       1.171786        187.4418
2014    4       0       0.9300001       164.0278
2014    4       1       0.8370792       153.7809
2014    4       2       0.6735892       132.6791
2014    4       3       0.6986433       136.0483
2014    4       4       1.259053        193.2459
2014    4       5       1.821943        227.3685
2014    4       6       2.345713        246.1496
2014    4       7       1.924655        233.1669
2014    5       0       1.118653        183.9627
2014    5       1       0.6954933       138.6793
2014    5       2       0.4374786       98.26027
2014    5       3       0.3884093       88.90621
2014    5       4       0.5267707       112.4605
2014    5       5       0.5954442       123.6171
2014    5       6       0.6400717       130.6699
2014    5       7       0.5394345       116.2414
2014    6       0       0.4901537       108.2704
2014    6       1       0.4544465       102.4667
2014    6       2       0.416001        95.66368
2014    6       3       0.5001543       109.9295
2014    6       4       0.6420306       131.6243
2014    6       5       0.7697353       148.6048
2014    6       6       0.7434528       145.5153
2014    6       7       0.7067609       141.1838
2014    7       0       0.7222602       142.8804
2014    7       1       0.8014661       152.4372
2014    7       2       0.8339961       156.0591
2014    7       3       0.8753423       160.3798
2014    7       4       0.9781913       170.969
2014    7       5       1.145227        185.9404
2014    7       6       1.109056        182.8821
2014    7       7       1.015152        174.2745
2014    8       0       1.074649        179.6947
2014    8       1       1.149058        186.2729
2014    8       2       1.175044        188.3064
2014    8       3       0.9540008       168.8981
2014    8       4       0.8814239       161.2715
2014    8       5       0.9243116       165.6222
2014    8       6       0.6339709       130.5952
2014    8       7       0.4543191       101.1942
2014    9       0       0.6700877       132.5058
2014    9       1       0.6655066       134.5449
2014    9       2       0.7010322       137.5085
2014    9       3       0.9399177       166.8652
2014    9       4       0.9639714       169.5551
2014    9       5       0.6848636       136.4704
2014    9       6       0.2892024       71.25813
2014    9       7       0.3822565       88.48822
2014    10      0       0.7590718       144.5852
2014    10      1       0.9810821       169.2276
2014    10      2       1.170761        187.3474
2014    10      3       0.9319194       166.8817
2014    10      4       0.7858965       150.7563
2014    10      5       0.7612558       147.1272
2014    10      6       1.12277         183.3845
2014    10      7       1.745313        223.8549
2014    11      0       1.57892         216.2706
2014    11      1       1.420243        206.7443
2014    11      2       1.149865        186.4664
2014    11      3       0.8711213       158.863
2014    11      4       0.9298204       164.9548
2014    11      5       1.190218        189.2732
2014    11      6       1.111296        182.976
2014    11      7       0.8679029       159.1912
2014    12      0       0.5190316       112.6738
2014    12      1       0.3747543       89.17112
2014    12      2       0.3383316       82.1623
2014    12      3       0.3642692       86.20961
2014    12      4       0.8462748       155.8234
2014    12      5       1.466419        209.3835
2014    12      6       1.380364        204.9448
2014    12      7       1.352993        203.5645
2014    13      0       1.311968        200.6392
2014    13      1       1.238702        195.2959
2014    13      2       0.9582028       170.184
2014    13      3       0.5600769       118.4981
2014    13      4       0.8288255       154.4171
2014    13      5       1.365308        204.0877
2014    13      6       0.9625662       170.3292
2014    13      7       0.6114076       124.3233
2014    14      0       0.4406336       98.16883
2014    14      1       0.3750657       87.34828
2014    14      2       0.3842287       89.13122
2014    14      3       0.3582709       84.51895
2014    14      4       0.3805396       88.88255
2014    14      5       0.423078        96.42241
2014    14      6       0.3810169       88.76482
2014    14      7       0.3622266       85.2888
2014    15      0       0.4437645       99.60127
2014    15      1       0.7884349       148.9747
2014    15      2       1.189797        190.4838
2014    15      3       1.502913        212.9649
2014    15      4       1.786955        227.268
2014    15      5       2.028906        236.299
2014    15      6       1.942929        233.3375
2014    15      7       2.006962        235.8142
2014    16      0       1.7164          223.0642
2014    16      1       1.49142         209.6714
2014    16      2       1.319203        197.8017
2014    16      3       1.289859        194.7101
2014    16      4       1.865005        226.579
2014    16      5       1.985353        232.7288
2014    16      6       1.664715        219.3823
2014    16      7       1.438541        206.5711
2014    17      0       1.417669        205.0256
2014    17      1       1.490586        208.9223
2014    17      2       1.34696         199.735
2014    17      3       1.209307        189.4562
2014    17      4       1.357138        200.2764
2014    17      5       1.879888        227.8368
2014    17      6       1.788721        224.4135
2014    17      7       1.41669         204.598
2014    18      0       1.280342        195.4541
2014    18      1       1.212147        190.5936
2014    18      2       1.122631        183.3982
2014    18      3       0.9896465       171.6243
2014    18      4       0.9564194       168.6022
2014    18      5       1.101079        182.1317
2014    18      6       0.9548891       168.5997
2014    18      7       0.7334952       143.8445
2014    19      0       0.6760844       136.3805
2014    19      1       0.7047457       140.0808
2014    19      2       0.7640036       147.4758
2014    19      3       0.7592795       146.6357
2014    19      4       0.822255        154.3131
2014    19      5       0.9189679       164.9889
2014    19      6       1.046061        177.0032
2014    19      7       0.9106022       163.1372
2014    20      0       1.116452        182.2818
2014    20      1       1.121072        182.4315
2014    20      2       1.018146        172.3674
2014    20      3       1.129704        182.0772
2014    20      4       1.257493        192.0801
2014    20      5       1.268983        192.6524
2014    20      6       1.193076        187.1012
2014    20      7       1.449919        205.401
2014    21      0       1.632542        217.2933
2014    21      1       1.543997        211.2272
2014    21      2       1.608646        215.1335
2014    21      3       1.642541        217.1599
2014    21      4       1.472624        207.9893
2014    21      5       1.518289        210.2242
2014    21      6       1.740182        222.3312
2014    21      7       1.529573        211.2948
2014    22      0       1.552825        213.454
2014    22      1       2.180132        240.7803
2014    22      2       2.065585        235.9883
2014    22      3       0.9558074       165.4262
2014    22      4       1.450552        204.616
2014    22      5       1.621933        215.7691
2014    22      6       1.773371        221.8313
2014    22      7       1.928183        228.6012
2014    23      0       1.959869        229.9993
2014    23      1       1.926269        228.6289
2014    23      2       2.124179        236.4653
2014    23      3       1.862688        227.7339
2014    23      4       1.923669        228.8813
2014    23      5       2.213324        238.8444
2014    23      6       2.110427        235.9423
2014    23      7       1.861895        226.9544
2014    24      0       1.528005        211.4008
2014    24      1       1.20338         189.8743
2014    24      2       1.192151        189.233
2014    24      3       0.6888662       136.537
2014    24      4       0.753744        144.9711
2014    24      5       1.223897        192.3458
2014    24      6       0.6628241       135.2177
2014    24      7       0.3343418       81.881
2014    25      0       0.3279738       79.42951
2014    25      1       0.3706881       87.02551
2014    25      2       0.4196842       94.85514
2014    25      3       0.4577956       101.958
2014    25      4       0.5720881       120.1296
2014    25      5       0.626305        127.6375
2014    25      6       0.5770898       120.5623
2014    25      7       0.523618        112.6339
2014    26      0       0.5414963       115.2421
2014    26      1       0.5668909       118.7215
2014    26      2       0.5488869       116.2844
2014    26      3       0.5309964       114.0352
2014    26      4       0.7077627       138.9364
2014    26      5       0.8910405       160.116
2014    26      6       0.7584103       145.4048
2014    26      7       0.6022893       124.6395
2014    27      0       0.7387308       142.0602
2014    27      1       1.357778        198.9349
2014    27      2       1.548277        209.6926
2014    27      3       0.4020117       91.93699
2014    27      4       0.6589857       131.2755
2014    27      5       1.133129        181.7912
2014    27      6       1.272068        193.0203
2014    27      7       2.005155        232.3665
2014    28      0       2.212657        239.8347
2014    28      1       2.337379        243.8158
2014    28      2       2.22707         240.8988
2014    28      3       2.508241        248.3343
2014    28      4       1.93159         228.1164
2014    28      5       1.746793        220.1464
2014    28      6       1.833073        222.7316
2014    28      7       1.850094        223.2042
2014    29      0       1.693095        215.9061
2014    29      1       1.534755        205.5826
2014    29      2       1.398717        197.3179
2014    29      3       0.9411371       161.5489
2014    29      4       1.479297        203.5813
2014    29      5       1.614987        211.6644
2014    29      6       1.668644        214.8949
2014    29      7       1.246172        189.035
2014    30      0       1.380704        199.044
2014    30      1       1.583861        211.6048
2014    30      2       1.059788        175.8908
2014    30      3       0.2319302       58.59548
2014    30      4       0.6342369       124.4882
2014    30      5       1.36212         197.1947
2014    30      6       1.538788        210.3225
2014    30      7       1.554023        210.5474
2015    1       0       0.8127447       151.4643
2015    1       1       1.050149        176.2985
2015    1       2       1.31613         197.1263
2015    1       3       1.225534        188.8053
2015    1       4       0.683568        134.5476
2015    1       5       0.5344662       113.9697
2015    1       6       0.3807388       88.48181
2015    1       7       0.4518332       98.04389
2015    2       0       0.8885483       156.1965
2015    2       1       1.151764        182.216
2015    2       2       1.359466        199.0311
2015    2       3       1.454761        205.569
2015    2       4       1.556584        210.6717
2015    2       5       1.414562        202.1454
2015    2       6       0.5818921       121.6903
2015    2       7       0.2909722       73.20655
2015    3       0       0.2404816       62.72941
2015    3       1       0.2205563       58.35977
2015    3       2       0.2186422       57.90786
2015    3       3       0.2759676       69.06436
2015    3       4       0.2813855       69.67137
2015    3       5       0.2763931       69.13841
2015    3       6       0.3326551       80.29491
2015    3       7       0.4059155       94.62153
2015    4       0       0.5162577       112.9904
2015    4       1       0.5816042       122.5834
2015    4       2       0.8203129       153.1971
2015    4       3       1.139175        185.4533
2015    4       4       1.249337        194.3671
2015    4       5       1.254311        193.9801
2015    4       6       1.151911        186.3269
2015    4       7       1.183816        188.9878
2015    5       0       1.280112        196.8446
2015    5       1       1.345095        201.9605
2015    5       2       1.347162        202.7785
2015    5       3       1.25607         196.3581
2015    5       4       1.196636        191.6293
2015    5       5       1.20822         192.3215
2015    5       6       1.18707         190.8123
2015    5       7       1.077076        181.542
2015    6       0       1.084383        182.2896
2015    6       1       1.149161        188.0134
2015    6       2       1.187204        191.3797
2015    6       3       1.241956        195.8276
2015    6       4       1.243051        195.8896
2015    6       5       1.28582         198.9013
2015    6       6       1.238585        195.6311
2015    6       7       1.105006        184.7771
2015    7       0       1.056323        180.4208
2015    7       1       1.058502        180.5089
2015    7       2       1.041984        179.1311
2015    7       3       0.9894562       174.3411
2015    7       4       0.9877586       174.5338
2015    7       5       1.122943        187.175
2015    7       6       1.161852        190.6451
2015    7       7       1.05069         180.9194
2015    8       0       0.8590119       161.0976
2015    8       1       0.7502264       148.1004
2015    8       2       0.7125244       142.7475
2015    8       3       0.7277304       144.121
2015    8       4       0.8777923       161.3383
2015    8       5       1.113219        184.4043
2015    8       6       1.06898         180.0497
2015    8       7       0.8598909       158.5918
2015    9       0       0.7000351       139.8115
2015    9       1       0.6046731       126.7573
2015    9       2       0.5809268       123.4352
2015    9       3       0.6039791       126.6861
2015    9       4       0.6791435       136.6745
2015    9       5       0.735485        144.2145
2015    9       6       0.742779        145.1582
2015    9       7       0.6990583       139.9783
2015    10      0       0.4354066       100.5606
2015    10      1       0.2864377       72.5487
2015    10      2       0.3102886       76.75026
2015    10      3       0.3528993       84.70167
2015    10      4       0.4292483       98.38135
2015    10      5       0.6031801       125.6425
2015    10      6       0.6375736       130.9208
2015    10      7       0.525607        114.9808
2015    11      0       0.4346798       99.83439
2015    11      1       0.4077928       94.86155
2015    11      2       0.3791414       89.63161
2015    11      3       0.3852047       90.49896
2015    11      4       0.4409145       100.382
2015    11      5       0.5921339       124.2394
2015    11      6       0.6559569       133.3927
2015    11      7       0.6287623       129.7094
2015    12      0       0.5740559       121.6674
2015    12      1       0.550964        117.8818
2015    12      2       0.5683388       119.9806
2015    12      3       0.5711932       120.3053
2015    12      4       0.6418572       130.3622
2015    12      5       0.7899605       149.2835
2015    12      6       0.8940633       160.6736
2015    12      7       0.8224851       153.0313
2015    13      0       0.7630915       146.3261
2015    13      1       0.7235649       141.4998
2015    13      2       0.7048169       138.9631
2015    13      3       0.6965894       137.7549
2015    13      4       0.8416224       155.3485
2015    13      5       1.069901        178.3162
2015    13      6       1.037758        175.8699
2015    13      7       0.8688203       159.2715
2015    14      0       0.859586        158.085
2015    14      1       0.8966896       161.7736
2015    14      2       0.8775935       159.5214
2015    14      3       0.824524        153.5507
2015    14      4       0.9122251       163.1774
2015    14      5       1.149861        185.149
2015    14      6       1.357332        200.739
2015    14      7       1.241967        192.6447
2015    15      0       1.045401        176.246
2015    15      1       0.9781165       169.5632
2015    15      2       0.9803986       169.4506
2015    15      3       0.9940601       170.6895
2015    15      4       1.079195        178.152
2015    15      5       1.297138        195.3105
2015    15      6       1.222395        190.0981
2015    15      7       0.9459961       166.0524
2015    16      0       0.8435767       155.0542
2015    16      1       0.6876427       136.066
2015    16      2       0.455437        101.4552
2015    16      3       0.4099119       93.47112
2015    16      4       0.5089559       110.0166
2015    16      5       0.6267686       127.5404
2015    16      6       0.7199969       139.7817
2015    16      7       0.7734825       146.314
2015    17      0       0.7812644       147.3162
2015    17      1       0.747449        143.321
2015    17      2       0.7396708       142.7224
2015    17      3       0.7030389       138.5111
2015    17      4       0.7819684       148.2374
2015    17      5       0.9904803       170.4927
2015    17      6       0.9157134       163.1818
2015    17      7       0.7048372       139.0539
2015    18      0       0.6255066       128.3242
2015    18      1       0.6047874       125.5585
2015    18      2       0.5990292       124.4527
2015    18      3       0.7086429       139.8456
2015    18      4       0.7489481       144.7788
2015    18      5       0.7252672       142.1932
2015    18      6       0.5898186       124.0713
2015    18      7       0.4160965       96.18172
2015    19      0       0.2792751       70.34237
2015    19      1       0.2455229       62.91662
2015    19      2       0.2646254       66.27614
2015    19      3       0.2904886       71.06686
2015    19      4       0.3382613       80.52996
2015    19      5       0.4046758       92.96058
2015    19      6       0.398665        92.02281
2015    19      7       0.3840873       89.13548
2015    20      0       0.3604848       84.67703
2015    20      1       0.3598225       84.44982
2015    20      2       0.3466017       82.59488
2015    20      3       0.3162507       77.44914
2015    20      4       0.2879249       72.3294
2015    20      5       0.2841118       72.06088
2015    20      6       0.273224        70.03002
2015    20      7       0.2492331       64.56926
2015    21      0       0.2400515       62.34741
2015    21      1       0.2354146       61.5232
2015    21      2       0.2679077       68.41508
2015    21      3       0.2540703       65.63191
2015    21      4       0.319987        77.46122
2015    21      5       0.3145516       76.9776
2015    21      6       0.3133981       76.55407
2015    21      7       0.2443562       62.83752
2015    22      0       0.2373758       59.95011
2015    22      1       0.572437        120.3791
2015    22      2       0.454982        102.5634
2015    22      3       0.1532252       43.48915
2015    22      4       0.2220658       58.83973
2015    22      5       0.3432194       82.7638
2015    22      6       0.2662702       68.3545
2015    22      7       0.1502851       43.04347
2015    23      0       0.1548374       43.79873
2015    23      1       0.1722904       47.64234
2015    23      2       0.1704792       47.18184
2015    23      3       0.3338807       80.42588
2015    23      4       0.4283977       97.24111
2015    23      5       0.4500651       101.2378
2015    23      6       0.1746544       48.19647
2015    23      7       0.1579893       43.7602
2015    24      0       0.1658625       45.42356
2015    24      1       0.1570114       43.70493
2015    24      2       0.1602474       44.64146
2015    24      3       0.1809904       49.2249
2015    24      4       0.2624263       65.75567
2015    24      5       0.4453254       98.99153
2015    24      6       0.5662361       118.8588
2015    24      7       0.6286473       128.4495
2015    25      0       0.6997303       137.8497
2015    25      1       0.7754595       146.9155
2015    25      2       0.7483406       143.5448
2015    25      3       0.711681        138.9113
2015    25      4       0.5849644       122.4796
2015    25      5       0.4828415       106.9477
2015    25      6       0.5290448       113.8964
2015    25      7       0.6221566       128.2837
2015    26      0       0.646741        132.3054
2015    26      1       0.600342        125.813
2015    26      2       0.4896439       108.4609
2015    26      3       0.5023496       110.0893
2015    26      4       0.4641142       104.3882
2015    26      5       0.4381003       99.80911
2015    26      6       0.3157775       77.36888
2015    26      7       0.2468177       63.31156
2015    27      0       0.3135028       76.4454
2015    27      1       0.4026998       92.3761
2015    27      2       0.5956778       122.6305
2015    27      3       0.7253801       140.5624
2015    27      4       0.7460768       143.7131
2015    27      5       0.7668551       146.4788
2015    27      6       0.6830155       136.1729
2015    27      7       0.598696        124.631
2015    28      0       0.6051864       125.2383
2015    28      1       0.640237        129.8062
2015    28      2       0.634507        129.056
2015    28      3       0.5485151       116.8659
2015    28      4       0.4971567       109.1416
2015    28      5       0.5409397       116.003
2015    28      6       0.5317604       114.7056
2015    28      7       0.3782783       89.23151
2015    29      0       0.3366335       81.49867
2015    29      1       0.3744374       88.28
2015    29      2       0.3863151       90.39465
2015    29      3       0.335363        81.00036
2015    29      4       0.4015281       92.53783
2015    29      5       0.5645665       118.0062
2015    29      6       0.5752187       119.9152
2015    29      7       0.5647538       117.7152
2015    30      0       0.6618438       130.6444
2015    30      1       0.8593754       154.1716
2015    30      2       1.014526        170.6502
2015    30      3       1.102139        179.3749
2015    30      4       1.164504        184.8169
2015    30      5       1.148102        183.8723
2015    30      6       0.8774271       159.8411
2015    30      7       0.7364928       144.3657
2016    1       0       1.752226        224.0083
2016    1       1       1.915552        230.7614
2016    1       2       2.221249        240.7146
2016    1       3       1.964282        232.6751
2016    1       4       2.099019        237.8036
2016    1       5       2.35017         245.4263
2016    1       6       2.10535         238.4026
2016    1       7       1.488671        211.2767
2016    2       0       1.198481        191.3838
2016    2       1       1.234371        193.7861
2016    2       2       1.438031        207.6789
2016    2       3       1.591974        216.5881
2016    2       4       1.700587        222.0572
2016    2       5       1.966522        233.1311
2016    2       6       1.9756          234.1334
2016    2       7       1.657348        220.6918
2016    3       0       1.58494         216.415
2016    3       1       1.706628        222.2681
2016    3       2       1.693096        221.722
2016    3       3       1.441725        207.6786
2016    3       4       1.582149        214.7576
2016    3       5       1.948458        230.5606
2016    3       6       2.049934        234.3958
2016    3       7       1.909389        230.0513
2016    4       0       1.808637        225.6034
2016    4       1       1.795489        224.8087
2016    4       2       1.889295        228.4669
2016    4       3       1.963275        231.5049
2016    4       4       1.846719        226.591
2016    4       5       2.175863        238.4771
2016    4       6       2.296228        242.7249
2016    4       7       2.336752        244.3597
2016    5       0       1.817175        227.0171
2016    5       1       1.279838        196.8846
2016    5       2       0.866524        159.7603
2016    5       3       0.9884975       172.3137
2016    5       4       1.406787        206.6202
2016    5       5       1.501801        212.4685
2016    5       6       1.514767        212.8349
2016    5       7       1.545407        214.2765
2016    6       0       1.753161        224.2283
2016    6       1       1.731803        222.6592
2016    6       2       1.707144        220.2679
2016    6       3       1.862695        225.5878
2016    6       4       1.504221        207.4219
2016    6       5       1.499364        207.2259
2016    6       6       1.500329        207.4338
2016    6       7       1.7952          222.5218
2016    7       0       2.214958        238.2576
2016    7       1       2.07983         234.2121
2016    7       2       2.073149        234.647
2016    7       3       2.03439         233.7
2016    7       4       2.063575        234.5516
2016    7       5       1.723123        221.3202
2016    7       6       0.7082279       140.5132
2016    7       7       0.2180938       57.91013
2016    8       0       0.1718959       47.47385
2016    8       1       0.1401013       39.88645
2016    8       2       0.1363093       38.49875
2016    8       3       0.1475109       40.81804
2016    8       4       0.1679211       45.67141
2016    8       5       0.2505715       63.8921
2016    8       6       0.2338817       60.90138
2016    8       7       0.1919668       52.28003
2016    9       0       0.1849755       50.7172
2016    9       1       0.1918004       52.27367
2016    9       2       0.1870123       51.19875
2016    9       3       0.221678        58.78988
2016    9       4       0.2814574       71.41823
2016    9       5       0.3749461       89.72578
2016    9       6       0.3679557       88.59866
2016    9       7       0.3142627       78.11461
2016    10      0       0.360316        86.11186
2016    10      1       0.4314347       98.34885
2016    10      2       0.4781374       106.3799
2016    10      3       0.6031917       125.2169
2016    10      4       0.8036491       150.7613
2016    10      5       1.136127        182.2501
2016    10      6       1.515488        209.3124
2016    10      7       1.51945         210.9181
2016    11      0       1.089454        181.2088
2016    11      1       0.709843        140.7303
2016    11      2       0.5779507       122.2731
2016    11      3       0.4459282       101.4826
2016    11      4       0.5282298       114.8361
2016    11      5       0.5771997       122.2666
2016    11      6       0.59843         124.9994
2016    11      7       0.5285448       113.2421
2016    12      0       0.5697974       118.3034
2016    12      1       0.6419194       128.377
2016    12      2       0.6387322       128.077
2016    12      3       0.5733634       119.7267
2016    12      4       0.4480068       101.4132
2016    12      5       0.5535461       118.7219
2016    12      6       0.5646648       120.2761
2016    12      7       0.5547508       118.4743
2016    13      0       0.5627677       119.4937
2016    13      1       0.6212578       127.8381
2016    13      2       0.6884265       136.368
2016    13      3       0.7577409       144.253
2016    13      4       0.8916953       158.9475
2016    13      5       1.023021        172.7162
2016    13      6       1.068549        177.5087
2016    13      7       0.8838378       159.5646
2016    14      0       0.5982976       123.1974
2016    14      1       0.3997001       91.17798
2016    14      2       0.3489909       82.20346
2016    14      3       0.3055747       74.36145
2016    14      4       0.3492996       83.57066
2016    14      5       0.5408852       115.743
2016    14      6       0.6047527       125.1504
2016    14      7       0.5563986       118.0739
2016    15      0       0.4837415       106.6678
2016    15      1       0.4607545       102.2526
2016    15      2       0.4956043       107.1182
2016    15      3       0.5049434       108.6647
2016    15      4       0.5958589       123.3433
2016    15      5       0.7156835       140.3489
2016    15      6       0.6880198       136.9985
2016    15      7       0.6714752       134.5773
2016    16      0       0.6760186       135.1465
2016    16      1       0.744799        144.3207
2016    16      2       0.7153605       140.5765
2016    16      3       0.5828459       122.4042
2016    16      4       0.6000466       125.2105
2016    16      5       0.7623216       146.7014
2016    16      6       0.6749931       135.8432
2016    16      7       0.4560337       103.6479
2016    17      0       0.2542222       65.82404
2016    17      1       0.213817        56.86532
2016    17      2       0.2175396       57.39274
2016    17      3       0.2136426       56.32177
2016    17      4       0.2865307       71.43388
2016    17      5       0.390834        91.02904
2016    17      6       0.3939845       91.77204
2016    17      7       0.3270604       79.04695
2016    18      0       0.3566123       84.30785
2016    18      1       0.3822062       88.90882
2016    18      2       0.358845        84.71232
2016    18      3       0.3739901       87.63457
2016    18      4       0.4223286       96.15301
2016    18      5       0.5801919       121.4103
2016    18      6       0.6285089       128.2771
2016    18      7       0.5160814       111.3786
2016    19      0       0.426088        96.41234
2016    19      1       0.3880932       89.82898
2016    19      2       0.3715051       86.7469
2016    19      3       0.3868432       89.13422
2016    19      4       0.4130734       93.77779
2016    19      5       0.515595        110.0299
2016    19      6       0.5511417       116.1791
2016    19      7       0.4290157       98.17779
2016    20      0       0.3502411       84.00395
2016    20      1       0.4766098       105.1332
2016    20      2       0.8901573       160.7695
2016    20      3       0.9766075       170.5709
2016    20      4       0.9253374       165.1942
2016    20      5       0.8777983       160.5044
2016    20      6       0.8211791       154.2625
2016    20      7       0.8093743       153.2442
2016    21      0       0.9537941       169.281
2016    21      1       0.9544103       169.3918
2016    21      2       0.7619335       147.4754
2016    21      3       0.5277668       114.4604
2016    21      4       0.5155416       112.4409
2016    21      5       0.6653269       134.9833
2016    21      6       0.6303184       129.7455
2016    21      7       0.5820332       122.0895
2016    22      0       0.5539324       117.9329
2016    22      1       0.7030876       139.1928
2016    22      2       0.9874094       171.8758
2016    22      3       1.302423        196.6718
2016    22      4       1.885696        228.5635
2016    22      5       1.353712        199.6995
2016    22      6       0.8007529       149.2805
2016    22      7       0.6376429       127.8799
2016    23      0       0.8041459       147.627
2016    23      1       0.8427015       152.0131
2016    23      2       0.7722264       143.5172
2016    23      3       0.8417064       151.4867
2016    23      4       1.168251        181.9458
2016    23      5       1.227048        186.6592
2016    23      6       1.200788        185.4089
2016    23      7       0.830729        151.3989
2016    24      0       0.4114489       93.60344
2016    24      1       0.3008246       73.12679
2016    24      2       0.3512436       82.85456
2016    24      3       0.4007125       91.67069
2016    24      4       0.5739188       119.0995
2016    24      5       0.785329        147.1985
2016    24      6       0.730437        140.7364
2016    24      7       0.666454        132.5722
2016    25      0       0.6424924       129.6467
2016    25      1       0.5371397       114.836
2016    25      2       0.5098161       110.4893
2016    25      3       0.5093338       110.1371
2016    25      4       0.524179        112.4841
2016    25      5       0.6404936       129.3012
2016    25      6       0.6491725       130.1393
2016    25      7       1.038983        172.7129
2016    26      0       1.509508        207.7857
2016    26      1       1.125064        181.9941
2016    26      2       1.457811        205.515
2016    26      3       1.371017        200.9981
2016    26      4       0.8322828       153.6726
2016    26      5       0.8607406       155.0937
2016    26      6       1.09539         178.0409
2016    26      7       0.8613514       156.9472
2016    27      0       0.6754426       134.9677
2016    27      1       0.7793994       148.4271
2016    27      2       0.5784323       121.1865
2016    27      3       0.8368793       154.6508
2016    27      4       1.406983        203.4926
2016    27      5       1.218136        190.1501
2016    27      6       0.8628863       157.4587
2016    27      7       0.3515423       84.20968
2016    28      0       0.2667431       66.87259
2016    28      1       0.3391674       80.85891
2016    28      2       0.4330026       96.94801
2016    28      3       0.4798699       104.0821
2016    28      4       0.6049528       123.09
2016    28      5       0.7281013       139.5429
2016    28      6       0.7625179       143.8591
2016    28      7       0.7294337       140.3973
2016    29      0       0.6962014       136.0551
2016    29      1       0.6271299       126.598
2016    29      2       0.5834866       120.4346
2016    29      3       0.5430609       113.8128
2016    29      4       0.5611917       115.8487
2016    29      5       0.6122759       122.7391
2016    29      6       0.8801228       154.7423
2016    29      7       1.043709        171.5584
2016    30      0       0.8528865       152.0451
2016    30      1       1.102387        176.0965
2016    30      2       1.092023        175.3838
2016    30      3       1.027092        170.1896
2016    30      4       1.074329        174.7525
2016    30      5       1.651614        214.545
2016    30      6       0.7252526       140.9793
2016    30      7       0.5490326       116.3051
2017    1       0       0.4011633       93.9952
2017    1       1       0.3126877       77.56532
2017    1       2       0.2616805       67.36628
2017    1       3       0.2428559       63.29429
2017    1       4       0.3804627       89.59028
2017    1       5       0.5561885       118.3789
2017    1       6       0.5765512       121.5992
2017    1       7       0.4716565       105.2585
2017    2       0       0.3155923       77.43506
2017    2       1       0.2514365       64.84343
2017    2       2       0.2988996       74.8337
2017    2       3       0.3253359       80.01022
2017    2       4       0.4601302       103.9811
2017    2       5       0.6613831       133.8755
2017    2       6       0.8313853       154.556
2017    2       7       0.9376225       165.5195
2017    3       0       1.136849        183.4707
2017    3       1       0.98949         169.9247
2017    3       2       0.8687175       157.9948
2017    3       3       0.9623974       168.0968
2017    3       4       1.353006        200.5176
2017    3       5       1.597129        215.299
2017    3       6       1.255271        193.6812
2017    3       7       0.9472974       167.0551
2017    4       0       0.9127091       163.7624
2017    4       1       0.9629297       169.0931
2017    4       2       0.9589823       168.2959
2017    4       3       0.9047513       162.2187
2017    4       4       0.9691601       168.6026
2017    4       5       0.9977866       171.6167
2017    4       6       0.9521089       167.0329
2017    4       7       0.9483436       166.2582
2017    5       0       1.22696         191.0671
2017    5       1       1.383881        202.3443
2017    5       2       1.205558        189.3519
2017    5       3       1.005144        172.246
2017    5       4       1.009376        172.8978
2017    5       5       1.161725        186.467
2017    5       6       1.151982        186.0483
2017    5       7       1.01304         174.0309
2017    6       0       0.9923606       171.6048
2017    6       1       1.095993        180.8314
2017    6       2       1.272326        195.1359
2017    6       3       1.323098        198.6546
2017    6       4       1.470767        208.1905
2017    6       5       1.677087        219.444
2017    6       6       1.557282        213.0761
2017    6       7       1.268036        194.573
2017    7       0       1.092024        179.4638
2017    7       1       1.018463        172.542
2017    7       2       0.9703129       167.8745
2017    7       3       0.9649444       167.6966
2017    7       4       0.9687107       167.7651
2017    7       5       1.140248        182.9748
2017    7       6       1.264862        192.5719
2017    7       7       1.191288        187.1797
2017    8       0       1.130719        182.2404
2017    8       1       1.087191        178.2586
2017    8       2       1.08534         177.5208
2017    8       3       1.154233        183.0229
2017    8       4       1.094133        178.5472
2017    8       5       1.323145        195.9975
2017    8       6       1.230064        189.5314
2017    8       7       1.148196        182.752
2017    9       0       1.210023        187.6958
2017    9       1       1.123341        181.4013
2017    9       2       1.006033        171.8321
2017    9       3       0.9048024       162.1776
2017    9       4       1.270782        193.9101
2017    9       5       1.37855         202.0942
2017    9       6       1.106037        181.9806
2017    9       7       0.8417794       156.7342
2017    10      0       0.4808165       107.2022
2017    10      1       0.1791262       49.29825
2017    10      2       0.1149033       34.16543
2017    10      3       0.153976        43.44386
2017    10      4       0.1843117       50.64057
2017    10      5       0.1771688       49.18261
2017    10      6       0.188658        51.6985
2017    10      7       0.174697        48.64168
2017    11      0       0.1819876       50.26149
2017    11      1       0.1869838       51.32027
2017    11      2       0.2030472       54.80455
2017    11      3       0.2288632       60.44468
2017    11      4       0.2262067       59.93075
2017    11      5       0.2647734       67.89406
2017    11      6       0.2214637       58.83557
2017    11      7       0.1964867       53.19717
2017    12      0       0.1909993       51.69629
2017    12      1       0.1835793       49.58993
2017    12      2       0.2148023       55.75781
2017    12      3       0.2548685       63.83794
2017    12      4       0.2956155       72.10438
2017    12      5       0.3429996       81.23141
2017    12      6       0.3637104       84.73956
2017    12      7       0.4031461       91.09191
2017    13      0       0.49593         105.7548
2017    13      1       0.4699031       102.4092
2017    13      2       0.5068222       107.966
2017    13      3       0.533225        112.3175
2017    13      4       0.4634417       101.8789
2017    13      5       0.4057255       92.58735
2017    13      6       0.2376517       61.69518
2017    13      7       0.1466207       41.83999
2017    14      0       0.2486464       62.9015
2017    14      1       0.2795968       69.74228
2017    14      2       0.2264655       59.80222
2017    14      3       0.2001153       54.32717
2017    14      4       0.1920898       52.71674
2017    14      5       0.2139122       57.51159
2017    14      6       0.2084118       56.42203
2017    14      7       0.1792028       50.2056
2017    15      0       0.1671913       47.27678
2017    15      1       0.1729776       48.40025
2017    15      2       0.1788755       49.40252
2017    15      3       0.1777113       48.69906
2017    15      4       0.1898625       51.53377
2017    15      5       0.2896909       71.98551
2017    15      6       0.3241204       78.0588
2017    15      7       0.3346938       78.93943
2017    16      0       0.4573634       99.18678
2017    16      1       0.4523412       98.97003
2017    16      2       0.4752753       102.7097
2017    16      3       0.5136085       108.6191
2017    16      4       0.6453401       127.8373
2017    16      5       0.7775468       145.7046
2017    16      6       0.7335143       141.3881
2017    16      7       0.6334365       128.875
2017    17      0       0.5339859       114.3962
2017    17      1       0.4924958       107.8047
2017    17      2       0.4908482       107.1466
2017    17      3       0.4752693       104.3414
2017    17      4       0.5387867       114.153
2017    17      5       0.6200636       126.1862
2017    17      6       0.6416369       129.3009
2017    17      7       0.6199611       126.4774
2017    18      0       0.6506501       130.5871
2017    18      1       0.6721627       133.2722
2017    18      2       0.6959658       136.2701
2017    18      3       0.7131007       138.5467
2017    18      4       0.8015162       149.3117
2017    18      5       0.8665291       156.5086
2017    18      6       0.8774303       157.5894
2017    18      7       0.7963581       148.8242
2017    19      0       0.7739222       146.1713
2017    19      1       0.784065        147.1653
2017    19      2       0.7543308       143.5677
2017    19      3       0.7064508       137.5307
2017    19      4       0.7548493       143.4044
2017    19      5       0.8599554       155.1888
2017    19      6       0.9622047       165.6866
2017    19      7       0.8752349       157.1496
2017    20      0       0.7738419       145.8523
2017    20      1       0.7215435       139.3126
2017    20      2       0.7156551       138.3972
2017    20      3       0.7410592       141.5066
2017    20      4       0.7571184       143.3239
2017    20      5       0.850152        153.9904
2017    20      6       0.965331        165.9889
2017    20      7       0.8894687       158.3542
2017    21      0       0.8322871       152.1417
2017    21      1       0.844513        153.0765
2017    21      2       0.793855        147.2116
2017    21      3       0.7241643       138.8864
2017    21      4       0.7356197       140.3945
2017    21      5       0.8211037       150.4946
2017    21      6       0.7986046       148.3985
2017    21      7       0.8086745       149.4601
2017    22      0       0.6961857       136.1729
2017    22      1       0.6344132       127.8235
2017    22      2       0.7034742       136.5196
2017    22      3       0.7817392       145.5177
2017    22      4       0.8296394       150.9159
2017    22      5       0.8897686       157.4058
2017    22      6       0.810336        149.1703
2017    22      7       0.6028588       124.0117
2017    23      0       0.5123691       110.7077
2017    23      1       0.5371001       114.6807
2017    23      2       0.6473178       130.9633
2017    23      3       0.6972073       138.1216
2017    23      4       0.7369737       143.6715
2017    23      5       0.7356143       142.8644
2017    23      6       0.7160943       140.9453
2017    23      7       0.7061723       139.8031
2017    24      0       0.6826081       136.7214
2017    24      1       0.71775         140.8364
2017    24      2       0.674875        134.9527
2017    24      3       0.664666        133.1106
2017    24      4       0.6196479       126.8798
2017    24      5       0.662058        132.4835
2017    24      6       0.7081448       138.1238
2017    24      7       0.7341266       140.7379
2017    25      0       0.795156        148.0006
2017    25      1       0.8696993       156.1649
2017    25      2       0.9157973       160.9031
2017    25      3       0.9532831       164.6986
2017    25      4       1.219484        187.8997
2017    25      5       1.261413        191.7935
2017    25      6       1.150843        183.8637
2017    25      7       1.063581        177.3054
2017    26      0       1.02983         174.6284
2017    26      1       1.087635        179.5624
2017    26      2       1.092755        179.3003
2017    26      3       1.183239        187.9064
2017    26      4       1.240298        193.1077
2017    26      5       1.188309        188.9862
2017    26      6       1.054787        177.7456
2017    26      7       0.9626234       169.3983
2017    27      0       1.084149        180.8216
2017    27      1       1.152818        186.4321
2017    27      2       1.250759        193.2085
2017    27      3       1.418315        203.8485
2017    27      4       1.084224        179.871
2017    27      5       1.0566          177.4381
2017    27      6       1.181017        188.359
2017    27      7       1.209958        191.467
2017    28      0       1.323219        200.4146
2017    28      1       1.00705         173.7581
2017    28      2       1.181923        188.8449
2017    28      3       1.368663        202.5026
2017    28      4       1.473774        209.1365
2017    28      5       1.562237        213.8258
2017    28      6       1.619615        217.3356
2017    28      7       1.622875        218.2073
2017    29      0       1.444776        207.6282
2017    29      1       1.446859        207.9257
2017    29      2       1.386814        204.0152
2017    29      3       1.479407        209.7224
2017    29      4       1.387638        204.1753
2017    29      5       1.353213        201.3196
2017    29      6       1.988198        233.9586
2017    29      7       1.701237        221.1345
2017    30      0       1.797563        225.0692
2017    30      1       1.951261        230.8177
2017    30      2       2.092369        235.8057
2017    30      3       2.117841        236.9743
2017    30      4       2.514283        248.3419
2017    30      5       2.189489        240.9188
2017    30      6       1.134362        185.525
2017    30      7       0.4925498       110.0931
2018    1       0       0.4841405       105.8637
2018    1       1       0.5173002       111.8987
2018    1       2       0.6026157       124.791
2018    1       3       0.7944278       150.1663
2018    1       4       0.9324365       166.2945
2018    1       5       1.078549        181.1137
2018    1       6       0.9715193       171.9091
2018    1       7       0.8143129       154.7849
2018    2       0       0.7648043       148.5962
2018    2       1       0.7602465       147.6388
2018    2       2       0.7000742       139.7564
2018    2       3       0.5930353       124.8137
2018    2       4       0.4878261       108.671
2018    2       5       0.5212644       114.1125
2018    2       6       0.3892028       91.48188
2018    2       7       0.4823858       106.8391
2018    3       0       0.6200602       127.9805
2018    3       1       0.6692444       134.8245
2018    3       2       0.7224565       141.3892
2018    3       3       0.727682        142.0001
2018    3       4       0.6683489       134.4168
2018    3       5       0.7159863       140.6535
2018    3       6       0.6335756       129.0226
2018    3       7       0.4927641       107.4032
2018    4       0       0.446169        99.85353
2018    4       1       0.4621214       103.0284
2018    4       2       0.4785674       106.2605
2018    4       3       0.4542202       102.439
2018    4       4       0.4434191       100.6965
2018    4       5       0.536049        116.3301
2018    4       6       0.5422236       117.8012
2018    4       7       0.4167132       96.79793
2018    5       0       0.3554186       85.5713
2018    5       1       0.2913201       72.95474
2018    5       2       0.2894438       72.20063
2018    5       3       0.4233587       95.59698
2018    5       4       0.783574        146.4714
2018    5       5       0.971875        170.5925
2018    5       6       0.6473496       133.0517
2018    5       7       0.2498327       64.60957
2018    6       0       0.2387724       61.88326
2018    6       1       0.3889371       91.27418
2018    6       2       0.4944673       109.8166
2018    6       3       0.5095675       112.6788
2018    6       4       0.4368981       100.6005
2018    6       5       0.4673917       105.6763
2018    6       6       0.5053556       111.6746
2018    6       7       0.4914049       109.1688
2018    7       0       0.4750051       106.4462
2018    7       1       0.4718302       105.9607
2018    7       2       0.4744106       106.0506
2018    7       3       0.4607465       103.8789
2018    7       4       0.4602121       103.9762
2018    7       5       0.5726315       122.4082
2018    7       6       0.5863968       124.825
2018    7       7       0.4592112       104.5577
2018    8       0       0.4297459       99.34649
2018    8       1       0.4658324       105.233
2018    8       2       0.5134469       112.8194
2018    8       3       0.5202295       113.7422
2018    8       4       0.5508591       118.1636
2018    8       5       0.6309569       129.8877
2018    8       6       0.5346025       116.2149
2018    8       7       0.3185818       78.47371
2018    9       0       0.2710879       68.34353
2018    9       1       0.2530457       63.91239
2018    9       2       0.2898093       71.05674
2018    9       3       0.3710175       86.80881
2018    9       4       0.4455523       100.4873
2018    9       5       0.5970478       124.6643
2018    9       6       0.6209907       128.7459
2018    9       7       0.6301098       129.9529
2018    10      0       0.6051216       126.8675
2018    10      1       0.550027        118.868
2018    10      2       0.6061077       127.7358
2018    10      3       0.5583304       120.091
2018    10      4       0.6089422       127.4578
2018    10      5       0.7841958       150.8124
2018    10      6       0.794161        152.2606
2018    10      7       0.6299985       131.2317
2018    11      0       0.5457748       118.7245
2018    11      1       0.4871767       109.0562
2018    11      2       0.4879275       109.0732
2018    11      3       0.4946705       109.9159
2018    11      4       0.4746288       106.4503
2018    11      5       0.4757684       106.6863
2018    11      6       0.4326319       99.23727
2018    11      7       0.3790195       88.99551
