####################################################################################################
# Month: 08Aug                                                                                     #
# Station: HAN                                                                                     #
# Frequency: 230 GHz                                                                               #
# Columns are: year    day     segment         tau     Tb (K)                                      #
####################################################################################################
2009    1       0       0.3379438       79.72408
2009    1       1       0.3688697       85.50942
2009    1       2       0.3230836       77.49565
2009    1       3       0.2983804       73.09366
2009    1       4       0.3416642       81.34383
2009    1       5       0.2969066       72.92991
2009    1       6       0.2166768       56.32561
2009    1       7       0.2117966       55.30396
2009    2       0       0.2214167       57.14666
2009    2       1       0.239425        60.91596
2009    2       2       0.247054        62.83961
2009    2       3       0.2707871       67.94974
2009    2       4       0.3039558       74.25013
2009    2       5       0.2770329       68.99266
2009    2       6       0.2305471       59.59061
2009    2       7       0.2126197       55.72648
2009    3       0       0.2146907       55.99978
2009    3       1       0.2147763       56.16649
2009    3       2       0.2098414       55.45736
2009    3       3       0.2220217       58.17836
2009    3       4       0.2201625       57.85088
2009    3       5       0.1805115       49.04433
2009    3       6       0.1391246       39.52442
2009    3       7       0.1311873       37.71766
2009    4       0       0.1508103       42.29033
2009    4       1       0.1741969       47.57493
2009    4       2       0.1617966       45.00987
2009    4       3       0.1729508       47.54994
2009    4       4       0.1473637       41.7621
2009    4       5       0.09918445      30.18694
2009    4       6       0.07768018      24.88204
2009    4       7       0.08357957      26.3369
2009    5       0       0.09881329      30.03269
2009    5       1       0.1145079       33.74755
2009    5       2       0.1183311       34.83412
2009    5       3       0.1481597       41.84066
2009    5       4       0.1492868       41.95504
2009    5       5       0.1306341       37.63808
2009    5       6       0.1257123       36.4797
2009    5       7       0.1436332       40.62716
2009    6       0       0.1622082       44.703
2009    6       1       0.1840359       49.52272
2009    6       2       0.1654778       45.59979
2009    6       3       0.1693316       46.54352
2009    6       4       0.1370631       39.02847
2009    6       5       0.151698        42.22918
2009    6       6       0.1797322       48.4153
2009    6       7       0.1929747       51.22278
2009    7       0       0.187677        50.06005
2009    7       1       0.191835        51.01804
2009    7       2       0.2075372       54.5875
2009    7       3       0.2767291       68.86921
2009    7       4       0.2847917       70.28434
2009    7       5       0.2905872       71.48682
2009    7       6       0.2804145       69.48316
2009    7       7       0.2737212       67.96236
2009    8       0       0.2770318       68.44785
2009    8       1       0.2972497       72.36329
2009    8       2       0.2743979       68.09658
2009    8       3       0.260372        65.32306
2009    8       4       0.2386742       60.71603
2009    8       5       0.2636725       65.64213
2009    8       6       0.2727354       67.49598
2009    8       7       0.2696624       66.92502
2009    9       0       0.2561212       64.2457
2009    9       1       0.2522715       63.32728
2009    9       2       0.2256837       57.9977
2009    9       3       0.229881        59.02402
2009    9       4       0.2450449       61.70536
2009    9       5       0.2115726       54.67686
2009    9       6       0.1710419       45.87957
2009    9       7       0.1740399       46.37789
2009    10      0       0.1836483       48.40212
2009    10      1       0.2021862       52.42459
2009    10      2       0.2207843       56.6168
2009    10      3       0.2642327       65.82845
2009    10      4       0.3055338       73.91249
2009    10      5       0.2406527       61.33822
2009    10      6       0.1717645       46.6608
2009    10      7       0.1462224       40.80588
2009    11      0       0.1491738       41.51163
2009    11      1       0.1715929       46.50642
2009    11      2       0.1684149       45.94453
2009    11      3       0.1712271       46.68879
2009    11      4       0.1592278       44.10407
2009    11      5       0.1438178       40.58867
2009    11      6       0.1322731       37.79894
2009    11      7       0.1274279       36.54825
2009    12      0       0.121443        35.22609
2009    12      1       0.1240196       35.95546
2009    12      2       0.1293225       37.23118
2009    12      3       0.1228871       35.85166
2009    12      4       0.1103732       32.90538
2009    12      5       0.09655107      29.5109
2009    12      6       0.09463463      28.92824
2009    12      7       0.130417        37.38991
2009    13      0       0.1728135       47.11359
2009    13      1       0.1731953       47.26957
2009    13      2       0.1934804       51.90174
2009    13      3       0.2080045       55.16237
2009    13      4       0.2241589       58.16904
2009    13      5       0.2183555       56.78209
2009    13      6       0.1984281       52.41593
2009    13      7       0.2050947       53.66966
2009    14      0       0.2181033       56.45328
2009    14      1       0.2324678       59.53192
2009    14      2       0.2450505       62.35887
2009    14      3       0.2638463       66.17965
2009    14      4       0.2983699       72.82107
2009    14      5       0.2283733       58.48833
2009    14      6       0.1786253       47.55757
2009    14      7       0.1998024       52.34915
2009    15      0       0.2069935       53.97396
2009    15      1       0.2201377       56.82032
2009    15      2       0.2318334       59.37252
2009    15      3       0.2382892       60.92435
2009    15      4       0.2484702       62.7486
2009    15      5       0.1845582       49.33292
2009    15      6       0.1446226       40.37595
2009    15      7       0.1564729       42.93593
2009    16      0       0.1667667       45.11888
2009    16      1       0.1912168       50.32563
2009    16      2       0.218489        56.11178
2009    16      3       0.274645        67.40545
2009    16      4       0.3576982       83.31387
2009    16      5       0.4382586       97.72308
2009    16      6       0.4931707       106.8202
2009    16      7       0.5098864       109.2238
2009    17      0       0.3766168       87.48277
2009    17      1       0.3494574       82.61396
2009    17      2       0.2812047       69.52524
2009    17      3       0.2254808       58.31567
2009    17      4       0.350159        82.11252
2009    17      5       0.3864986       88.73918
2009    17      6       0.3756932       86.84716
2009    17      7       0.409915        92.64845
2009    18      0       0.3695925       85.84514
2009    18      1       0.3444229       80.95674
2009    18      2       0.2799692       68.96975
2009    18      3       0.2645669       66.01712
2009    18      4       0.3148677       75.49042
2009    18      5       0.3197539       76.42668
2009    18      6       0.3156636       75.39639
2009    18      7       0.3456288       81.1331
2009    19      0       0.3207712       76.50006
2009    19      1       0.2278223       58.13724
2009    19      2       0.1417924       39.55171
2009    19      3       0.1453627       40.47874
2009    19      4       0.1649815       44.72953
2009    19      5       0.1532954       42.17032
2009    19      6       0.1261542       35.93543
2009    19      7       0.1202832       34.40483
2009    20      0       0.1009064       29.84315
2009    20      1       0.1027718       30.31075
2009    20      2       0.09361339      28.25961
2009    20      3       0.1000423       29.80303
2009    20      4       0.1099392       32.17677
2009    20      5       0.1094462       32.10265
2009    20      6       0.1060958       31.2951
2009    20      7       0.1036599       30.63541
2009    21      0       0.0979492       29.21719
2009    21      1       0.1082292       31.60761
2009    21      2       0.1151177       33.18341
2009    21      3       0.1242135       35.39441
2009    21      4       0.1445623       40.06226
2009    21      5       0.1581473       43.05872
2009    21      6       0.1652781       44.50176
2009    21      7       0.1649915       44.4877
2009    22      0       0.1590195       43.21102
2009    22      1       0.1593872       43.26439
2009    22      2       0.1449008       40.0663
2009    22      3       0.1344069       37.84438
2009    22      4       0.1471529       40.57648
2009    22      5       0.1527651       41.89746
2009    22      6       0.1531551       41.93391
2009    22      7       0.1511642       41.41003
2009    23      0       0.1472518       40.58089
2009    23      1       0.1518014       41.61587
2009    23      2       0.1379881       38.60931
2009    23      3       0.1380027       38.63187
2009    23      4       0.137763        38.50796
2009    23      5       0.1357261       38.02441
2009    23      6       0.141811        39.37678
2009    23      7       0.1511019       41.4893
2009    24      0       0.153376        42.04315
2009    24      1       0.1505547       41.35527
2009    24      2       0.135815        38.20695
2009    24      3       0.1396711       39.14094
2009    24      4       0.1395307       39.09988
2009    24      5       0.1592779       43.44747
2009    24      6       0.1803296       47.88787
2009    24      7       0.1847525       48.70042
2009    25      0       0.1823721       48.23246
2009    25      1       0.1894343       49.85133
2009    25      2       0.19305         50.71396
2009    25      3       0.1966161       51.66919
2009    25      4       0.2296059       58.30967
2009    25      5       0.2596591       64.24376
2009    25      6       0.2475          62.02585
2009    25      7       0.2321882       58.87298
2009    26      0       0.2341013       59.34987
2009    26      1       0.2272951       57.74317
2009    26      2       0.2236863       57.56717
2009    26      3       0.2399753       60.80115
2009    26      4       0.2475525       62.11259
2009    26      5       0.2353931       59.74442
2009    26      6       0.2500436       62.75507
2009    26      7       0.2750672       67.60795
2009    27      0       0.2506915       62.76603
2009    27      1       0.2206454       56.71226
2009    27      2       0.1874708       49.85396
2009    27      3       0.1726749       46.78184
2009    27      4       0.1598245       43.94796
2009    27      5       0.1511873       41.8714
2009    27      6       0.1486937       41.25793
2009    27      7       0.1514191       41.60044
2009    28      0       0.1609691       43.70063
2009    28      1       0.1836443       48.85905
2009    28      2       0.216801        55.75068
2009    28      3       0.26964         66.66289
2009    28      4       0.2889707       70.35113
2009    28      5       0.2762141       67.84266
2009    28      6       0.2616015       64.84468
2009    28      7       0.2816541       68.53845
2009    29      0       0.2554186       63.35932
2009    29      1       0.2444406       60.97314
2009    29      2       0.2742321       66.92299
2009    29      3       0.3536307       81.68419
2009    29      4       0.4034839       90.71523
2009    29      5       0.3762838       86.62069
2009    29      6       0.3971077       89.76471
2009    29      7       0.3552577       82.39462
2009    30      0       0.3516142       81.8097
2009    30      1       0.3225865       76.6372
2009    30      2       0.3635054       84.15976
2009    30      3       0.4607648       99.96209
2009    30      4       0.5055198       107.3164
2009    30      5       0.4614762       100.7493
2009    30      6       0.5039055       107.3286
2009    30      7       0.4854521       104.7592
2009    31      0       0.4903191       105.5751
2009    31      1       0.5681127       117.2084
2009    31      2       0.5377603       112.754
2009    31      3       0.6329262       125.7728
2009    31      4       0.5991389       121.4876
2009    31      5       0.4703288       102.5573
2009    31      6       0.4448867       98.35994
2009    31      7       0.412653        92.92558
2010    1       0       0.4489272       99.18057
2010    1       1       0.4429317       98.71661
2010    1       2       0.5697129       118.4193
2010    1       3       0.6470606       129.1059
2010    1       4       0.6389989       128.2616
2010    1       5       0.6150787       124.9678
2010    1       6       0.5824161       120.4958
2010    1       7       0.5040687       108.7955
2010    2       0       0.4636785       102.3765
2010    2       1       0.4640382       102.0851
2010    2       2       0.5147875       109.5319
2010    2       3       0.5291462       111.9718
2010    2       4       0.6048508       123.1491
2010    2       5       0.5860647       121.0877
2010    2       6       0.4499004       100.4871
2010    2       7       0.4925193       107.2504
2010    3       0       0.4484272       99.91555
2010    3       1       0.4586297       101.4761
2010    3       2       0.4948193       107.3966
2010    3       3       0.4841295       106.2535
2010    3       4       0.4738372       104.9835
2010    3       5       0.5324675       114.1574
2010    3       6       0.5328394       114.5735
2010    3       7       0.5500793       117.0953
2010    4       0       0.5767097       120.8745
2010    4       1       0.5888371       122.9951
2010    4       2       0.5093214       110.8552
2010    4       3       0.5278406       113.8908
2010    4       4       0.5395087       115.8499
2010    4       5       0.5112983       111.6607
2010    4       6       0.5078404       111.115
2010    4       7       0.4886104       108.1746
2010    5       0       0.4379037       99.79156
2010    5       1       0.4052344       94.04026
2010    5       2       0.4373946       99.529
2010    5       3       0.5379422       115.682
2010    5       4       0.4932977       109.1729
2010    5       5       0.5399595       116.3041
2010    5       6       0.6753138       135.3555
2010    5       7       0.6014459       125.159
2010    6       0       0.5969635       124.4161
2010    6       1       0.6447718       130.0979
2010    6       2       0.6371917       129.0353
2010    6       3       0.6530987       130.9194
2010    6       4       0.6382101       129.4425
2010    6       5       0.5971269       124.2174
2010    6       6       0.5439302       116.7737
2010    6       7       0.5147865       111.9615
2010    7       0       0.4793496       106.0731
2010    7       1       0.4672474       103.6783
2010    7       2       0.5472782       116.4565
2010    7       3       0.5562877       117.9832
2010    7       4       0.5591669       117.9701
2010    7       5       0.505657        109.9073
2010    7       6       0.4750893       105.2985
2010    7       7       0.5750087       120.5103
2010    8       0       0.590747        122.3515
2010    8       1       0.5889191       121.8203
2010    8       2       0.5748409       120.1309
2010    8       3       0.5606488       118.4817
2010    8       4       0.6503985       131.4573
2010    8       5       0.6430213       129.9879
2010    8       6       0.6218997       126.5205
2010    8       7       0.5243329       112.4807
2010    9       0       0.4880105       106.7875
2010    9       1       0.4769166       104.6731
2010    9       2       0.5613561       117.0532
2010    9       3       0.6185844       125.4266
2010    9       4       0.6727967       133.341
2010    9       5       0.5892734       121.8104
2010    9       6       0.5193772       111.1693
2010    9       7       0.4817693       105.0414
2010    10      0       0.3903349       89.8839
2010    10      1       0.369396        86.20603
2010    10      2       0.410045        93.31517
2010    10      3       0.518681        110.4499
2010    10      4       0.54041         113.6383
2010    10      5       0.4370435       98.4433
2010    10      6       0.4681662       103.1725
2010    10      7       0.4609433       101.9159
2010    11      0       0.4184886       94.82782
2010    11      1       0.4355212       97.67462
2010    11      2       0.503075        108.3913
2010    11      3       0.6208212       125.0946
2010    11      4       0.6788866       132.7993
2010    11      5       0.5564835       116.7506
2010    11      6       0.5269487       112.4205
2010    11      7       0.5034936       108.8598
2010    12      0       0.5846409       120.9246
2010    12      1       0.5223908       111.9732
2010    12      2       0.5357798       113.6306
2010    12      3       0.5447197       115.0883
2010    12      4       0.602079        123.758
2010    12      5       0.5617292       118.1746
2010    12      6       0.5635796       118.6264
2010    12      7       0.6486742       130.9063
2010    13      0       0.5958321       122.992
2010    13      1       0.5528027       116.5907
2010    13      2       0.5410595       115.0909
2010    13      3       0.5951539       123.2484
2010    13      4       0.6459252       130.8448
2010    13      5       0.6429099       130.4701
2010    13      6       0.6209808       127.4355
2010    13      7       0.6748589       134.6486
2010    14      0       0.6317558       128.762
2010    14      1       0.650771        131.6828
2010    14      2       0.6383449       129.8909
2010    14      3       0.6393652       130.4346
2010    14      4       0.6385907       130.6697
2010    14      5       0.672169        134.977
2010    14      6       0.5235934       113.187
2010    14      7       0.5460467       116.4601
2010    15      0       0.5909324       123.3903
2010    15      1       0.5177936       112.1072
2010    15      2       0.5608097       118.3767
2010    15      3       0.5570035       118.1644
2010    15      4       0.6020221       124.8155
2010    15      5       0.6116214       126.2171
2010    15      6       0.6268548       128.6124
2010    15      7       0.6276462       128.343
2010    16      0       0.6123544       125.8397
2010    16      1       0.5384849       114.6172
2010    16      2       0.5296383       113.4493
2010    16      3       0.6017722       123.8377
2010    16      4       0.6247119       127.5403
2010    16      5       0.5600567       117.8942
2010    16      6       0.4612657       102.6913
2010    16      7       0.4838892       105.8696
2010    17      0       0.4542948       101.1633
2010    17      1       0.436104        98.18798
2010    17      2       0.5008476       108.5187
2010    17      3       0.5670649       118.4011
2010    17      4       0.6435834       129.0128
2010    17      5       0.5203764       111.6892
2010    17      6       0.4393556       98.83827
2010    17      7       0.4287673       96.88594
2010    18      0       0.4118533       93.91779
2010    18      1       0.445531        99.59239
2010    18      2       0.4874794       106.4701
2010    18      3       0.553324        116.1853
2010    18      4       0.6153454       124.7152
2010    18      5       0.4508834       100.4119
2010    18      6       0.3810271       88.33026
2010    18      7       0.3332804       79.50803
2010    19      0       0.3253768       77.9885
2010    19      1       0.3024069       73.62754
2010    19      2       0.3082542       74.89065
2010    19      3       0.3293242       79.29461
2010    19      4       0.3343565       80.42041
2010    19      5       0.2839474       70.80745
2010    19      6       0.2969511       72.70187
2010    19      7       0.3109015       75.19493
2010    20      0       0.4732354       102.738
2010    20      1       0.4913244       106.0216
2010    20      2       0.4883525       106.5598
2010    20      3       0.5418849       114.5682
2010    20      4       0.4739302       104.0817
2010    20      5       0.3344486       80.13808
2010    20      6       0.3921634       89.89223
2010    20      7       0.4085406       92.55425
2010    21      0       0.4864706       105.4734
2010    21      1       0.6010792       122.7058
2010    21      2       0.6134591       124.3911
2010    21      3       0.583324        120.606
2010    21      4       0.5683432       118.242
2010    21      5       0.4931944       106.3223
2010    21      6       0.4377817       96.53557
2010    21      7       0.470733        101.4112
2010    22      0       0.4590493       99.36852
2010    22      1       0.4869572       103.7957
2010    22      2       0.3851292       87.79574
2010    22      3       0.3709739       85.61741
2010    22      4       0.372475        85.81777
2010    22      5       0.3030685       72.93414
2010    22      6       0.3193857       75.55777
2010    22      7       0.3867499       87.71475
2010    23      0       0.4189215       93.26203
2010    23      1       0.4632941       100.8229
2010    23      2       0.5011757       106.945
2010    23      3       0.5282101       111.4478
2010    23      4       0.5238144       110.8496
2010    23      5       0.4394439       97.9644
2010    23      6       0.3635587       84.66759
2010    23      7       0.3532195       82.56743
2010    24      0       0.3556667       82.8216
2010    24      1       0.328584        78.03637
2010    24      2       0.4206811       94.01443
2010    24      3       0.4981591       107.0306
2010    24      4       0.4177281       94.33173
2010    24      5       0.2840063       70.28679
2010    24      6       0.2497111       63.1604
2010    24      7       0.190575        50.59738
2010    25      0       0.171258        46.41152
2010    25      1       0.2112042       55.13026
2010    25      2       0.3695375       86.11797
2010    25      3       0.551457        115.0613
2010    25      4       0.5954183       121.1835
2010    25      5       0.3967181       90.58766
2010    25      6       0.3897172       89.25608
2010    25      7       0.4200428       94.5515
2010    26      0       0.4137242       93.40545
2010    26      1       0.4835379       104.9286
2010    26      2       0.524574        111.4256
2010    26      3       0.5729301       118.6565
2010    26      4       0.6439116       128.4423
2010    26      5       0.5256571       112.0738
2010    26      6       0.4814539       105.1809
2010    26      7       0.4580618       101.4545
2010    27      0       0.4316663       97.11193
2010    27      1       0.380048        88.10688
2010    27      2       0.3460209       82.03101
2010    27      3       0.3706475       86.67935
2010    27      4       0.422367        95.58425
2010    27      5       0.3867633       89.58704
2010    27      6       0.3647733       85.56214
2010    27      7       0.3668155       85.67788
2010    28      0       0.3599439       84.31194
2010    28      1       0.3494004       82.3336
2010    28      2       0.3598375       84.41599
2010    28      3       0.378176        87.67841
2010    28      4       0.3128831       75.75417
2010    28      5       0.2670634       66.72929
2010    28      6       0.2292006       58.87926
2010    28      7       0.1994537       52.46988
2010    29      0       0.1819575       48.5899
2010    29      1       0.1677444       45.48553
2010    29      2       0.1647757       44.85263
2010    29      3       0.1658995       45.13934
2010    29      4       0.1570548       43.19575
2010    29      5       0.1449859       40.39739
2010    29      6       0.1346249       37.99931
2010    29      7       0.1340814       37.80862
2010    30      0       0.1347768       37.96162
2010    30      1       0.1544041       42.3977
2010    30      2       0.1654453       44.8892
2010    30      3       0.2034138       53.20104
2010    30      4       0.2189496       56.53144
2010    30      5       0.2113618       54.85111
2010    30      6       0.2092156       54.24734
2010    30      7       0.2020946       52.68549
2010    31      0       0.206787        53.58579
2010    31      1       0.2322497       58.86882
2010    31      2       0.2663958       65.84633
2010    31      3       0.4307126       95.16198
2010    31      4       0.4745065       102.4456
2010    31      5       0.394548        89.59726
2010    31      6       0.3257357       77.63288
2010    31      7       0.3308915       78.40852
2011    1       0       0.2613627       66.04156
2011    1       1       0.253542        64.44268
2011    1       2       0.2708014       67.87097
2011    1       3       0.3180988       77.36219
2011    1       4       0.3349469       80.91388
2011    1       5       0.3175266       77.30525
2011    1       6       0.306411        75.05686
2011    1       7       0.3144165       76.73947
2011    2       0       0.3473834       82.67486
2011    2       1       0.3429499       81.75578
2011    2       2       0.3442034       82.49652
2011    2       3       0.3152037       77.27416
2011    2       4       0.2870566       71.76612
2011    2       5       0.2752012       68.97737
2011    2       6       0.3087099       74.95408
2011    2       7       0.3038122       73.59801
2011    3       0       0.3086731       74.20529
2011    3       1       0.2876249       70.25454
2011    3       2       0.2931894       71.86256
2011    3       3       0.3160108       76.62302
2011    3       4       0.3397576       80.91902
2011    3       5       0.2691432       67.25841
2011    3       6       0.208658        54.54862
2011    3       7       0.2035104       53.04085
2011    4       0       0.2236676       57.30732
2011    4       1       0.2353896       59.68941
2011    4       2       0.2488515       62.62465
2011    4       3       0.2876245       70.32501
2011    4       4       0.3664285       84.43582
2011    4       5       0.3480786       81.14709
2011    4       6       0.2866568       69.81729
2011    4       7       0.2961032       71.48234
2011    5       0       0.3134925       74.68277
2011    5       1       0.304141        72.75061
2011    5       2       0.3096778       73.97826
2011    5       3       0.320213        76.29175
2011    5       4       0.3463566       81.02898
2011    5       5       0.281685        68.99603
2011    5       6       0.2277016       57.87239
2011    5       7       0.2064172       53.27504
2011    6       0       0.1982953       51.50984
2011    6       1       0.2011222       52.12535
2011    6       2       0.2040756       52.89397
2011    6       3       0.2216241       56.88606
2011    6       4       0.2695688       66.34585
2011    6       5       0.2422066       61.04208
2011    6       6       0.2668241       65.64084
2011    6       7       0.2378612       59.94999
2011    7       0       0.2488029       61.96991
2011    7       1       0.2966942       70.86314
2011    7       2       0.3384258       78.82534
2011    7       3       0.4208194       93.49165
2011    7       4       0.4720168       102.0757
2011    7       5       0.334799        79.30653
2011    7       6       0.3219578       76.43079
2011    7       7       0.365179        83.97831
2011    8       0       0.470526        102.0583
2011    8       1       0.5631168       116.6028
2011    8       2       0.5877648       120.4523
2011    8       3       0.5355834       113.5265
2011    8       4       0.6518732       129.9613
2011    8       5       0.5316791       113.3047
2011    8       6       0.4766932       104.8963
2011    8       7       0.5018026       108.6192
2011    9       0       0.4756081       104.3023
2011    9       1       0.4309684       96.84463
2011    9       2       0.4974872       107.9436
2011    9       3       0.5825091       120.9649
2011    9       4       0.5646187       118.7756
2011    9       5       0.4540537       102.2111
2011    9       6       0.4598115       103.1868
2011    9       7       0.5105945       110.8236
2011    10      0       0.4973551       108.4326
2011    10      1       0.4936687       107.8049
2011    10      2       0.5726407       119.5925
2011    10      3       0.6370136       128.6374
2011    10      4       0.7246068       139.3772
2011    10      5       0.6191217       125.8265
2011    10      6       0.5153574       110.606
2011    10      7       0.4921917       106.5301
2011    11      0       0.4764101       104.5851
2011    11      1       0.3656796       84.99259
2011    11      2       0.4377766       96.91683
2011    11      3       0.572952        117.5299
2011    11      4       0.6139915       123.7691
2011    11      5       0.3764478       87.27122
2011    11      6       0.3357254       79.44574
2011    11      7       0.3074172       73.78724
2011    12      0       0.33493         78.43379
2011    12      1       0.3918967       88.43902
2011    12      2       0.3846269       87.75129
2011    12      3       0.3744295       86.29575
2011    12      4       0.3573008       83.18624
2011    12      5       0.3440463       80.8917
2011    12      6       0.3705556       85.51616
2011    12      7       0.4788872       103.4417
2011    13      0       0.4486222       98.64379
2011    13      1       0.411975        92.89764
2011    13      2       0.4600259       101.5456
2011    13      3       0.5738782       118.7796
2011    13      4       0.6768468       132.6693
2011    13      5       0.5835769       120.3306
2011    13      6       0.5626992       117.1943
2011    13      7       0.5356639       112.7906
2011    14      0       0.5576267       116.1122
2011    14      1       0.5500223       114.9343
2011    14      2       0.5917905       120.373
2011    14      3       0.5235267       111.2814
2011    14      4       0.5331071       112.604
2011    14      5       0.4481554       99.80665
2011    14      6       0.4904177       106.1249
2011    14      7       0.5200745       110.7151
2011    15      0       0.5696612       118.022
2011    15      1       0.619727        124.9168
2011    15      2       0.6179034       124.3492
2011    15      3       0.6218176       125.6079
2011    15      4       0.6698418       131.9534
2011    15      5       0.5924544       120.9715
2011    15      6       0.5598544       116.1654
2011    15      7       0.5762824       118.6115
2011    16      0       0.6112019       123.7908
2011    16      1       0.579967        118.9207
2011    16      2       0.5599667       116.0792
2011    16      3       0.5159018       109.8785
2011    16      4       0.4392825       97.35164
2011    16      5       0.3737296       85.70838
2011    16      6       0.394396        89.09992
2011    16      7       0.3982781       89.87561
2011    17      0       0.3206921       76.23836
2011    17      1       0.3612518       83.68331
2011    17      2       0.303607        73.29813
2011    17      3       0.2837286       69.73467
2011    17      4       0.3032715       73.13264
2011    17      5       0.3120899       75.04572
2011    17      6       0.3036701       73.41614
2011    17      7       0.3156936       75.54438
2011    18      0       0.2896631       70.59355
2011    18      1       0.3182505       76.00447
2011    18      2       0.3207387       76.69418
2011    18      3       0.3778982       87.15814
2011    18      4       0.4263274       95.25558
2011    18      5       0.3548713       83.07538
2011    18      6       0.344368        81.16347
2011    18      7       0.4029904       91.55449
2011    19      0       0.4287153       95.95401
2011    19      1       0.4051144       91.90749
2011    19      2       0.38374         88.30761
2011    19      3       0.4043321       91.96724
2011    19      4       0.3891283       89.37041
2011    19      5       0.3059046       74.33937
2011    19      6       0.2800761       69.15318
2011    19      7       0.294116        71.5431
2011    20      0       0.3360298       79.42955
2011    20      1       0.373058        86.19841
2011    20      2       0.4156396       93.65699
2011    20      3       0.4258363       95.25257
2011    20      4       0.3670407       85.18203
2011    20      5       0.2524716       63.55321
2011    20      6       0.2195423       56.73867
2011    20      7       0.2279034       58.51374
2011    21      0       0.2592295       65.2296
2011    21      1       0.2448291       62.29713
2011    21      2       0.2460713       62.73129
2011    21      3       0.2626227       66.11247
2011    21      4       0.2672596       66.99383
2011    21      5       0.275399        68.50189
2011    21      6       0.2778344       68.85512
2011    21      7       0.2972242       72.3671
2011    22      0       0.2925758       71.35697
2011    22      1       0.2944293       71.84707
2011    22      2       0.3031974       73.97404
2011    22      3       0.2909072       71.82088
2011    22      4       0.2709053       67.65805
2011    22      5       0.2532703       64.03462
2011    22      6       0.3031323       73.61162
2011    22      7       0.3590615       84.28474
2011    23      0       0.3633635       85.39771
2011    23      1       0.3704625       86.72023
2011    23      2       0.4114626       93.85974
2011    23      3       0.3913662       90.26236
2011    23      4       0.3126392       75.99731
2011    23      5       0.249906        63.70284
2011    23      6       0.2196642       57.31279
2011    23      7       0.2044708       53.92575
2011    24      0       0.1937978       51.58185
2011    24      1       0.1742919       47.43076
2011    24      2       0.1778714       48.17919
2011    24      3       0.1845008       49.68679
2011    24      4       0.1896227       50.5137
2011    24      5       0.156642        43.30997
2011    24      6       0.1352803       38.35538
2011    24      7       0.1250865       35.98238
2011    25      0       0.1212543       35.11401
2011    25      1       0.1229554       35.48914
2011    25      2       0.1404395       39.54075
2011    25      3       0.1660746       45.20742
2011    25      4       0.185814        49.32263
2011    25      5       0.2075983       54.33442
2011    25      6       0.2803455       69.44966
2011    25      7       0.3291503       78.92055
2011    26      0       0.3413363       81.40602
2011    26      1       0.3480561       82.27531
2011    26      2       0.3866248       88.77019
2011    26      3       0.4197676       94.66017
2011    26      4       0.5404201       113.6663
2011    26      5       0.4106626       93.56227
2011    26      6       0.4042039       92.34794
2011    26      7       0.423287        95.42057
2011    27      0       0.4112368       93.33294
2011    27      1       0.4479913       99.32053
2011    27      2       0.4482696       99.81345
2011    27      3       0.5485082       115.2327
2011    27      4       0.4036872       92.63686
2011    27      5       0.3345672       80.09828
2011    27      6       0.364487        85.38029
2011    27      7       0.4008836       91.9646
2011    28      0       0.4245109       95.8533
2011    28      1       0.4222817       95.38335
2011    28      2       0.5552435       115.881
2011    28      3       0.5776707       119.5287
2011    28      4       0.6692039       131.8111
2011    28      5       0.5443626       115.0551
2011    28      6       0.524642        112.1859
2011    28      7       0.5054952       109.284
2011    29      0       0.4762095       104.517
2011    29      1       0.4972844       107.6928
2011    29      2       0.4873492       106.2772
2011    29      3       0.5709648       118.7398
2011    29      4       0.6132578       124.4786
2011    29      5       0.4620828       102.5901
2011    29      6       0.4027255       92.43506
2011    29      7       0.3873971       89.40349
2011    30      0       0.4067771       92.72848
2011    30      1       0.3506589       82.38193
2011    30      2       0.3249597       77.99581
2011    30      3       0.4067768       92.5138
2011    30      4       0.4142781       93.77318
2011    30      5       0.3565851       83.94517
2011    30      6       0.3709733       85.91843
2011    30      7       0.341952        80.49085
2011    31      0       0.3345161       79.01948
2011    31      1       0.323606        77.15956
2011    31      2       0.3302741       78.71965
2011    31      3       0.3863044       88.8722
2011    31      4       0.4163897       93.98418
2011    31      5       0.3766341       87.31448
2011    31      6       0.4129297       93.10973
2011    31      7       0.3847993       88.05488
2012    1       0       0.4933772       108.3679
2012    1       1       0.528287        114.0741
2012    1       2       0.4997873       109.7903
2012    1       3       0.4867396       107.9583
2012    1       4       0.5085693       111.0234
2012    1       5       0.5184261       112.4035
2012    1       6       0.481634        106.6444
2012    1       7       0.4676239       104.2859
2012    2       0       0.4480789       101.0646
2012    2       1       0.481269        106.6695
2012    2       2       0.504752        110.5639
2012    2       3       0.4583303       103.1873
2012    2       4       0.4481682       101.1365
2012    2       5       0.3961782       92.23783
2012    2       6       0.3963168       92.63709
2012    2       7       0.4764478       104.8955
2012    3       0       0.542152        115.1338
2012    3       1       0.5510931       116.7544
2012    3       2       0.4784142       105.7209
2012    3       3       0.4803922       106.0472
2012    3       4       0.5175005       112.0836
2012    3       5       0.5653636       119.4245
2012    3       6       0.5840375       120.9782
2012    3       7       0.6492073       130.4173
2012    4       0       0.5298144       112.7454
2012    4       1       0.4944887       106.7558
2012    4       2       0.3704419       86.13893
2012    4       3       0.3539852       83.16776
2012    4       4       0.325203        77.7313
2012    4       5       0.258651        65.08968
2012    4       6       0.23869         60.96217
2012    4       7       0.3006721       72.88584
2012    5       0       0.3015138       72.7608
2012    5       1       0.3068855       73.69524
2012    5       2       0.3299394       78.20127
2012    5       3       0.3759247       86.65683
2012    5       4       0.3956443       89.91396
2012    5       5       0.349724        82.23398
2012    5       6       0.3494726       82.05074
2012    5       7       0.3469671       81.6589
2012    6       0       0.3391005       80.28241
2012    6       1       0.3608021       84.29252
2012    6       2       0.3958858       90.38246
2012    6       3       0.3659244       85.12986
2012    6       4       0.3938046       89.87561
2012    6       5       0.3803972       87.7861
2012    6       6       0.4190889       94.37354
2012    6       7       0.4849238       105.3019
2012    7       0       0.5459978       114.7883
2012    7       1       0.595287        121.8876
2012    7       2       0.5284289       112.3025
2012    7       3       0.5541948       116.5331
2012    7       4       0.6323819       127.0997
2012    7       5       0.5326697       113.1612
2012    7       6       0.4617986       102.1863
2012    7       7       0.4572672       101.1619
2012    8       0       0.4094812       92.81899
2012    8       1       0.4416764       98.19447
2012    8       2       0.4943028       106.3398
2012    8       3       0.5511408       114.9104
2012    8       4       0.6464541       128.3503
2012    8       5       0.6074012       123.0594
2012    8       6       0.5252686       111.2822
2012    8       7       0.4883057       106.001
2012    9       0       0.5556177       116.5635
2012    9       1       0.5762269       119.6204
2012    9       2       0.5476327       114.9481
2012    9       3       0.5847314       120.1746
2012    9       4       0.6299413       126.9506
2012    9       5       0.5723641       119.5859
2012    9       6       0.5575696       117.3653
2012    9       7       0.6106218       125.1102
2012    10      0       0.4592095       101.7494
2012    10      1       0.4420107       98.62109
2012    10      2       0.5295224       112.5316
2012    10      3       0.6130706       125.2951
2012    10      4       0.620287        126.1278
2012    10      5       0.6155647       125.2611
2012    10      6       0.6001022       122.4508
2012    10      7       0.5539781       115.6264
2012    11      0       0.4531329       99.97638
2012    11      1       0.5246452       111.1912
2012    11      2       0.5242274       110.6863
2012    11      3       0.5188032       109.9606
2012    11      4       0.5462448       114.1118
2012    11      5       0.4867309       105.6129
2012    11      6       0.4701692       102.8719
2012    11      7       0.4285841       95.92035
2012    12      0       0.4389493       97.90677
2012    12      1       0.4528265       100.236
2012    12      2       0.4425956       98.29383
2012    12      3       0.4456392       98.91645
2012    12      4       0.4395174       97.98482
2012    12      5       0.4327039       97.08484
2012    12      6       0.463562        102.0842
2012    12      7       0.4884817       106.1632
2012    13      0       0.5263736       111.9867
2012    13      1       0.5324898       112.7381
2012    13      2       0.5115862       109.1787
2012    13      3       0.4736884       103.9566
2012    13      4       0.483146        105.7269
2012    13      5       0.429325        96.95168
2012    13      6       0.4338401       97.38133
2012    13      7       0.4552897       100.8145
2012    14      0       0.4524148       99.93169
2012    14      1       0.490064        105.6867
2012    14      2       0.5299448       111.7382
2012    14      3       0.5657463       117.2788
2012    14      4       0.572969        118.4796
2012    14      5       0.562944        117.2372
2012    14      6       0.5792999       120.414
2012    14      7       0.5588945       116.9856
2012    15      0       0.5420699       114.1748
2012    15      1       0.5613091       116.4687
2012    15      2       0.5919891       121.0309
2012    15      3       0.5827646       120.6344
2012    15      4       0.5805538       120.0362
2012    15      5       0.5243976       111.2994
2012    15      6       0.5074798       108.7729
2012    15      7       0.4492612       99.75439
2012    16      0       0.4156925       94.16198
2012    16      1       0.5427619       114.0599
2012    16      2       0.4897582       105.9795
2012    16      3       0.5133487       109.6021
2012    16      4       0.554524        115.7618
2012    16      5       0.5555722       116.7116
2012    16      6       0.5697377       118.7937
2012    16      7       0.5488686       115.8018
2012    17      0       0.4986178       108.2527
2012    17      1       0.5886727       121.4558
2012    17      2       0.565118        117.7311
2012    17      3       0.5959154       121.6928
2012    17      4       0.6332065       127.0164
2012    17      5       0.6057224       124.219
2012    17      6       0.6153312       125.5788
2012    17      7       0.564179        118.1318
2012    18      0       0.5374544       113.7142
2012    18      1       0.5475903       115.706
2012    18      2       0.5803953       120.5571
2012    18      3       0.5484146       116.0411
2012    18      4       0.4691705       103.8904
2012    18      5       0.4276176       97.18696
2012    18      6       0.5379722       114.6916
2012    18      7       0.5347581       114.3025
2012    19      0       0.5077821       110.4531
2012    19      1       0.4289152       97.36054
2012    19      2       0.4648511       103.5887
2012    19      3       0.4650409       103.7022
2012    19      4       0.4361714       98.95628
2012    19      5       0.4478615       100.8559
2012    19      6       0.4349649       98.62138
2012    19      7       0.4899287       108.0008
2012    20      0       0.4682983       104.5144
2012    20      1       0.388322        90.43992
2012    20      2       0.3654584       86.20748
2012    20      3       0.41428         94.59378
2012    20      4       0.3667637       86.36287
2012    20      5       0.3459572       82.44018
2012    20      6       0.3200531       77.58102
2012    20      7       0.3580813       84.55631
2012    21      0       0.3374219       80.68579
2012    21      1       0.3991177       91.13641
2012    21      2       0.3723413       86.43292
2012    21      3       0.3941956       90.20323
2012    21      4       0.3591343       84.49576
2012    21      5       0.3711622       86.57211
2012    21      6       0.4075251       92.79836
2012    21      7       0.3966083       90.98882
2012    22      0       0.3696947       86.31147
2012    22      1       0.3992933       91.16015
2012    22      2       0.4649299       101.6598
2012    22      3       0.5477769       114.4675
2012    22      4       0.5279097       112.4793
2012    22      5       0.4509049       100.4122
2012    22      6       0.4437948       98.94021
2012    22      7       0.4895177       106.3486
2012    23      0       0.4798303       104.6328
2012    23      1       0.4231228       95.39006
2012    23      2       0.4460187       98.73484
2012    23      3       0.4241144       95.13326
2012    23      4       0.3771034       87.20342
2012    23      5       0.4053245       92.21776
2012    23      6       0.4295815       96.66375
2012    23      7       0.5327231       113.2077
2012    24      0       0.5208031       111.1186
2012    24      1       0.4718361       103.3506
2012    24      2       0.53837         113.287
2012    24      3       0.6056404       123.1341
2012    24      4       0.6260306       126.3017
2012    24      5       0.5359533       113.8806
2012    24      6       0.5370558       114.1959
2012    24      7       0.5883522       121.6839
2012    25      0       0.6192399       125.9854
2012    25      1       0.5979588       122.8612
2012    25      2       0.6239076       125.4701
2012    25      3       0.61433         123.8446
2012    25      4       0.5880808       120.5781
2012    25      5       0.5109755       109.5843
2012    25      6       0.5326301       112.7364
2012    25      7       0.6034991       123.5863
2012    26      0       0.5525947       116.2878
2012    26      1       0.5611398       117.3319
2012    26      2       0.5473516       114.7855
2012    26      3       0.5770942       118.887
2012    26      4       0.626713        126.1489
2012    26      5       0.5590329       116.4752
2012    26      6       0.4674691       102.6034
2012    26      7       0.4815711       104.6635
2012    27      0       0.5635259       117.1105
2012    27      1       0.6649984       130.5787
2012    27      2       0.6113008       123.2538
2012    27      3       0.6492957       128.1461
2012    27      4       0.6115035       123.53
2012    27      5       0.5406642       114.1604
2012    27      6       0.6246119       126.1899
2012    27      7       0.6376995       128.0277
2012    28      0       0.5814681       120.4246
2012    28      1       0.5680356       117.6394
2012    28      2       0.6130844       123.4866
2012    28      3       0.6493055       128.2283
2012    28      4       0.6940304       134.2729
2012    28      5       0.6007033       122.702
2012    28      6       0.6044654       123.6395
2012    28      7       0.5665101       118.3347
2012    29      0       0.5567452       117.0996
2012    29      1       0.5899548       120.8403
2012    29      2       0.5335704       112.3629
2012    29      3       0.5343445       112.2648
2012    29      4       0.5196603       110.201
2012    29      5       0.4426688       98.24712
2012    29      6       0.4015505       91.22028
2012    29      7       0.3881049       88.93881
2012    30      0       0.3937513       89.83225
2012    30      1       0.5404583       113.0944
2012    30      2       0.548985        114.7826
2012    30      3       0.5037656       108.3275
2012    30      4       0.4369826       97.72921
2012    30      5       0.2741415       68.25957
2012    30      6       0.243898        61.85182
2012    30      7       0.2649208       65.9514
2012    31      0       0.2597102       64.81604
2012    31      1       0.2586461       64.5303
2012    31      2       0.2739438       67.67654
2012    31      3       0.2741311       67.91227
2012    31      4       0.2568767       64.59219
2012    31      5       0.2532018       63.56992
2012    31      6       0.258317        64.33469
2012    31      7       0.2422672       60.90056
2013    1       0       0.2549279       64.06941
2013    1       1       0.267107        65.97311
2013    1       2       0.2919397       70.24882
2013    1       3       0.2519359       62.39454
2013    1       4       0.1781921       47.35153
2013    1       5       0.147063        40.50265
2013    1       6       0.1425707       39.4576
2013    1       7       0.1457717       40.27645
2013    2       0       0.1713704       46.48137
2013    2       1       0.2474314       62.77313
2013    2       2       0.3076218       74.39919
2013    2       3       0.3580894       83.88656
2013    2       4       0.3726343       86.73982
2013    2       5       0.4023628       92.26682
2013    2       6       0.3980197       91.81968
2013    2       7       0.3741669       87.86394
2013    3       0       0.3650934       86.06139
2013    3       1       0.3707603       86.42682
2013    3       2       0.3852304       88.8443
2013    3       3       0.4286388       96.47946
2013    3       4       0.4753349       104.6493
2013    3       5       0.5356176       114.3642
2013    3       6       0.536338        114.2246
2013    3       7       0.5739853       119.2709
2013    4       0       0.4443498       99.4041
2013    4       1       0.4074445       92.94139
2013    4       2       0.4207388       94.62862
2013    4       3       0.4431922       98.33825
2013    4       4       0.4367111       97.7978
2013    4       5       0.516743        111.322
2013    4       6       0.6063102       124.6365
2013    4       7       0.6233671       126.7606
2013    5       0       0.565835        118.8777
2013    5       1       0.5182211       111.2347
2013    5       2       0.5853072       120.5739
2013    5       3       0.6027101       122.9411
2013    5       4       0.6048183       123.2008
2013    5       5       0.4280981       96.98256
2013    5       6       0.4051468       92.94507
2013    5       7       0.4099785       93.50483
2013    6       0       0.3673947       85.91548
2013    6       1       0.383973        88.93789
2013    6       2       0.3576905       84.58943
2013    6       3       0.4136846       94.24041
2013    6       4       0.4358261       98.07282
2013    6       5       0.3356019       80.42861
2013    6       6       0.3263588       78.4111
2013    6       7       0.3170637       76.75701
2013    7       0       0.3177243       76.70227
2013    7       1       0.3294067       78.91922
2013    7       2       0.4148381       94.38732
2013    7       3       0.4638755       102.229
2013    7       4       0.5193394       110.7728
2013    7       5       0.4271845       96.79311
2013    7       6       0.4511264       100.8586
2013    7       7       0.4957878       107.6843
2013    8       0       0.5016941       108.5705
2013    8       1       0.5286639       112.5904
2013    8       2       0.5166189       110.9569
2013    8       3       0.5843995       120.8616
2013    8       4       0.6669166       132.2837
2013    8       5       0.4726606       104.5191
2013    8       6       0.4162755       94.95147
2013    8       7       0.3858382       89.32214
2013    9       0       0.3742387       87.43383
2013    9       1       0.3751185       87.25261
2013    9       2       0.3626468       85.38607
2013    9       3       0.364492        85.93995
2013    9       4       0.3348414       80.32397
2013    9       5       0.3391456       80.87193
2013    9       6       0.4100211       93.91247
2013    9       7       0.438434        98.68502
2013    10      0       0.4549602       101.6178
2013    10      1       0.4939719       107.1125
2013    10      2       0.5113358       108.9134
2013    10      3       0.5682923       117.7322
2013    10      4       0.6054656       124.045
2013    10      5       0.5489023       116.0011
2013    10      6       0.485607        106.3058
2013    10      7       0.4913652       107.1563
2013    11      0       0.4540442       101.5784
2013    11      1       0.5373011       114.382
2013    11      2       0.5843577       121.6357
2013    11      3       0.6476249       130.5385
2013    11      4       0.7427555       143.4255
2013    11      5       0.739352        143.3008
2013    11      6       0.7050183       139.0271
2013    11      7       0.7034236       139.2105
2013    12      0       0.7955247       150.461
2013    12      1       0.6676145       133.9621
2013    12      2       0.7277718       141.038
2013    12      3       0.6850858       136.0293
2013    12      4       0.6694081       133.8185
2013    12      5       0.556433        118.0425
2013    12      6       0.6020972       124.3305
2013    12      7       0.5686134       119.3647
2013    13      0       0.553011        117.2531
2013    13      1       0.7095176       137.8362
2013    13      2       0.7082363       138.0415
2013    13      3       0.7732525       146.2498
2013    13      4       0.7771627       147.1496
2013    13      5       0.6984697       137.5945
2013    13      6       0.7412787       142.4668
2013    13      7       0.6088933       125.1715
2013    14      0       0.5601504       118.1511
2013    14      1       0.5438466       115.6742
2013    14      2       0.6958659       136.9832
2013    14      3       0.7376328       142.5977
2013    14      4       0.8660175       157.3189
2013    14      5       0.711933        139.3062
2013    14      6       0.6603476       132.4622
2013    14      7       0.6919445       136.6187
2013    15      0       0.6473131       130.7822
2013    15      1       0.6705865       133.8712
2013    15      2       0.6973583       136.7961
2013    15      3       0.6811226       134.6943
2013    15      4       0.7365499       141.6448
2013    15      5       0.657259        132.0312
2013    15      6       0.5945277       123.4282
2013    15      7       0.5745917       120.3194
2013    16      0       0.5547271       117.294
2013    16      1       0.5713338       119.5178
2013    16      2       0.5983368       123.2651
2013    16      3       0.6600241       131.3017
2013    16      4       0.7597918       144.2026
2013    16      5       0.638179        129.5349
2013    16      6       0.6477265       131.2372
2013    16      7       0.6305715       128.7348
2013    17      0       0.5901937       123.2227
2013    17      1       0.5195471       112.5088
2013    17      2       0.567785        119.5742
2013    17      3       0.5324576       114.6059
2013    17      4       0.6529166       132.0667
2013    17      5       0.6890118       136.3817
2013    17      6       0.6675569       132.7371
2013    17      7       0.6475259       130.5402
2013    18      0       0.6001569       124.256
2013    18      1       0.5091808       109.6593
2013    18      2       0.5309453       112.7728
2013    18      3       0.5795499       119.7236
2013    18      4       0.6317837       127.1023
2013    18      5       0.5451567       115.6543
2013    18      6       0.5016784       109.0734
2013    18      7       0.5360701       114.7463
2013    19      0       0.5681084       119.9095
2013    19      1       0.5741985       119.1508
2013    19      2       0.5372854       113.7018
2013    19      3       0.5098883       110.1412
2013    19      4       0.5362855       114.7255
2013    19      5       0.4711018       104.7453
2013    19      6       0.5093605       110.636
2013    19      7       0.4774499       105.2679
2013    20      0       0.4362902       98.3635
2013    20      1       0.4310766       97.5357
2013    20      2       0.4853447       106.2675
2013    20      3       0.5061031       109.8178
2013    20      4       0.6424229       129.8997
2013    20      5       0.6741162       133.6499
2013    20      6       0.6501067       130.1147
2013    20      7       0.6707261       132.9347
2013    21      0       0.6295504       127.7355
2013    21      1       0.6656781       131.8811
2013    21      2       0.6556628       130.6142
2013    21      3       0.5780361       120.8893
2013    21      4       0.6525129       131.5806
2013    21      5       0.6603825       132.5149
2013    21      6       0.6794214       134.2855
2013    21      7       0.6445425       129.2243
2013    22      0       0.5974395       123.2374
2013    22      1       0.554405        116.1704
2013    22      2       0.5513897       115.5367
2013    22      3       0.6271974       126.2562
2013    22      4       0.6014436       123.9263
2013    22      5       0.554345        117.2296
2013    22      6       0.5141201       111.1886
2013    22      7       0.6069932       124.6943
2013    23      0       0.6065072       124.4546
2013    23      1       0.5873916       121.0643
2013    23      2       0.6203359       125.2539
2013    23      3       0.6369382       127.8873
2013    23      4       0.6314456       127.3205
2013    23      5       0.5822589       120.6777
2013    23      6       0.6260056       126.6826
2013    23      7       0.5833961       120.9213
2013    24      0       0.4957255       107.8758
2013    24      1       0.5026025       109.0683
2013    24      2       0.5051168       109.0989
2013    24      3       0.4863593       106.5087
2013    24      4       0.5138299       110.9017
2013    24      5       0.552544        116.697
2013    24      6       0.6168973       125.523
2013    24      7       0.5806753       120.1001
2013    25      0       0.4501294       99.90813
2013    25      1       0.4391778       97.59473
2013    25      2       0.4554641       99.67046
2013    25      3       0.447317        98.62877
2013    25      4       0.5406373       112.8348
2013    25      5       0.393572        90.29164
2013    25      6       0.3789932       87.59531
2013    25      7       0.3467546       82.02569
2013    26      0       0.3780246       87.39401
2013    26      1       0.3904544       89.48707
2013    26      2       0.4628187       101.307
2013    26      3       0.4460592       98.65346
2013    26      4       0.4077641       92.32019
2013    26      5       0.3484891       82.3891
2013    26      6       0.3559098       83.72911
2013    26      7       0.3632555       85.1398
2013    27      0       0.363167        84.93716
2013    27      1       0.4419233       97.99531
2013    27      2       0.3671485       85.20581
2013    27      3       0.3925933       89.59328
2013    27      4       0.4820383       103.8826
2013    27      5       0.4131473       93.51448
2013    27      6       0.4201351       94.76501
2013    27      7       0.500146        107.4824
2013    28      0       0.4640227       102.2094
2013    28      1       0.4151686       93.69655
2013    28      2       0.4029435       91.50665
2013    28      3       0.3169673       76.45543
2013    28      4       0.3197836       76.92905
2013    28      5       0.3567445       84.08153
2013    28      6       0.3824781       88.72909
2013    28      7       0.399556        91.47929
2013    29      0       0.5051015       108.324
2013    29      1       0.5977466       121.6853
2013    29      2       0.561532        116.5615
2013    29      3       0.4939346       107.0738
2013    29      4       0.5229683       111.337
2013    29      5       0.4012348       92.09114
2013    29      6       0.3839119       89.18905
2013    29      7       0.3794584       88.16732
2013    30      0       0.3806256       88.37988
2013    30      1       0.3978657       91.0002
2013    30      2       0.4932068       106.5705
2013    30      3       0.5620737       116.8554
2013    30      4       0.5977265       121.7839
2013    30      5       0.4700548       102.7984
2013    30      6       0.4149423       93.78236
2013    30      7       0.428235        96.02079
2013    31      0       0.4432894       98.51562
2013    31      1       0.4872166       105.9198
2013    31      2       0.4887339       106.3435
2013    31      3       0.519377        110.972
2013    31      4       0.5575613       116.4746
2013    31      5       0.455028        101.0569
2013    31      6       0.4449326       99.11657
2013    31      7       0.4459059       99.22962
2014    1       0       0.3642829       85.11194
2014    1       1       0.4467315       99.27543
2014    1       2       0.5117903       109.9263
2014    1       3       0.6141411       125.3813
2014    1       4       0.5794827       120.8155
2014    1       5       0.5205832       111.6048
2014    1       6       0.4059727       92.50261
2014    1       7       0.3905492       89.62708
2014    2       0       0.3804342       87.76133
2014    2       1       0.5124546       108.6651
2014    2       2       0.4867616       105.5236
2014    2       3       0.5211175       111.3211
2014    2       4       0.6143849       125.0844
2014    2       5       0.530067        112.7235
2014    2       6       0.4352678       97.64421
2014    2       7       0.4611808       101.7609
2014    3       0       0.5105314       109.5043
2014    3       1       0.586619        120.7537
2014    3       2       0.614089        124.5277
2014    3       3       0.6363578       127.7177
2014    3       4       0.6671388       131.9021
2014    3       5       0.6180857       126.1037
2014    3       6       0.5340658       113.9383
2014    3       7       0.3866579       89.4156
2014    4       0       0.3818278       88.53898
2014    4       1       0.4260952       96.36665
2014    4       2       0.4298745       97.2328
2014    4       3       0.5022848       109.1094
2014    4       4       0.4901474       107.1385
2014    4       5       0.3762136       88.23566
2014    4       6       0.3391189       81.15277
2014    4       7       0.3664123       85.91584
2014    5       0       0.3286262       79.13652
2014    5       1       0.3631979       85.36199
2014    5       2       0.3477211       82.82136
2014    5       3       0.3171359       77.11944
2014    5       4       0.2692547       67.58186
2014    5       5       0.2176964       56.64641
2014    5       6       0.212916        55.46633
2014    5       7       0.2608424       65.40246
2014    6       0       0.2809087       69.51619
2014    6       1       0.3174815       76.37035
2014    6       2       0.3730959       87.08628
2014    6       3       0.4972082       108.337
2014    6       4       0.5285088       113.7022
2014    6       5       0.3964486       92.03113
2014    6       6       0.3345276       80.46441
2014    6       7       0.3698498       86.48728
2014    7       0       0.3473542       82.08863
2014    7       1       0.378219        87.42911
2014    7       2       0.4471486       99.41301
2014    7       3       0.5495442       115.3429
2014    7       4       0.6473738       129.8813
2014    7       5       0.5421125       115.4084
2014    7       6       0.5967743       122.8668
2014    7       7       0.4852207       106.0527
2014    8       0       0.4352768       97.9641
2014    8       1       0.4428485       99.16137
2014    8       2       0.5037276       108.6253
2014    8       3       0.5841626       120.6286
2014    8       4       0.6853934       135.5653
2014    8       5       0.6101781       124.9341
2014    8       6       0.4770002       104.4957
2014    8       7       0.388893        89.90442
2014    9       0       0.3227887       77.73235
2014    9       1       0.3336487       79.63887
2014    9       2       0.2884967       71.32697
2014    9       3       0.3281657       79.05227
2014    9       4       0.4123466       93.95125
2014    9       5       0.3897673       90.24328
2014    9       6       0.3583834       84.53156
2014    9       7       0.3503156       82.89027
2014    10      0       0.3501107       82.62791
2014    10      1       0.3942443       90.42092
2014    10      2       0.3380377       80.54841
2014    10      3       0.3320105       79.64253
2014    10      4       0.4108508       93.8026
2014    10      5       0.3761157       87.97404
2014    10      6       0.4040617       92.64863
2014    10      7       0.4321813       97.37613
2014    11      0       0.4174488       94.74496
2014    11      1       0.398534        91.33411
2014    11      2       0.3268772       78.67367
2014    11      3       0.3260852       78.83591
2014    11      4       0.3078745       75.28653
2014    11      5       0.2708256       67.86407
2014    11      6       0.2701519       67.77041
2014    11      7       0.2827293       70.18648
2014    12      0       0.3697058       85.69277
2014    12      1       0.4995373       106.9402
2014    12      2       0.4306568       96.60449
2014    12      3       0.4570051       101.2918
2014    12      4       0.4926848       107.4422
2014    12      5       0.5532906       116.4769
2014    12      6       0.4264245       96.46696
2014    12      7       0.3645524       85.58605
2014    13      0       0.3616217       84.84621
2014    13      1       0.3904931       90.00762
2014    13      2       0.3708208       86.51331
2014    13      3       0.3673044       85.77944
2014    13      4       0.4634117       101.5533
2014    13      5       0.455117        100.6586
2014    13      6       0.4941722       106.7535
2014    13      7       0.5104372       108.398
2014    14      0       0.4594123       100.2338
2014    14      1       0.3827518       87.84645
2014    14      2       0.3617791       84.48804
2014    14      3       0.3192539       76.74814
2014    14      4       0.293103        71.70683
2014    14      5       0.2288082       58.91393
2014    14      6       0.2018789       52.95197
2014    14      7       0.2806847       68.49232
2014    15      0       0.3847235       87.63424
2014    15      1       0.5125541       108.7839
2014    15      2       0.5162088       109.3146
2014    15      3       0.437371        96.82988
2014    15      4       0.5388357       112.6323
2014    15      5       0.4410623       97.79548
2014    15      6       0.2639692       66.00341
2014    15      7       0.3756271       86.77908
2014    16      0       0.4864051       105.1108
2014    16      1       0.4231452       94.37436
2014    16      2       0.2894099       70.42257
2014    16      3       0.1899045       50.49118
2014    16      4       0.1805659       48.35698
2014    16      5       0.1968892       51.98392
2014    16      6       0.1776166       47.74159
2014    16      7       0.1676614       45.44348
2014    17      0       0.1516596       41.72219
2014    17      1       0.1253029       35.74864
2014    17      2       0.1136958       33.08628
2014    17      3       0.1200415       34.67211
2014    17      4       0.1426768       39.86711
2014    17      5       0.1598878       43.70475
2014    17      6       0.1494271       41.27639
2014    17      7       0.1381023       38.67098
2014    18      0       0.1114342       32.51811
2014    18      1       0.09394262      28.39806
2014    18      2       0.08312166      25.79775
2014    18      3       0.07980265      24.95768
2014    18      4       0.08127648      25.29394
2014    18      5       0.07429704      23.61127
2014    18      6       0.06722805      21.89363
2014    18      7       0.06361002      21.00043
2014    19      0       0.06227228      20.65568
2014    19      1       0.06704343      21.84438
2014    19      2       0.07507943      23.86876
2014    19      3       0.08969282      27.42291
2014    19      4       0.09309147      28.2452
2014    19      5       0.09102526      27.71782
2014    19      6       0.08013726      25.10242
2014    19      7       0.07398492      23.57693
2014    20      0       0.07580775      24.00196
2014    20      1       0.08984183      27.40499
2014    20      2       0.090581        27.61259
2014    20      3       0.08318503      25.88359
2014    20      4       0.0741665       23.57535
2014    20      5       0.06605783      21.46527
2014    20      6       0.07129416      22.75733
2014    20      7       0.1145796       33.16164
2014    21      0       0.1380118       38.47812
2014    21      1       0.1444872       39.82922
2014    21      2       0.1563581       42.36128
2014    21      3       0.1588104       42.94636
2014    21      4       0.1805818       47.34248
2014    21      5       0.1564844       42.13895
2014    21      6       0.1543542       41.63137
2014    21      7       0.1712266       45.42051
2014    22      0       0.1971003       51.01389
2014    22      1       0.1879471       49.19827
2014    22      2       0.2082091       53.45415
2014    22      3       0.2301629       57.88229
2014    22      4       0.2766036       66.98639
2014    22      5       0.2903322       69.88951
2014    22      6       0.2901809       70.02702
2014    22      7       0.263197        65.02953
2014    23      0       0.2497013       62.28397
2014    23      1       0.2986303       71.46614
2014    23      2       0.2658314       65.28634
2014    23      3       0.2514406       62.67428
2014    23      4       0.2826229       68.77633
2014    23      5       0.2997197       72.42956
2014    23      6       0.2959299       71.84351
2014    23      7       0.283324        69.42444
2014    24      0       0.2548524       63.68619
2014    24      1       0.2772295       67.41143
2014    24      2       0.2440934       60.78181
2014    24      3       0.2627999       64.58573
2014    24      4       0.3375339       79.08617
2014    24      5       0.3339846       78.45238
2014    24      6       0.2972296       71.78574
2014    24      7       0.2858557       69.67161
2014    25      0       0.2791477       68.42416
2014    25      1       0.3264924       77.14157
2014    25      2       0.3374087       78.97968
2014    25      3       0.3307076       78.22897
2014    25      4       0.36932         85.31897
2014    25      5       0.4238401       94.94001
2014    25      6       0.3966829       90.48037
2014    25      7       0.3415132       80.70082
2014    26      0       0.3109537       74.9333
2014    26      1       0.3338426       78.26328
2014    26      2       0.2421395       60.96446
2014    26      3       0.2051743       53.45848
2014    26      4       0.2459822       61.68095
2014    26      5       0.3058028       73.50034
2014    26      6       0.329764        78.27608
2014    26      7       0.304509        73.7729
2014    27      0       0.2972781       72.30047
2014    27      1       0.308656        73.98031
2014    27      2       0.243304        61.2655
2014    27      3       0.2229131       57.35549
2014    27      4       0.2089888       54.45192
2014    27      5       0.2296509       58.4733
2014    27      6       0.3002057       72.22996
2014    27      7       0.373051        85.86496
2014    28      0       0.3955892       89.85814
2014    28      1       0.4193501       93.68602
2014    28      2       0.3882915       88.36236
2014    28      3       0.392182        89.50525
2014    28      4       0.3874045       88.82691
2014    28      5       0.4106936       92.52229
2014    28      6       0.3635122       84.79552
2014    28      7       0.3823842       88.15337
2014    29      0       0.3593278       83.73345
2014    29      1       0.3614429       83.7865
2014    29      2       0.3516116       81.77884
2014    29      3       0.3420239       80.48295
2014    29      4       0.3745572       86.21141
2014    29      5       0.309608        74.68428
2014    29      6       0.3077519       74.46328
2014    29      7       0.2854418       70.21067
2014    30      0       0.2793676       68.91389
2014    30      1       0.3213816       76.43543
2014    30      2       0.3049268       73.4379
2014    30      3       0.3675547       84.60567
2014    30      4       0.3423139       80.35669
2014    30      5       0.2614568       65.3724
2014    30      6       0.2329292       59.65735
2014    30      7       0.2211059       57.10626
2014    31      0       0.2225628       57.29387
2014    31      1       0.2289979       58.15064
2014    31      2       0.2741495       67.28619
2014    31      3       0.2909726       70.76583
2014    31      4       0.2741787       67.57706
2014    31      5       0.2140922       55.57678
2014    31      6       0.195304        51.57268
2014    31      7       0.2197741       56.52994
2015    1       0       0.5039962       110.0459
2015    1       1       0.5161246       111.3196
2015    1       2       0.549408        116.5066
2015    1       3       0.5493914       116.7612
2015    1       4       0.5032463       110.206
2015    1       5       0.5410161       116.3675
2015    1       6       0.5643524       119.8933
2015    1       7       0.5491905       117.7131
2015    2       0       0.5321311       114.888
2015    2       1       0.5644862       118.8566
2015    2       2       0.5587697       118.1148
2015    2       3       0.5888721       122.8716
2015    2       4       0.6439767       131.2307
2015    2       5       0.6742935       135.3931
2015    2       6       0.5772482       121.921
2015    2       7       0.6447135       131.4591
2015    3       0       0.6826973       136.5719
2015    3       1       0.6442602       130.5853
2015    3       2       0.6375189       128.9497
2015    3       3       0.6171387       127.0284
2015    3       4       0.7204368       140.6159
2015    3       5       0.707434        138.8753
2015    3       6       0.6930026       136.5066
2015    3       7       0.6322899       127.3281
2015    4       0       0.5051691       109.3694
2015    4       1       0.4529041       100.775
2015    4       2       0.5000695       108.6401
2015    4       3       0.5759007       119.9668
2015    4       4       0.5266634       113.2697
2015    4       5       0.5986497       123.7266
2015    4       6       0.640238        129.3188
2015    4       7       0.7043437       137.886
2015    5       0       0.5735748       119.9357
2015    5       1       0.5492006       115.7083
2015    5       2       0.5542597       116.1895
2015    5       3       0.5406095       114.0938
2015    5       4       0.45803         101.8092
2015    5       5       0.5038779       109.101
2015    5       6       0.5070599       109.3513
2015    5       7       0.4567984       101.5433
2015    6       0       0.4261385       96.46698
2015    6       1       0.4547032       101.2687
2015    6       2       0.4914654       106.9311
2015    6       3       0.5163865       110.7879
2015    6       4       0.5487682       116.0024
2015    6       5       0.5230198       112.2098
2015    6       6       0.4786233       105.4512
2015    6       7       0.4579118       102.0943
2015    7       0       0.4220467       96.19829
2015    7       1       0.5461773       115.3276
2015    7       2       0.5337488       113.603
2015    7       3       0.4963177       107.8236
2015    7       4       0.5468386       115.283
2015    7       5       0.4538991       101.16
2015    7       6       0.5223517       111.7981
2015    7       7       0.5328761       113.5016
2015    8       0       0.5328139       113.3161
2015    8       1       0.6649471       131.3993
2015    8       2       0.7205726       137.9713
2015    8       3       0.6358153       127.3795
2015    8       4       0.4881812       106.39
2015    8       5       0.4865463       106.2614
2015    8       6       0.4866978       106.2298
2015    8       7       0.5201814       111.3927
2015    9       0       0.4793513       105.2546
2015    9       1       0.5052718       109.6189
2015    9       2       0.5497549       116.1115
2015    9       3       0.6081647       124.7261
2015    9       4       0.6775073       134.8438
2015    9       5       0.6525647       131.199
2015    9       6       0.6484348       130.5359
2015    9       7       0.6538252       131.2359
2015    10      0       0.5981332       123.4734
2015    10      1       0.6696755       133.2666
2015    10      2       0.6305767       127.5973
2015    10      3       0.6382668       129.6054
2015    10      4       0.6645873       132.9888
2015    10      5       0.6087255       124.6525
2015    10      6       0.5087872       109.9426
2015    10      7       0.5086716       110.0036
2015    11      0       0.4927496       107.5577
2015    11      1       0.4872138       106.8097
2015    11      2       0.5536846       117.0103
2015    11      3       0.5548989       117.5119
2015    11      4       0.6675894       133.1021
2015    11      5       0.5453724       115.856
2015    11      6       0.4230559       96.18033
2015    11      7       0.3646          85.80504
2015    12      0       0.3505112       83.21398
2015    12      1       0.4101543       93.49222
2015    12      2       0.464305        102.7585
2015    12      3       0.5029027       109.317
2015    12      4       0.579705        121.2823
2015    12      5       0.6295548       128.2789
2015    12      6       0.6185116       125.9806
2015    12      7       0.5813902       120.4386
2015    13      0       0.4612075       102.409
2015    13      1       0.4799376       105.0681
2015    13      2       0.5910632       121.7089
2015    13      3       0.6549904       131.4074
2015    13      4       0.5762692       120.0391
2015    13      5       0.5341241       113.4776
2015    13      6       0.4469466       99.54733
2015    13      7       0.4261109       96.01363
2015    14      0       0.3944887       90.43169
2015    14      1       0.4290389       96.26664
2015    14      2       0.5242102       111.5074
2015    14      3       0.5375943       114.392
2015    14      4       0.5994018       123.0047
2015    14      5       0.5846894       120.8242
2015    14      6       0.4932326       106.1679
2015    14      7       0.535601        112.6211
2015    15      0       0.6141424       124.1478
2015    15      1       0.6067136       122.6065
2015    15      2       0.6030225       121.8213
2015    15      3       0.5945986       120.5647
2015    15      4       0.6697313       130.8708
2015    15      5       0.475582        103.0074
2015    15      6       0.4393106       96.85217
2015    15      7       0.4733682       102.4588
2015    16      0       0.4377873       97.00783
2015    16      1       0.5107063       108.9518
2015    16      2       0.5415635       113.4839
2015    16      3       0.6373296       127.1743
2015    16      4       0.6599316       130.3957
2015    16      5       0.5724038       119.2955
2015    16      6       0.4203361       95.28153
2015    16      7       0.3803574       88.15435
2015    17      0       0.4651911       102.6268
2015    17      1       0.4329248       97.35977
2015    17      2       0.3400291       81.12794
2015    17      3       0.3044205       74.51141
2015    17      4       0.3119806       75.73947
2015    17      5       0.2359316       60.56123
2015    17      6       0.2426901       61.62101
2015    17      7       0.308203        74.04107
2015    18      0       0.3238312       76.65557
2015    18      1       0.2734748       66.75792
2015    18      2       0.3047509       72.61011
2015    18      3       0.3185881       75.49996
2015    18      4       0.3573321       82.6173
2015    18      5       0.2818081       68.39983
2015    18      6       0.1785323       46.87819
2015    18      7       0.1386239       38.04494
2015    19      0       0.109601        31.67686
2015    19      1       0.1030114       30.26765
2015    19      2       0.1018918       30.11843
2015    19      3       0.1123272       32.67091
2015    19      4       0.105975        31.19157
2015    19      5       0.09209036      27.8358
2015    19      6       0.08471462      26.1025
2015    19      7       0.08160974      25.37076
2015    20      0       0.08327316      25.77548
2015    20      1       0.09822823      29.24879
2015    20      2       0.1127784       32.60449
2015    20      3       0.1353549       37.82721
2015    20      4       0.1827531       47.8885
2015    20      5       0.1624788       43.61039
2015    20      6       0.1673727       44.54497
2015    20      7       0.1901751       49.14818
2015    21      0       0.2352606       58.12084
2015    21      1       0.2318799       57.61384
2015    21      2       0.3010754       71.11825
2015    21      3       0.4198105       92.72896
2015    21      4       0.4779181       102.5476
2015    21      5       0.4743768       102.2151
2015    21      6       0.4387196       96.56457
2015    21      7       0.3595527       83.37266
2015    22      0       0.3431464       80.38579
2015    22      1       0.4050967       90.81664
2015    22      2       0.3991007       89.84063
2015    22      3       0.4818889       103.0188
2015    22      4       0.5204495       109.4545
2015    22      5       0.5114203       108.2851
2015    22      6       0.3989641       90.17562
2015    22      7       0.2928122       70.8063
2015    23      0       0.3124678       74.03709
2015    23      1       0.3860966       86.86444
2015    23      2       0.3496204       80.63429
2015    23      3       0.3239771       76.40877
2015    23      4       0.3674776       84.26161
2015    23      5       0.2788498       67.9988
2015    23      6       0.3810412       85.72911
2015    23      7       0.3113402       73.81355
2015    24      0       0.2460479       61.48368
2015    24      1       0.27765         67.27785
2015    24      2       0.3217907       75.52427
2015    24      3       0.3832457       86.47063
2015    24      4       0.4104557       90.96872
2015    24      5       0.3382825       79.29066
2015    24      6       0.3299035       77.67721
2015    24      7       0.3190817       75.6264
2015    25      0       0.254624        63.27555
2015    25      1       0.2138094       54.87071
2015    25      2       0.150228        41.36838
2015    25      3       0.1451871       40.21596
2015    25      4       0.1426478       39.61673
2015    25      5       0.1281061       36.35372
2015    25      6       0.1150311       33.32014
2015    25      7       0.1144477       33.20515
2015    26      0       0.1194423       34.39795
2015    26      1       0.1100984       32.20761
2015    26      2       0.1093643       31.99805
2015    26      3       0.1324374       37.15036
2015    26      4       0.1867004       48.71854
2015    26      5       0.1863053       48.89098
2015    26      6       0.1897826       49.85113
2015    26      7       0.1829375       48.62942
2015    27      0       0.175939        47.25258
2015    27      1       0.1638024       44.63236
2015    27      2       0.140293        39.3161
2015    27      3       0.1362439       38.34389
2015    27      4       0.1507567       41.4417
2015    27      5       0.1596492       43.46145
2015    27      6       0.172815        46.42525
2015    27      7       0.1799187       47.98643
2015    28      0       0.175728        47.0724
2015    28      1       0.1660258       44.95548
2015    28      2       0.1532395       42.25067
2015    28      3       0.1617005       44.27599
2015    28      4       0.2285299       58.42581
2015    28      5       0.2964649       72.05915
2015    28      6       0.3192411       76.5843
2015    28      7       0.3369896       79.75773
2015    29      0       0.3292652       78.4055
2015    29      1       0.3481546       81.64855
2015    29      2       0.3028102       73.4472
2015    29      3       0.2725732       67.76111
2015    29      4       0.281834        69.72145
2015    29      5       0.2438758       62.18072
2015    29      6       0.2141409       55.9026
2015    29      7       0.2105159       54.9865
2015    30      0       0.2293177       58.77506
2015    30      1       0.2174809       56.33383
2015    30      2       0.1706833       46.39371
2015    30      3       0.1355643       38.44948
2015    30      4       0.1365831       38.64606
2015    30      5       0.143379        40.24626
2015    30      6       0.1485567       41.39262
2015    30      7       0.1581901       43.47054
2015    31      0       0.1514105       41.84552
2015    31      1       0.1376583       38.74993
2015    31      2       0.124361        35.64297
2015    31      3       0.1146359       33.36316
2015    31      4       0.1216997       35.05204
2015    31      5       0.142558        39.77463
2015    31      6       0.1434672       39.91161
2015    31      7       0.1421837       39.54038
2016    1       0       0.3468009       82.29021
2016    1       1       0.4507613       100.6155
2016    1       2       0.5349184       113.6922
2016    1       3       0.4996826       108.5349
2016    1       4       0.4543195       101.1866
2016    1       5       0.3744929       87.87758
2016    1       6       0.4212686       95.38708
2016    1       7       0.4071403       92.54102
2016    2       0       0.4179743       94.37724
2016    2       1       0.4586632       101.4849
2016    2       2       0.5586449       116.5636
2016    2       3       0.5939377       121.9747
2016    2       4       0.509777        109.9047
2016    2       5       0.4867439       106.4271
2016    2       6       0.4574203       101.6709
2016    2       7       0.4937741       107.2057
2016    3       0       0.4950367       107.1542
2016    3       1       0.5073547       109.5426
2016    3       2       0.5279167       112.8689
2016    3       3       0.607218        124.851
2016    3       4       0.7237729       140.8645
2016    3       5       0.70432         138.0313
2016    3       6       0.6398894       129.3364
2016    3       7       0.6768607       134.4383
2016    4       0       0.662022        132.4993
2016    4       1       0.6397661       128.9886
2016    4       2       0.5866138       121.5124
2016    4       3       0.5801151       120.6999
2016    4       4       0.6880492       135.1946
2016    4       5       0.6041191       124.175
2016    4       6       0.5045731       109.7561
2016    4       7       0.4964313       108.401
2016    5       0       0.4519363       101.121
2016    5       1       0.4464231       100.1866
2016    5       2       0.5257239       112.7992
2016    5       3       0.522271        112.6065
2016    5       4       0.5592829       118.3755
2016    5       5       0.5961058       123.7993
2016    5       6       0.7194297       140.2207
2016    5       7       0.7167715       139.9836
2016    6       0       0.5915895       123.1627
2016    6       1       0.5843555       121.5344
2016    6       2       0.5742061       120.1401
2016    6       3       0.5915872       122.6667
2016    6       4       0.5374266       115.1432
2016    6       5       0.5808018       121.9334
2016    6       6       0.5964102       124.1691
2016    6       7       0.5986069       124.1818
2016    7       0       0.5367663       115.2502
2016    7       1       0.7119321       138.9787
2016    7       2       0.6417231       129.8582
2016    7       3       0.599234        124.6271
2016    7       4       0.6609159       133.3926
2016    7       5       0.7059267       139.4229
2016    7       6       0.7061648       139.3812
2016    7       7       0.7604112       145.7602
2016    8       0       0.805171        151.0368
2016    8       1       0.6797744       134.8429
2016    8       2       0.632391        128.482
2016    8       3       0.6287993       128.6415
2016    8       4       0.7644432       146.4226
2016    8       5       0.7077062       138.9445
2016    8       6       0.7192157       140.197
2016    8       7       0.7083393       138.6392
2016    9       0       0.6328875       128.9926
2016    9       1       0.5855447       121.6022
2016    9       2       0.6084927       124.4756
2016    9       3       0.6040103       124.2159
2016    9       4       0.7130435       139.8439
2016    9       5       0.6742162       134.4367
2016    9       6       0.6506741       130.7173
2016    9       7       0.6496951       130.2476
2016    10      0       0.607802        124.7112
2016    10      1       0.545302        115.4545
2016    10      2       0.5981336       122.8516
2016    10      3       0.5953859       123.0366
2016    10      4       0.6194264       126.1824
2016    10      5       0.453154        101.2617
2016    10      6       0.4670665       103.2151
2016    10      7       0.5113613       109.5922
2016    11      0       0.4360657       97.66732
2016    11      1       0.4574545       101.202
2016    11      2       0.5520627       115.8203
2016    11      3       0.6122901       125.0908
2016    11      4       0.7128244       138.3543
2016    11      5       0.6797392       134.6403
2016    11      6       0.642957        130.1291
2016    11      7       0.6734026       134.0132
2016    12      0       0.6305071       128.3865
2016    12      1       0.7610554       144.5145
2016    12      2       0.7536041       143.5093
2016    12      3       0.6288123       128.7996
2016    12      4       0.7082079       139.3889
2016    12      5       0.7095043       139.237
2016    12      6       0.6215336       127.9336
2016    12      7       0.6429021       130.6696
2016    13      0       0.6042314       125.2971
2016    13      1       0.5692908       119.9541
2016    13      2       0.6036625       124.8574
2016    13      3       0.6036803       125.3233
2016    13      4       0.6350883       129.3998
2016    13      5       0.7002788       138.6816
2016    13      6       0.669629        134.571
2016    13      7       0.6128381       126.8746
2016    14      0       0.8258327       154.5662
2016    14      1       0.6074463       125.4955
2016    14      2       0.566606        119.7206
2016    14      3       0.6259413       127.8108
2016    14      4       0.6931921       136.6402
2016    14      5       0.7919259       149.3494
2016    14      6       0.7686702       146.7095
2016    14      7       0.764585        146.4605
2016    15      0       0.8261891       154.0805
2016    15      1       0.6127798       125.8756
2016    15      2       0.6014089       124.6269
2016    15      3       0.6225513       127.4387
2016    15      4       0.5952096       123.411
2016    15      5       0.4525349       102.0762
2016    15      6       0.4305466       98.43418
2016    15      7       0.3698701       87.00065
2016    16      0       0.3754546       88.26703
2016    16      1       0.4035538       92.6067
2016    16      2       0.3614316       85.32735
2016    16      3       0.3070027       75.21343
2016    16      4       0.2429313       62.47497
2016    16      5       0.2129225       56.05113
2016    16      6       0.2089064       54.85725
2016    16      7       0.2127875       55.44313
2016    17      0       0.2157543       55.88421
2016    17      1       0.245024        61.93896
2016    17      2       0.2780851       68.95869
2016    17      3       0.2725558       68.12035
2016    17      4       0.3452982       81.78255
2016    17      5       0.4122567       93.7604
2016    17      6       0.42693         96.30099
2016    17      7       0.4723971       103.7141
2016    18      0       0.4608718       101.9265
2016    18      1       0.476298        104.2592
2016    18      2       0.4861531       105.6782
2016    18      3       0.5140324       109.9078
2016    18      4       0.5779859       119.2904
2016    18      5       0.4844834       106.1469
2016    18      6       0.4186514       95.36297
2016    18      7       0.4114216       94.13978
2016    19      0       0.4338645       97.72824
2016    19      1       0.4256096       96.17408
2016    19      2       0.4504513       100.5632
2016    19      3       0.5270856       112.7047
2016    19      4       0.5296686       112.9435
2016    19      5       0.4579124       102.1424
2016    19      6       0.4692734       104.0332
2016    19      7       0.5371589       114.4952
2016    20      0       0.4904984       107.1447
2016    20      1       0.5142011       110.5887
2016    20      2       0.5340827       113.4451
2016    20      3       0.6086446       123.9512
2016    20      4       0.71548         138.3126
2016    20      5       0.6458419       129.6585
2016    20      6       0.5769449       119.5368
2016    20      7       0.5565017       116.3372
2016    21      0       0.507717        109.1111
2016    21      1       0.473686        103.7615
2016    21      2       0.4283419       96.04195
2016    21      3       0.3340704       79.5353
2016    21      4       0.3390193       80.22414
2016    21      5       0.3423148       81.01508
2016    21      6       0.3693856       85.47568
2016    21      7       0.3844412       88.23884
2016    22      0       0.3475887       81.69843
2016    22      1       0.2775966       68.26519
2016    22      2       0.2538003       63.81766
2016    22      3       0.3332726       79.1952
2016    22      4       0.4383049       97.21727
2016    22      5       0.3924619       89.39605
2016    22      6       0.3768756       86.34647
2016    22      7       0.5290033       111.0871
2016    23      0       0.5204837       110.2036
2016    23      1       0.460614        101.0766
2016    23      2       0.5681408       117.3193
2016    23      3       0.5704305       117.7214
2016    23      4       0.5290908       111.7165
2016    23      5       0.4400448       98.19544
2016    23      6       0.4079554       92.83691
2016    23      7       0.4903485       105.9207
2016    24      0       0.4569665       100.3855
2016    24      1       0.4681846       101.9202
2016    24      2       0.4598638       100.3695
2016    24      3       0.4943395       105.8104
2016    24      4       0.5375307       112.1995
2016    24      5       0.4333986       96.72325
2016    24      6       0.4661837       101.8323
2016    24      7       0.4257585       95.62392
2016    25      0       0.3989989       91.12649
2016    25      1       0.4043735       92.0145
2016    25      2       0.3894198       89.59698
2016    25      3       0.4253292       95.76199
2016    25      4       0.4529799       100.5633
2016    25      5       0.4312715       97.43607
2016    25      6       0.4381063       98.4644
2016    25      7       0.424775        96.07966
2016    26      0       0.4138902       94.2245
2016    26      1       0.4513677       100.4242
2016    26      2       0.4813667       105.2237
2016    26      3       0.5058828       109.2691
2016    26      4       0.5826205       120.824
2016    26      5       0.5587308       116.9316
2016    26      6       0.5015966       107.9983
2016    26      7       0.4353302       97.25903
2016    27      0       0.4284771       95.82649
2016    27      1       0.4352403       96.87506
2016    27      2       0.4847982       104.6621
2016    27      3       0.5370181       112.1385
2016    27      4       0.6598476       129.6121
2016    27      5       0.5714026       118.0925
2016    27      6       0.5593236       116.5142
2016    27      7       0.4913986       106.1456
2016    28      0       0.4149733       93.43527
2016    28      1       0.4190901       94.16483
2016    28      2       0.4499601       99.24263
2016    28      3       0.497282        106.6854
2016    28      4       0.5945586       120.8793
2016    28      5       0.5267655       111.2473
2016    28      6       0.4612769       101.2506
2016    28      7       0.4212297       94.811
2016    29      0       0.418985        94.32379
2016    29      1       0.4408396       97.85697
2016    29      2       0.467097        101.969
2016    29      3       0.4981223       107.1363
2016    29      4       0.6186997       124.2263
2016    29      5       0.5228599       110.6647
2016    29      6       0.4774762       103.6584
2016    29      7       0.5361757       113.1089
2016    30      0       0.5091669       108.8352
2016    30      1       0.581651        119.5636
2016    30      2       0.4890086       105.6036
2016    30      3       0.4482155       99.19845
2016    30      4       0.3988447       90.88569
2016    30      5       0.3135672       75.51605
2016    30      6       0.3496354       81.92355
2016    30      7       0.3392944       80.02383
2016    31      0       0.2856505       69.82289
2016    31      1       0.3300537       78.07634
2016    31      2       0.3972976       90.0045
2016    31      3       0.4438812       97.928
2016    31      4       0.4657044       101.392
2016    31      5       0.3862914       88.32708
2016    31      6       0.4112208       92.66299
2016    31      7       0.4232549       94.62694
2017    1       0       0.330806        78.50487
2017    1       1       0.3090408       74.63136
2017    1       2       0.3353217       80.11852
2017    1       3       0.3809506       88.62384
2017    1       4       0.3831941       89.08233
2017    1       5       0.365995        86.09553
2017    1       6       0.403874        92.61855
2017    1       7       0.4411733       98.66459
2017    2       0       0.5038872       108.351
2017    2       1       0.5837354       120.1737
2017    2       2       0.6132584       124.7021
2017    2       3       0.6968132       136.325
2017    2       4       0.6532658       131.381
2017    2       5       0.6555154       131.7685
2017    2       6       0.7132309       138.8865
2017    2       7       0.7289054       140.9336
2017    3       0       0.6439843       129.6051
2017    3       1       0.5513472       116.6169
2017    3       2       0.5906749       122.221
2017    3       3       0.6043539       124.7767
2017    3       4       0.6803          134.9889
2017    3       5       0.5227028       113.0898
2017    3       6       0.6237847       127.2388
2017    3       7       0.6273093       127.6465
2017    4       0       0.5797895       121.0121
2017    4       1       0.5919066       123.0627
2017    4       2       0.6100329       125.6519
2017    4       3       0.6779158       135.5154
2017    4       4       0.6570611       132.6373
2017    4       5       0.478628        106.065
2017    4       6       0.4279238       97.41594
2017    4       7       0.4020576       92.88994
2017    5       0       0.3744024       87.89089
2017    5       1       0.396726        91.42314
2017    5       2       0.3578058       84.75658
2017    5       3       0.4185652       95.26966
2017    5       4       0.5737375       118.9649
2017    5       5       0.4726633       104.2653
2017    5       6       0.4008656       92.2434
2017    5       7       0.3786345       88.25353
2017    6       0       0.3872986       89.75084
2017    6       1       0.4246548       96.3012
2017    6       2       0.4781677       105.4626
2017    6       3       0.5151771       111.1775
2017    6       4       0.6160011       126.4112
2017    6       5       0.6161442       126.1167
2017    6       6       0.522671        112.3326
2017    6       7       0.5842725       121.0793
2017    7       0       0.6457767       130.5729
2017    7       1       0.6558965       131.9357
2017    7       2       0.6165992       126.0055
2017    7       3       0.642931        129.7623
2017    7       4       0.6993772       137.7261
2017    7       5       0.6578427       131.9707
2017    7       6       0.5664098       119.4475
2017    7       7       0.7202131       140.1831
2017    8       0       0.735014        142.487
2017    8       1       0.5821347       121.2048
2017    8       2       0.5788799       119.9801
2017    8       3       0.6371761       128.1144
2017    8       4       0.6763269       133.7176
2017    8       5       0.5965449       122.7102
2017    8       6       0.493357        107.3568
2017    8       7       0.4911485       107.2491
2017    9       0       0.5611298       117.8881
2017    9       1       0.5747722       119.4775
2017    9       2       0.5435825       114.7918
2017    9       3       0.565474        117.8945
2017    9       4       0.4689929       102.8473
2017    9       5       0.2878094       71.04315
2017    9       6       0.2540533       64.28409
2017    9       7       0.2853299       70.32937
2017    10      0       0.3263343       77.9059
2017    10      1       0.3692071       85.64044
2017    10      2       0.3901912       89.75148
2017    10      3       0.4881105       105.8812
2017    10      4       0.4874243       105.877
2017    10      5       0.360111        84.86064
2017    10      6       0.3175988       77.01314
2017    10      7       0.2934477       72.29485
2017    11      0       0.2745029       68.4735
2017    11      1       0.2767089       68.84601
2017    11      2       0.277095        69.0743
2017    11      3       0.2948076       72.39483
2017    11      4       0.3175133       76.62004
2017    11      5       0.2700225       67.44487
2017    11      6       0.2718565       67.6291
2017    11      7       0.2944433       71.86586
2017    12      0       0.265814        66.41778
2017    12      1       0.270537        67.57357
2017    12      2       0.3061354       74.41152
2017    12      3       0.3833058       88.23809
2017    12      4       0.4165302       93.64143
2017    12      5       0.3035555       73.78526
2017    12      6       0.2640933       66.04833
2017    12      7       0.24252         61.67417
2017    13      0       0.1848569       49.57322
2017    13      1       0.1693119       46.1102
2017    13      2       0.1625877       44.60892
2017    13      3       0.1645898       45.03323
2017    13      4       0.1910687       50.79946
2017    13      5       0.2445122       62.16506
2017    13      6       0.2525688       63.5164
2017    13      7       0.255652        64.09415
2017    14      0       0.2357924       60.03998
2017    14      1       0.1907804       50.59698
2017    14      2       0.1782568       47.82617
2017    14      3       0.2231796       57.35016
2017    14      4       0.3849079       88.08855
2017    14      5       0.3402064       80.34079
2017    14      6       0.2965244       71.99811
2017    14      7       0.2721609       67.20047
2017    15      0       0.2724896       67.38235
2017    15      1       0.2479567       62.3705
2017    15      2       0.2520388       63.51626
2017    15      3       0.2856534       70.47943
2017    15      4       0.2961535       72.58692
2017    15      5       0.257456        65.05308
2017    15      6       0.2302308       59.52485
2017    15      7       0.2089172       55.04756
2017    16      0       0.1962382       52.30095
2017    16      1       0.1815373       49.02156
2017    16      2       0.1628471       44.98561
2017    16      3       0.1679202       46.32945
2017    16      4       0.1732934       47.60039
2017    16      5       0.1668781       46.28494
2017    16      6       0.160277        44.76064
2017    16      7       0.1613218       44.8713
2017    17      0       0.1465727       41.3263
2017    17      1       0.1141915       33.75863
2017    17      2       0.09577205      29.33525
2017    17      3       0.1070053       32.15837
2017    17      4       0.1611368       44.83185
2017    17      5       0.2004004       53.62842
2017    17      6       0.2196092       57.69458
2017    17      7       0.2560686       65.03439
2017    18      0       0.3485498       82.62547
2017    18      1       0.39735         91.41287
2017    18      2       0.2628356       66.46278
2017    18      3       0.2194081       57.37751
2017    18      4       0.244447        62.6557
2017    18      5       0.2732747       68.60435
2017    18      6       0.2810925       70.08314
2017    18      7       0.3091876       75.34212
2017    19      0       0.3063692       74.86616
2017    19      1       0.2662528       66.85906
2017    19      2       0.1811528       48.95267
2017    19      3       0.1654417       45.59097
2017    19      4       0.2173422       56.9381
2017    19      5       0.2504778       63.87277
2017    19      6       0.2921534       71.93242
2017    19      7       0.3409177       80.95985
2017    20      0       0.3883          89.56754
2017    20      1       0.4459099       99.52279
2017    20      2       0.4497446       100.4687
2017    20      3       0.5194128       111.4046
2017    20      4       0.5981563       122.7141
2017    20      5       0.4460416       100.0479
2017    20      6       0.3750133       87.90768
2017    20      7       0.3315693       79.74411
2017    21      0       0.2832925       70.25742
2017    21      1       0.2013916       53.27458
2017    21      2       0.1865551       50.15361
2017    21      3       0.2183656       57.19483
2017    21      4       0.2759466       68.96204
2017    21      5       0.348015        82.57477
2017    21      6       0.5146215       110.0256
2017    21      7       0.3940093       90.65481
2017    22      0       0.2366817       60.69172
2017    22      1       0.2062651       54.2396
2017    22      2       0.2017325       53.37978
2017    22      3       0.218778        57.09192
2017    22      4       0.2279225       58.92659
2017    22      5       0.2287133       59.05094
2017    22      6       0.2378267       60.90875
2017    22      7       0.2467139       62.66742
2017    23      0       0.2520285       63.75821
2017    23      1       0.2905831       71.31234
2017    23      2       0.4187871       94.20604
2017    23      3       0.6337586       126.5732
2017    23      4       0.5656051       117.849
2017    23      5       0.3229368       77.86392
2017    23      6       0.2673042       66.87093
2017    23      7       0.2513057       63.52963
2017    24      0       0.2318991       59.4054
2017    24      1       0.2373727       60.32063
2017    24      2       0.228418        58.59045
2017    24      3       0.2397455       60.91806
2017    24      4       0.2596386       64.94086
2017    24      5       0.2592613       64.93105
2017    24      6       0.2286454       58.71778
2017    24      7       0.2229424       57.43277
2017    25      0       0.2269298       58.16664
2017    25      1       0.2698462       66.83823
2017    25      2       0.4024531       91.08523
2017    25      3       0.4316944       95.64687
2017    25      4       0.4001968       90.34377
2017    25      5       0.2882004       70.15229
2017    25      6       0.2337991       59.32829
2017    25      7       0.196453        51.45894
2017    26      0       0.1554274       42.54218
2017    26      1       0.1464407       40.63648
2017    26      2       0.1418141       39.62424
2017    26      3       0.1537266       42.30951
2017    26      4       0.1874752       49.57862
2017    26      5       0.1900315       50.23926
2017    26      6       0.1643          44.59896
2017    26      7       0.1321933       37.27716
2017    27      0       0.1133405       32.83816
2017    27      1       0.1245478       35.49058
2017    27      2       0.1220618       34.965
2017    27      3       0.1287642       36.62754
2017    27      4       0.1362607       38.37309
2017    27      5       0.1300808       37.01431
2017    27      6       0.1199575       34.63482
2017    27      7       0.112082        32.70701
2017    28      0       0.09907496      29.57536
2017    28      1       0.1114632       32.46914
2017    28      2       0.1217368       34.91847
2017    28      3       0.1556214       42.74377
2017    28      4       0.1926785       50.81725
2017    28      5       0.1837102       48.92913
2017    28      6       0.1922499       50.67557
2017    28      7       0.3380615       78.93037
2017    29      0       0.3471116       80.93674
2017    29      1       0.3370599       79.41023
2017    29      2       0.3897612       88.89158
2017    29      3       0.408504        92.02694
2017    29      4       0.3486312       81.59392
2017    29      5       0.2745587       67.926
2017    29      6       0.2672866       66.21446
2017    29      7       0.2972478       71.51308
2017    30      0       0.3422538       79.74453
2017    30      1       0.4336203       95.44599
2017    30      2       0.4921214       105.2086
2017    30      3       0.5670974       116.0875
2017    30      4       0.647002        127.4775
2017    30      5       0.5106792       108.7437
2017    30      6       0.4839574       104.8489
2017    30      7       0.4689465       102.5395
2017    31      0       0.4875213       105.2712
2017    31      1       0.5202522       109.8833
2017    31      2       0.5051688       107.2254
2017    31      3       0.5424716       113.2065
2017    31      4       0.6255283       124.8983
2017    31      5       0.5101681       108.868
2017    31      6       0.4439672       98.22484
2017    31      7       0.3988212       90.54996
2018    1       0       0.4664065       103.0384
2018    1       1       0.4936446       107.477
2018    1       2       0.3737637       87.6264
2018    1       3       0.3230706       78.36005
2018    1       4       0.2930606       72.37706
2018    1       5       0.4016556       92.35648
2018    1       6       0.465935        103.3195
2018    1       7       0.3654827       85.97276
2018    2       0       0.3298159       79.7159
2018    2       1       0.2595397       65.55639
2018    2       2       0.2303848       59.67584
2018    2       3       0.2188602       57.4964
2018    2       4       0.2158668       56.86045
2018    2       5       0.218192        57.2805
2018    2       6       0.2547059       64.85071
2018    2       7       0.2763773       69.19548
2018    3       0       0.2432168       62.54338
2018    3       1       0.2363487       61.00877
2018    3       2       0.2352101       60.98837
2018    3       3       0.261592        66.45555
2018    3       4       0.2742325       69.08154
2018    3       5       0.2880642       71.76438
2018    3       6       0.2798238       69.82821
2018    3       7       0.2935091       72.62351
2018    4       0       0.3485621       83.22102
2018    4       1       0.386739        90.16562
2018    4       2       0.4181325       95.83701
2018    4       3       0.4608999       102.8462
2018    4       4       0.5202324       112.1865
2018    4       5       0.5161199       112.2133
2018    4       6       0.4771185       105.9524
2018    4       7       0.4393581       99.58446
2018    5       0       0.4370509       99.1283
2018    5       1       0.4761052       105.3904
2018    5       2       0.5156825       111.6012
2018    5       3       0.5497721       116.9738
2018    5       4       0.6295015       128.8196
2018    5       5       0.6394282       129.933
2018    5       6       0.6591588       132.7098
2018    5       7       0.655018        132.0048
2018    6       0       0.5122994       110.9152
2018    6       1       0.4626248       103.0645
2018    6       2       0.5365799       115.1927
2018    6       3       0.602452        124.866
2018    6       4       0.6650538       133.8814
2018    6       5       0.6467014       130.8475
2018    6       6       0.6050247       125.1396
2018    6       7       0.5996349       123.9127
2018    7       0       0.5256454       112.609
2018    7       1       0.5417972       114.4818
2018    7       2       0.672258        132.8258
2018    7       3       0.7292896       140.3515
2018    7       4       0.7098706       138.3437
2018    7       5       0.6962975       136.9384
2018    7       6       0.8061717       150.8376
2018    7       7       0.7303236       140.7587
2018    8       0       0.7324841       141.3344
2018    8       1       0.6134363       125.7048
2018    8       2       0.6360238       128.8372
2018    8       3       0.6480262       130.6424
2018    8       4       0.7248883       140.7473
2018    8       5       0.6266994       128.6289
2018    8       6       0.6915233       136.6613
2018    8       7       0.6477814       130.3716
2018    9       0       0.5993645       123.964
2018    9       1       0.6237399       127.0167
2018    9       2       0.6307212       128.2535
2018    9       3       0.5790755       121.5417
2018    9       4       0.5943952       124.1051
2018    9       5       0.6263451       128.313
2018    9       6       0.5452977       116.4509
2018    9       7       0.5587306       118.0685
2018    10      0       0.5569054       117.677
2018    10      1       0.5332887       114.1999
2018    10      2       0.5327481       114.1946
2018    10      3       0.5578472       117.8297
2018    10      4       0.6146105       126.0943
2018    10      5       0.6388284       129.7469
2018    10      6       0.5910659       123.3041
2018    10      7       0.5728042       120.5225
2018    11      0       0.5361076       114.3754
2018    11      1       0.5532182       117.0288
2018    11      2       0.5520912       116.711
2018    11      3       0.6164682       125.5284
2018    11      4       0.6202138       126.8984
2018    11      5       0.5462672       116.392
2018    11      6       0.4918628       107.8301
2018    11      7       0.4644361       103.3853
2018    12      0       0.4780758       105.1421
2018    12      1       0.5547736       116.5927
2018    12      2       0.5952356       122.3739
2018    12      3       0.5787368       120.9229
2018    12      4       0.5833908       121.8339
2018    12      5       0.6509534       131.2177
2018    12      6       0.6493574       130.9304
2018    12      7       0.5942792       123.1632
2018    13      0       0.6548733       132.0046
2018    13      1       0.5821722       121.339
2018    13      2       0.6352225       128.6952
2018    13      3       0.6085845       125.662
2018    13      4       0.5227845       113.1107
2018    13      5       0.3796712       89.39414
2018    13      6       0.375343        88.70684
2018    13      7       0.4352763       98.75025
2018    14      0       0.4763355       105.0314
2018    14      1       0.5010484       108.4174
2018    14      2       0.5465325       115.4185
2018    14      3       0.5059478       109.5271
2018    14      4       0.4283578       96.92414
2018    14      5       0.3890177       90.59149
2018    14      6       0.4319486       97.95177
2018    14      7       0.4141886       94.7474
2018    15      0       0.3823787       89.07192
2018    15      1       0.3357234       80.58517
2018    15      2       0.2975815       73.56931
2018    15      3       0.2637402       67.01985
2018    15      4       0.252723        64.59194
2018    15      5       0.2451299       62.9752
2018    15      6       0.2947837       72.88849
2018    15      7       0.3817453       89.14114
2018    16      0       0.42806         96.94735
2018    16      1       0.4932895       106.9898
2018    16      2       0.5591316       117.2755
2018    16      3       0.6328747       127.679
2018    16      4       0.7176629       138.98
2018    16      5       0.6849316       135.6367
2018    16      6       0.6635603       133.0497
2018    16      7       0.7150322       139.5343
2018    17      0       0.6955638       136.5928
2018    17      1       0.545948        115.7599
2018    17      2       0.5582987       117.8596
2018    17      3       0.5792329       121.0063
2018    17      4       0.6432657       130.8085
2018    17      5       0.6015445       124.7145
2018    17      6       0.7113778       138.9105
2018    17      7       0.5956599       122.7192
2018    18      0       0.5922181       123.3718
2018    18      1       0.5454866       116.0575
2018    18      2       0.5196564       111.8745
2018    18      3       0.5430351       115.5243
2018    18      4       0.6456346       130.0641
2018    18      5       0.5159408       111.978
2018    18      6       0.4689463       104.1127
2018    18      7       0.4616887       102.6085
2018    19      0       0.450456        100.68
2018    19      1       0.4527883       100.9899
2018    19      2       0.4950515       107.564
2018    19      3       0.5621967       117.7293
2018    19      4       0.6188367       125.7533
2018    19      5       0.4938547       107.9141
2018    19      6       0.4374512       98.63666
2018    19      7       0.4609308       102.0197
2018    20      0       0.4616288       102.0948
2018    20      1       0.4973434       107.9952
2018    20      2       0.5222343       112.0033
2018    20      3       0.614195        125.5912
2018    20      4       0.7287054       140.8389
2018    20      5       0.5827256       121.2287
2018    20      6       0.5552796       116.7111
2018    20      7       0.6269918       126.617
2018    21      0       0.5266357       112.2939
2018    21      1       0.5105521       110.0448
2018    21      2       0.5550008       116.71
2018    21      3       0.5809043       120.4503
2018    21      4       0.5648872       118.2383
2018    21      5       0.5075283       110.1898
2018    21      6       0.5160084       111.2933
2018    21      7       0.4889689       106.8336
2018    22      0       0.4559479       101.7652
2018    22      1       0.5444609       115.5178
2018    22      2       0.5555786       117.5269
2018    22      3       0.5555873       117.7796
2018    22      4       0.5999927       123.866
2018    22      5       0.3921991       91.45063
2018    22      6       0.3637569       85.90835
2018    22      7       0.3529439       83.44408
2018    23      0       0.3994578       91.68168
2018    23      1       0.4683076       103.428
2018    23      2       0.5316075       113.9984
2018    23      3       0.5725949       120.1622
2018    23      4       0.4646884       103.578
2018    23      5       0.353609        84.22354
2018    23      6       0.3093339       75.53636
2018    23      7       0.3137129       76.09167
2018    24      0       0.2640885       66.48743
2018    24      1       0.2485361       63.46641
2018    24      2       0.2725687       68.54507
2018    24      3       0.2981911       73.8226
2018    24      4       0.2875143       71.68431
2018    24      5       0.2635363       66.80943
2018    24      6       0.2851125       71.01823
2018    24      7       0.3774805       88.15035
2018    25      0       0.4422175       99.37605
2018    25      1       0.4252771       96.33632
2018    25      2       0.2903648       71.80026
2018    25      3       0.2297039       59.63592
2018    25      4       0.2162248       56.80468
2018    25      5       0.2185944       57.23289
2018    25      6       0.2392346       61.43068
2018    25      7       0.2893308       71.37786
2018    26      0       0.2371667       60.93707
2018    26      1       0.1702364       46.5866
2018    26      2       0.1217106       35.45082
2018    26      3       0.1192474       34.89276
2018    26      4       0.1518707       42.54927
2018    26      5       0.1777938       48.3776
2018    26      6       0.1734837       47.30123
2018    26      7       0.156476        43.37277
2018    27      0       0.1117483       33.01476
2018    27      1       0.08998987      27.71105
2018    27      2       0.08273268      25.94719
2018    27      3       0.09440098      28.85696
2018    27      4       0.09768352      29.65107
2018    27      5       0.0790818       25.12532
2018    27      6       0.0509494       17.94294
2018    27      7       0.07618018      24.2837
2018    28      0       0.1091188       32.16072
2018    28      1       0.1202448       34.6978
2018    28      2       0.1497315       41.62418
2018    28      3       0.1715121       46.73382
2018    28      4       0.172526        46.90835
2018    28      5       0.1437748       40.48089
2018    28      6       0.1459199       40.85289
2018    28      7       0.2091218       54.62302
2018    29      0       0.2622501       65.63671
2018    29      1       0.3312769       79.30657
2018    29      2       0.2886121       71.5587
2018    29      3       0.3013329       74.41025
2018    29      4       0.2806981       70.28939
2018    29      5       0.2336237       60.54753
2018    29      6       0.2077431       54.97963
2018    29      7       0.2029799       53.79963
2018    30      0       0.254716        64.37526
2018    30      1       0.2630844       66.25431
2018    30      2       0.3121428       76.18611
2018    30      3       0.3268265       78.96028
2018    30      4       0.223373        58.36454
2018    30      5       0.1713158       47.07016
2018    30      6       0.1571246       43.79027
2018    30      7       0.157903        43.73259
2018    31      0       0.1422386       40.06639
2018    31      1       0.1277056       36.80123
2018    31      2       0.1342362       38.27912
2018    31      3       0.1424344       40.22866
2018    31      4       0.1615383       44.60923
2018    31      5       0.1644697       45.30603
2018    31      6       0.1723905       46.91609
2018    31      7       0.1600988       44.0491
