####################################################################################################
# Month: 08Aug                                                                                     #
# Station: HAN                                                                                     #
# Frequency: 345 GHz                                                                               #
# Columns are: year    day     segment         tau     Tb (K)                                      #
####################################################################################################
2009    1       0       1.151197        184.6948
2009    1       1       1.173026        186.9366
2009    1       2       1.045495        177.0913
2009    1       3       0.9947563       173.1795
2009    1       4       1.138682        186.5067
2009    1       5       1.040176        177.58
2009    1       6       0.7647302       147.0651
2009    1       7       0.7479447       144.9408
2009    2       0       0.7816485       148.4248
2009    2       1       0.8452973       155.8623
2009    2       2       0.8633533       159.0675
2009    2       3       0.9301341       167.2741
2009    2       4       1.027529        176.66
2009    2       5       0.9531246       169.0128
2009    2       6       0.8139026       153.7257
2009    2       7       0.7504349       145.8071
2009    3       0       0.7572998       146.1667
2009    3       1       0.7556623       146.3404
2009    3       2       0.7403038       145.4972
2009    3       3       0.7848335       151.4969
2009    3       4       0.7760934       150.7132
2009    3       5       0.6395732       132.1912
2009    3       6       0.4928542       109.6282
2009    3       7       0.4638734       104.9551
2009    4       0       0.5315176       115.8721
2009    4       1       0.6133617       128.0567
2009    4       2       0.5718339       122.7703
2009    4       3       0.6132355       129.0541
2009    4       4       0.5231194       115.5862
2009    4       5       0.3504131       85.3158
2009    4       6       0.2724365       70.10006
2009    4       7       0.2934273       74.24813
2009    5       0       0.3476396       84.52294
2009    5       1       0.4035518       94.48801
2009    5       2       0.4181718       97.67797
2009    5       3       0.5255788       115.6522
2009    5       4       0.5305463       116.0294
2009    5       5       0.463321        105.0956
2009    5       6       0.445042        101.9666
2009    5       7       0.508186        112.2246
2009    6       0       0.572611        121.602
2009    6       1       0.6477985       132.2047
2009    6       2       0.5846928       123.973
2009    6       3       0.6001297       126.5761
2009    6       4       0.486576        108.6487
2009    6       5       0.5387103       116.373
2009    6       6       0.6372078       130.46
2009    6       7       0.6825749       136.3203
2009    7       0       0.6631101       133.6371
2009    7       1       0.6763735       135.5263
2009    7       2       0.7299561       143.1264
2009    7       3       0.9419237       167.7029
2009    7       4       0.9601387       169.2693
2009    7       5       0.9973762       172.6853
2009    7       6       0.9742565       170.1775
2009    7       7       0.9480155       167.0289
2009    8       0       0.9449502       166.2328
2009    8       1       0.9598783       167.6516
2009    8       2       0.898363        162.1441
2009    8       3       0.8780514       160.2779
2009    8       4       0.8150385       152.7596
2009    8       5       0.8864442       160.2865
2009    8       6       0.9423209       165.9729
2009    8       7       0.942921        165.9811
2009    9       0       0.890653        160.452
2009    9       1       0.8293425       153.44
2009    9       2       0.7649462       146.3709
2009    9       3       0.782561        149.0795
2009    9       4       0.8205969       152.8013
2009    9       5       0.7238522       140.603
2009    9       6       0.6024316       123.8328
2009    9       7       0.6146053       125.0686
2009    10      0       0.645414        129.1221
2009    10      1       0.6949044       135.8547
2009    10      2       0.7491223       143.6162
2009    10      3       0.8753249       159.4015
2009    10      4       1.003967        172.7579
2009    10      5       0.8419303       156.1411
2009    10      6       0.6068376       126.167
2009    10      7       0.5167598       112.3377
2009    11      0       0.5255226       113.764
2009    11      1       0.6030742       125.1791
2009    11      2       0.5944933       124.4584
2009    11      3       0.6056215       126.505
2009    11      4       0.5622062       120.4825
2009    11      5       0.5093637       112.254
2009    11      6       0.468304        105.2198
2009    11      7       0.4509879       101.9575
2009    12      0       0.4295357       98.55664
2009    12      1       0.4375983       100.2823
2009    12      2       0.457701        103.8289
2009    12      3       0.4351596       100.4542
2009    12      4       0.3909402       92.80872
2009    12      5       0.341116        83.45668
2009    12      6       0.3339715       81.71874
2009    12      7       0.4619594       104.2176
2009    13      0       0.6119533       127.4876
2009    13      1       0.6124877       127.7592
2009    13      2       0.6845762       138.2922
2009    13      3       0.736663        145.5123
2009    13      4       0.7638936       148.215
2009    13      5       0.7477759       145.7497
2009    13      6       0.6965845       138.5892
2009    13      7       0.7124863       140.097
2009    14      0       0.772073        147.4585
2009    14      1       0.8238304       153.6594
2009    14      2       0.8643971       159.1027
2009    14      3       0.8962405       163.1106
2009    14      4       0.9850086       172.1107
2009    14      5       0.7869422       149.3743
2009    14      6       0.6345633       128.5328
2009    14      7       0.7039575       138.3595
2009    15      0       0.7342425       142.3246
2009    15      1       0.7796889       148.0603
2009    15      2       0.8215905       153.5131
2009    15      3       0.8237523       154.6716
2009    15      4       0.839439        156.0587
2009    15      5       0.6515618       132.311
2009    15      6       0.5133414       111.7475
2009    15      7       0.5545668       117.6997
2009    16      0       0.5907572       122.7202
2009    16      1       0.6778905       134.4229
2009    16      2       0.7658936       145.8896
2009    16      3       0.9190317       163.4826
2009    16      4       1.169099        187.3146
2009    16      5       1.466469        208.779
2009    16      6       1.634744        217.9971
2009    16      7       1.645942        217.5816
2009    17      0       1.253778        193.875
2009    17      1       1.113401        182.9619
2009    17      2       0.9445903       167.3366
2009    17      3       0.7876157       150.349
2009    17      4       1.105715        182.0325
2009    17      5       1.274396        195.315
2009    17      6       1.259802        193.7363
2009    17      7       1.308623        196.6259
2009    18      0       1.186613        187.9337
2009    18      1       1.058385        176.7071
2009    18      2       0.9179965       163.7826
2009    18      3       0.899323        162.2795
2009    18      4       1.016558        173.5529
2009    18      5       1.074578        178.3242
2009    18      6       1.065677        176.6829
2009    18      7       1.07804         177.6988
2009    19      0       0.9611252       166.5656
2009    19      1       0.6902461       135.9176
2009    19      2       0.4999416       108.9553
2009    19      3       0.513748        111.516
2009    19      4       0.5770466       120.6512
2009    19      5       0.5313075       113.8449
2009    19      6       0.4395471       98.96623
2009    19      7       0.4203679       95.19761
2009    20      0       0.3526359       83.23455
2009    20      1       0.3546434       83.70275
2009    20      2       0.327213        79.08148
2009    20      3       0.3528162       83.88368
2009    20      4       0.3882365       90.34937
2009    20      5       0.3854143       89.94496
2009    20      6       0.372756        87.61776
2009    20      7       0.3639367       85.7653
2009    21      0       0.3438427       81.90422
2009    21      1       0.3806252       88.4088
2009    21      2       0.4065245       92.86981
2009    21      3       0.4391167       98.76367
2009    21      4       0.5105629       110.3758
2009    21      5       0.5552235       116.9962
2009    21      6       0.5846356       120.892
2009    21      7       0.5830862       120.7537
2009    22      0       0.5606758       117.5714
2009    22      1       0.560465        117.4623
2009    22      2       0.5104313       110.0905
2009    22      3       0.4739482       104.8412
2009    22      4       0.509105        110.1108
2009    22      5       0.5357562       114.2575
2009    22      6       0.5414094       114.8617
2009    22      7       0.5341474       113.5052
2009    23      0       0.5194164       111.3833
2009    23      1       0.5283794       112.8441
2009    23      2       0.4874407       106.8124
2009    23      3       0.4889784       107.1839
2009    23      4       0.488822        106.9586
2009    23      5       0.4813103       105.6509
2009    23      6       0.5025372       108.8798
2009    23      7       0.5341176       113.7542
2009    24      0       0.5397859       114.7011
2009    24      1       0.5289435       112.8906
2009    24      2       0.4789412       105.6975
2009    24      3       0.4940405       108.3496
2009    24      4       0.4931007       108.2092
2009    24      5       0.5613093       118.4037
2009    24      6       0.6359199       128.4645
2009    24      7       0.6533319       130.3609
2009    25      0       0.6449174       129.2888
2009    25      1       0.6685211       132.688
2009    25      2       0.6744491       133.9015
2009    25      3       0.680377        135.3952
2009    25      4       0.7641923       145.676
2009    25      5       0.8510298       155.4062
2009    25      6       0.8420521       154.5807
2009    25      7       0.8034044       149.8768
2009    26      0       0.8230048       152.2743
2009    26      1       0.7934102       148.2705
2009    26      2       0.7836625       148.7793
2009    26      3       0.8134347       152.3811
2009    26      4       0.8312067       153.9022
2009    26      5       0.8198684       152.4383
2009    26      6       0.8711487       158.008
2009    26      7       0.9368355       164.4523
2009    27      0       0.8699671       157.348
2009    27      1       0.7754462       146.874
2009    27      2       0.6612834       133.0528
2009    27      3       0.6107833       126.6376
2009    27      4       0.5630055       119.8173
2009    27      5       0.5301941       114.4606
2009    27      6       0.523042        113.1527
2009    27      7       0.5359931       114.289
2009    28      0       0.5698544       119.2157
2009    28      1       0.6496679       130.9698
2009    28      2       0.7346775       141.9515
2009    28      3       0.8864583       160.2312
2009    28      4       0.9451262       166.3984
2009    28      5       0.9294575       164.4533
2009    28      6       0.8929323       160.1705
2009    28      7       0.935285        164.0696
2009    29      0       0.8815179       158.2223
2009    29      1       0.8518298       154.4383
2009    29      2       0.9115299       161.2362
2009    29      3       1.103856        179.9884
2009    29      4       1.28457         194.8486
2009    29      5       1.29026         195.8067
2009    29      6       1.296157        195.4997
2009    29      7       1.206794        188.5234
2009    30      0       1.185788        186.8429
2009    30      1       1.113234        180.9846
2009    30      2       1.158477        185.5311
2009    30      3       1.37478         201.0792
2009    30      4       1.579409        213.363
2009    30      5       1.507806        209.4059
2009    30      6       1.583533        213.2897
2009    30      7       1.555872        211.7454
2009    31      0       1.564908        212.1067
2009    31      1       1.675719        217.6028
2009    31      2       1.595731        214.3513
2009    31      3       1.780125        223.4762
2009    31      4       1.739673        221.5747
2009    31      5       1.530286        210.7536
2009    31      6       1.479288        207.5253
2009    31      7       1.397343        202.2546
2010    1       0       1.4924          209.1559
2010    1       1       1.512311        210.9506
2010    1       2       1.749346        223.7756
2010    1       3       1.910617        231.1228
2010    1       4       1.964228        233.0795
2010    1       5       1.932994        231.2446
2010    1       6       1.828009        226.6925
2010    1       7       1.637027        217.6061
2010    2       0       1.525895        211.602
2010    2       1       1.532374        211.5579
2010    2       2       1.560554        213.5063
2010    2       3       1.618156        217.3907
2010    2       4       1.811075        226.7848
2010    2       5       1.843585        228.1185
2010    2       6       1.553143        214.3845
2010    2       7       1.624337        217.7196
2010    3       0       1.538607        212.9264
2010    3       1       1.454367        208.1478
2010    3       2       1.521208        212.929
2010    3       3       1.571175        216.9341
2010    3       4       1.595574        218.7678
2010    3       5       1.765906        226.8266
2010    3       6       1.777398        227.695
2010    3       7       1.831285        229.6989
2010    4       0       1.942599        233.6368
2010    4       1       1.829611        229.203
2010    4       2       1.70443         224.1913
2010    4       3       1.773048        228.1659
2010    4       4       1.852231        231.9637
2010    4       5       1.768168        228.4456
2010    4       6       1.762335        228.045
2010    4       7       1.684352        224.3709
2010    5       0       1.519629        215.2519
2010    5       1       1.355061        204.9057
2010    5       2       1.439245        210.796
2010    5       3       1.760111        228.5971
2010    5       4       1.672551        225.1691
2010    5       5       1.814208        231.3253
2010    5       6       2.18905         243.9336
2010    5       7       2.02199         238.5012
2010    6       0       1.968608        236.552
2010    6       1       1.987847        235.8573
2010    6       2       1.951699        234.9744
2010    6       3       2.004817        237.0655
2010    6       4       2.007133        237.6752
2010    6       5       1.951188        235.6909
2010    6       6       1.83381         231.0699
2010    6       7       1.747495        226.1527
2010    7       0       1.633834        220.1562
2010    7       1       1.59621         217.3833
2010    7       2       1.701246        223.6968
2010    7       3       1.767285        227.5275
2010    7       4       1.792581        228.3451
2010    7       5       1.672734        222.6524
2010    7       6       1.608718        219.3519
2010    7       7       1.81755         228.9753
2010    8       0       1.869144        230.4813
2010    8       1       1.782138        226.1401
2010    8       2       1.771498        226.3862
2010    8       3       1.846675        230.4989
2010    8       4       2.077049        239.0866
2010    8       5       2.076764        237.8683
2010    8       6       1.969943        233.0772
2010    8       7       1.74274         223.6956
2010    9       0       1.616263        217.5121
2010    9       1       1.606296        216.7196
2010    9       2       1.740155        223.5023
2010    9       3       1.890546        230.6229
2010    9       4       2.059596        237.1384
2010    9       5       1.897889        230.5893
2010    9       6       1.70874         221.8288
2010    9       7       1.597704        215.6092
2010    10      0       1.334087        199.7756
2010    10      1       1.265748        195.045
2010    10      2       1.349501        201.4092
2010    10      3       1.58044         215.6328
2010    10      4       1.656006        219.6158
2010    10      5       1.495333        211.7165
2010    10      6       1.570711        214.9941
2010    10      7       1.559652        214.0138
2010    11      0       1.45478         207.8773
2010    11      1       1.457593        207.9044
2010    11      2       1.58887         215.8079
2010    11      3       1.826236        227.3614
2010    11      4       1.971929        233.0741
2010    11      5       1.788374        225.8929
2010    11      6       1.742195        223.5007
2010    11      7       1.688066        220.8671
2010    12      0       1.824675        226.43
2010    12      1       1.679051        220.2434
2010    12      2       1.693762        221.6717
2010    12      3       1.729726        223.9709
2010    12      4       1.897542        231.603
2010    12      5       1.835953        228.9496
2010    12      6       1.836575        228.6126
2010    12      7       1.94763         232.5459
2010    13      0       1.85739         227.9897
2010    13      1       1.769062        224.2776
2010    13      2       1.751795        224.9397
2010    13      3       1.886196        231.9173
2010    13      4       2.066133        239.0369
2010    13      5       2.102408        239.8683
2010    13      6       2.056573        238.0997
2010    13      7       2.142212        240.4067
2010    14      0       2.033351        236.5949
2010    14      1       2.033134        236.8474
2010    14      2       2.038684        238.1934
2010    14      3       2.077492        240.6208
2010    14      4       2.095182        241.4363
2010    14      5       2.178629        242.9515
2010    14      6       1.796459        228.198
2010    14      7       1.80459         227.9183
2010    15      0       1.83303         229.0091
2010    15      1       1.687289        222.1973
2010    15      2       1.749373        226.0606
2010    15      3       1.773181        228.102
2010    15      4       1.901813        233.5635
2010    15      5       1.982209        235.9565
2010    15      6       1.977862        235.4962
2010    15      7       1.93415         233.0888
2010    16      0       1.852767        228.9856
2010    16      1       1.719205        222.6045
2010    16      2       1.683365        222.1542
2010    16      3       1.869787        231.3066
2010    16      4       1.998202        236.5252
2010    16      5       1.847121        229.9549
2010    16      6       1.598459        217.8866
2010    16      7       1.648269        219.4586
2010    17      0       1.543794        213.6747
2010    17      1       1.471814        209.5241
2010    17      2       1.593494        216.8205
2010    17      3       1.753664        225.3493
2010    17      4       1.94626         233.3468
2010    17      5       1.708491        223.1305
2010    17      6       1.523776        213.129
2010    17      7       1.489811        210.6458
2010    18      0       1.423702        206.3248
2010    18      1       1.455944        208.2267
2010    18      2       1.518942        212.5751
2010    18      3       1.69299         222.0212
2010    18      4       1.858283        228.9403
2010    18      5       1.505199        211.7256
2010    18      6       1.325782        199.7143
2010    18      7       1.167136        187.3414
2010    19      0       1.138925        184.8241
2010    19      1       1.061729        178.1946
2010    19      2       1.081034        180.3813
2010    19      3       1.129937        185.7732
2010    19      4       1.143688        187.4325
2010    19      5       0.9956822       174.0917
2010    19      6       1.043686        177.09
2010    19      7       1.092405        180.9959
2010    20      0       1.559157        212.095
2010    20      1       1.605865        215.3187
2010    20      2       1.533638        213.1075
2010    20      3       1.611809        217.9996
2010    20      4       1.454415        208.9333
2010    20      5       1.131835        185.4272
2010    20      6       1.330957        199.2849
2010    20      7       1.404639        203.685
2010    21      0       1.557925        212.4809
2010    21      1       1.757392        222.4362
2010    21      2       1.80687         225.7842
2010    21      3       1.783761        226.2043
2010    21      4       1.741583        223.9533
2010    21      5       1.574709        213.96
2010    21      6       1.414096        202.7478
2010    21      7       1.493615        206.504
2010    22      0       1.445695        203.3091
2010    22      1       1.449895        203.3362
2010    22      2       1.259638        192.1394
2010    22      3       1.197012        188.6278
2010    22      4       1.189386        188.2461
2010    22      5       1.029307        173.8469
2010    22      6       1.060036        175.6689
2010    22      7       1.242669        190.6035
2010    23      0       1.336586        197.1657
2010    23      1       1.436428        203.9372
2010    23      2       1.501307        208.8248
2010    23      3       1.599664        215.6427
2010    23      4       1.606791        216.2263
2010    23      5       1.438848        206.5708
2010    23      6       1.242217        192.5546
2010    23      7       1.201853        188.8445
2010    24      0       1.202094        188.4295
2010    24      1       1.08774         179.3721
2010    24      2       1.33329         198.417
2010    24      3       1.504487        210.4385
2010    24      4       1.31524         198.7489
2010    24      5       0.9736676       170.4076
2010    24      6       0.8504962       156.675
2010    24      7       0.6651699       133.6177
2010    25      0       0.5989495       124.5272
2010    25      1       0.7206739       141.081
2010    25      2       1.127141        184.3808
2010    25      3       1.592999        215.6389
2010    25      4       1.672278        219.0086
2010    25      5       1.284816        195.5909
2010    25      6       1.261654        193.4146
2010    25      7       1.325418        197.8471
2010    26      0       1.326716        197.7844
2010    26      1       1.503469        208.9087
2010    26      2       1.616887        216.255
2010    26      3       1.717631        222.2235
2010    26      4       1.848108        227.8481
2010    26      5       1.672807        219.8304
2010    26      6       1.557838        213.511
2010    26      7       1.479332        208.8662
2010    27      0       1.401308        204.0958
2010    27      1       1.246579        193.3292
2010    27      2       1.207522        191.068
2010    27      3       1.245691        194.8139
2010    27      4       1.369315        203.3399
2010    27      5       1.321299        199.8971
2010    27      6       1.264704        195.4441
2010    27      7       1.265251        194.7372
2010    28      0       1.2267          191.4414
2010    28      1       1.164205        186.4087
2010    28      2       1.173623        187.9745
2010    28      3       1.206243        191.1705
2010    28      4       1.063259        179.0735
2010    28      5       0.9408177       166.82
2010    28      6       0.8101749       152.141
2010    28      7       0.7058221       138.936
2010    29      0       0.6444353       130.4985
2010    29      1       0.5928557       123.2779
2010    29      2       0.5837759       122.1148
2010    29      3       0.5885572       122.9999
2010    29      4       0.5574168       118.5201
2010    29      5       0.5150198       111.8014
2010    29      6       0.4781702       105.818
2010    29      7       0.4760826       105.2685
2010    30      0       0.4776875       105.4884
2010    30      1       0.5467054       116.1789
2010    30      2       0.5864225       122.2284
2010    30      3       0.7225945       140.992
2010    30      4       0.7775098       147.9683
2010    30      5       0.7511893       144.5349
2010    30      6       0.7433755       143.105
2010    30      7       0.7174642       139.6388
2010    31      0       0.7307924       141.0305
2010    31      1       0.8176321       151.2933
2010    31      2       0.9346289       164.3472
2010    31      3       1.323186        196.9949
2010    31      4       1.459697        206.2644
2010    31      5       1.308259        196.726
2010    31      6       1.137986        184.1662
2010    31      7       1.144767        184.3725
2011    1       0       0.9228942       165.9702
2011    1       1       0.896951        163.2863
2011    1       2       0.9615532       170.2107
2011    1       3       1.114494        185.4796
2011    1       4       1.177814        191.678
2011    1       5       1.119982        185.9096
2011    1       6       1.074412        181.4646
2011    1       7       1.107474        184.2952
2011    2       0       1.216632        192.4222
2011    2       1       1.193465        190.4817
2011    2       2       1.177015        190.8364
2011    2       3       1.096244        184.8598
2011    2       4       1.007549        176.4581
2011    2       5       0.9606498       170.5952
2011    2       6       1.078806        180.1372
2011    2       7       1.06746         177.8356
2011    3       0       1.077884        178.0268
2011    3       1       1.010003        172.1039
2011    3       2       0.9954156       172.3903
2011    3       3       1.057821        179.4547
2011    3       4       1.1055          183.6578
2011    3       5       0.9291391       166.2675
2011    3       6       0.7272848       142.2877
2011    3       7       0.6948015       136.9772
2011    4       0       0.7821173       147.7174
2011    4       1       0.8163072       151.6578
2011    4       2       0.8609635       157.3788
2011    4       3       0.9663077       168.8461
2011    4       4       1.147965        184.7231
2011    4       5       1.125376        182.5096
2011    4       6       0.9979245       171.0002
2011    4       7       1.012713        172.1802
2011    5       0       1.058497        176.1418
2011    5       1       1.01962         172.1177
2011    5       2       1.020822        172.7659
2011    5       3       1.050599        176.4573
2011    5       4       1.119918        182.5997
2011    5       5       0.9768636       169.3135
2011    5       6       0.8080617       150.3897
2011    5       7       0.733947        140.9649
2011    6       0       0.7030206       136.847
2011    6       1       0.7115954       137.9735
2011    6       2       0.7204272       139.6225
2011    6       3       0.7718357       147.0232
2011    6       4       0.8874607       160.0339
2011    6       5       0.8336833       154.1642
2011    6       6       0.9052322       161.1913
2011    6       7       0.8415258       154.2045
2011    7       0       0.8576243       155.5233
2011    7       1       0.9595842       165.4761
2011    7       2       1.060654        175.6067
2011    7       3       1.280523        194.3772
2011    7       4       1.454535        206.3271
2011    7       5       1.16539         186.6044
2011    7       6       1.118211        181.6447
2011    7       7       1.193034        187.5461
2011    8       0       1.478958        207.4966
2011    8       1       1.700927        219.478
2011    8       2       1.785919        224.5652
2011    8       3       1.676594        221.0398
2011    8       4       1.982763        234.3239
2011    8       5       1.786493        226.4024
2011    8       6       1.643425        219.6166
2011    8       7       1.698522        221.5943
2011    9       0       1.616085        217.1246
2011    9       1       1.462853        208.5448
2011    9       2       1.565639        215.7944
2011    9       3       1.78216         227.8168
2011    9       4       1.796692        229.1452
2011    9       5       1.552091        217.4358
2011    9       6       1.598311        219.5164
2011    9       7       1.770626        226.6895
2011    10      0       1.730761        224.0878
2011    10      1       1.677007        221.5147
2011    10      2       1.796847        228.1506
2011    10      3       1.982757        235.9737
2011    10      4       2.155686        240.8074
2011    10      5       1.985335        233.976
2011    10      6       1.705431        221.673
2011    10      7       1.602422        215.6718
2011    11      0       1.503908        210.6758
2011    11      1       1.259232        193.6911
2011    11      2       1.379554        202.0487
2011    11      3       1.690529        219.9362
2011    11      4       1.839521        226.9483
2011    11      5       1.291195        196.9721
2011    11      6       1.171456        186.6395
2011    11      7       1.059513        176.2322
2011    12      0       1.124032        181.0917
2011    12      1       1.275851        192.7533
2011    12      2       1.237659        191.0098
2011    12      3       1.214616        190.393
2011    12      4       1.195587        188.8954
2011    12      5       1.174939        187.0692
2011    12      6       1.266022        193.6273
2011    12      7       1.550358        210.9425
2011    13      0       1.474744        206.4828
2011    13      1       1.397503        202.4154
2011    13      2       1.497011        210.4473
2011    13      3       1.712043        222.5249
2011    13      4       1.94033         231.9098
2011    13      5       1.843754        227.3917
2011    13      6       1.774084        223.7288
2011    13      7       1.713557        220.3164
2011    14      0       1.739203        221.2613
2011    14      1       1.668251        217.9527
2011    14      2       1.701976        220.2164
2011    14      3       1.632201        218.2719
2011    14      4       1.617464        217.5857
2011    14      5       1.496978        210.8827
2011    14      6       1.612198        216.1269
2011    14      7       1.668807        218.6054
2011    15      0       1.753662        222.2419
2011    15      1       1.810168        224.7383
2011    15      2       1.827098        225.9394
2011    15      3       1.891179        229.7787
2011    15      4       2.013466        233.3861
2011    15      5       1.844271        226.1206
2011    15      6       1.785703        223.3368
2011    15      7       1.765285        222.3441
2011    16      0       1.827929        225.2228
2011    16      1       1.761367        221.6669
2011    16      2       1.697629        219.1185
2011    16      3       1.605892        215.4375
2011    16      4       1.400328        202.9283
2011    16      5       1.214628        188.788
2011    16      6       1.26035         191.5227
2011    16      7       1.257637        191.1849
2011    17      0       1.076614        177.0683
2011    17      1       1.123668        181.1684
2011    17      2       0.9969944       170.932
2011    17      3       0.9254131       164.7716
2011    17      4       0.9360323       165.336
2011    17      5       1.0209          173.4289
2011    17      6       1.027751        173.8564
2011    17      7       1.059835        176.4225
2011    18      0       0.9976626       170.6467
2011    18      1       1.012474        172.0563
2011    18      2       1.011499        172.7487
2011    18      3       1.146746        185.3225
2011    18      4       1.257503        193.6688
2011    18      5       1.171231        186.9128
2011    18      6       1.152842        185.2146
2011    18      7       1.295509        195.7867
2011    19      0       1.342625        198.8957
2011    19      1       1.253168        192.6151
2011    19      2       1.191662        188.7907
2011    19      3       1.236436        192.9417
2011    19      4       1.200292        190.1829
2011    19      5       1.04101         176.4623
2011    19      6       0.9672709       168.9448
2011    19      7       1.016995        172.874
2011    20      0       1.126915        182.5187
2011    20      1       1.220391        190.0952
2011    20      2       1.29235         196.235
2011    20      3       1.326399        199.1754
2011    20      4       1.189098        189.0517
2011    20      5       0.8840162       160.4416
2011    20      6       0.7781181       148.1521
2011    20      7       0.8074492       151.6336
2011    21      0       0.9131853       163.9601
2011    21      1       0.8618151       158.3684
2011    21      2       0.8670776       159.6248
2011    21      3       0.9147976       165.1156
2011    21      4       0.9282551       166.5384
2011    21      5       0.9529843       168.761
2011    21      6       0.9790369       170.9369
2011    21      7       1.04747         176.7549
2011    22      0       1.026553        174.4856
2011    22      1       1.036205        175.621
2011    22      2       1.062663        179.2641
2011    22      3       1.010407        175.1537
2011    22      4       0.9358892       167.3636
2011    22      5       0.8721638       160.2612
2011    22      6       1.010719        173.7422
2011    22      7       1.195157        189.9612
2011    23      0       1.262134        195.4219
2011    23      1       1.253295        194.9964
2011    23      2       1.27616         197.1563
2011    23      3       1.240737        194.8301
2011    23      4       1.060548        179.8086
2011    23      5       0.8822633       161.9585
2011    23      6       0.7775846       149.5985
2011    23      7       0.7236087       142.4414
2011    24      0       0.6855354       137.3352
2011    24      1       0.6153045       128.0176
2011    24      2       0.6303142       130.0996
2011    24      3       0.6542289       133.6219
2011    24      4       0.6593122       133.7493
2011    24      5       0.5566847       119.1086
2011    24      6       0.4805182       106.9024
2011    24      7       0.4438885       100.7885
2011    25      0       0.430021        98.50023
2011    25      1       0.4361801       99.47788
2011    25      2       0.4988062       109.8492
2011    25      3       0.5894864       123.4429
2011    25      4       0.6489472       131.4254
2011    25      5       0.7358174       143.6389
2011    25      6       0.9834346       171.7342
2011    25      7       1.157197        187.2983
2011    26      0       1.198248        191.1103
2011    26      1       1.186519        189.5747
2011    26      2       1.245679        193.8549
2011    26      3       1.343506        201.6058
2011    26      4       1.666119        220.259
2011    26      5       1.416532        206.3692
2011    26      6       1.406129        205.2994
2011    26      7       1.449795        207.5978
2011    27      0       1.42985         206.1921
2011    27      1       1.481614        209.0952
2011    27      2       1.452387        208.308
2011    27      3       1.705854        222.6441
2011    27      4       1.374562        204.6466
2011    27      5       1.173856        189.3228
2011    27      6       1.275673        196.5953
2011    27      7       1.408097        205.6927
2011    28      0       1.478635        209.6908
2011    28      1       1.448745        207.8496
2011    28      2       1.733102        222.882
2011    28      3       1.80748         226.7269
2011    28      4       1.936347        231.9723
2011    28      5       1.790574        226.3202
2011    28      6       1.776656        225.6229
2011    28      7       1.73271         223.4408
2011    29      0       1.635385        218.2105
2011    29      1       1.575634        214.8005
2011    29      2       1.538776        213.7533
2011    29      3       1.705537        223.0994
2011    29      4       1.805881        227.2335
2011    29      5       1.55822         215.2891
2011    29      6       1.392198        204.8304
2011    29      7       1.329449        199.9168
2011    30      0       1.334372        199.837
2011    30      1       1.213404        190.5134
2011    30      2       1.132009        184.9227
2011    30      3       1.293003        197.9687
2011    30      4       1.331527        200.72
2011    30      5       1.239055        193.9671
2011    30      6       1.257468        194.1868
2011    30      7       1.167137        186.6219
2011    31      0       1.143855        184.3781
2011    31      1       1.13075         183.4126
2011    31      2       1.145812        185.6174
2011    31      3       1.258072        195.2385
2011    31      4       1.353189        201.9467
2011    31      5       1.29211         197.4743
2011    31      6       1.35669         200.9118
2011    31      7       1.304318        196.5771
2012    1       0       1.659455        221.532
2012    1       1       1.68877         223.332
2012    1       2       1.608232        220.422
2012    1       3       1.610723        221.6379
2012    1       4       1.686486        225.0244
2012    1       5       1.7263          226.3532
2012    1       6       1.645916        221.9342
2012    1       7       1.59578         218.7827
2012    2       0       1.555921        216.4502
2012    2       1       1.598196        219.0463
2012    2       2       1.604321        220.5216
2012    2       3       1.536561        217.3873
2012    2       4       1.490882        214.1113
2012    2       5       1.364191        205.4293
2012    2       6       1.35875         205.3766
2012    2       7       1.601707        217.6789
2012    3       0       1.765451        225.1047
2012    3       1       1.681618        221.5359
2012    3       2       1.511514        213.9143
2012    3       3       1.552976        216.8388
2012    3       4       1.700275        224.2292
2012    3       5       1.801626        228.0048
2012    3       6       1.790649        225.4602
2012    3       7       1.849491        227.8642
2012    4       0       1.591854        215.0349
2012    4       1       1.438683        205.8911
2012    4       2       1.123856        183.7741
2012    4       3       1.064912        178.8281
2012    4       4       0.9947285       171.8932
2012    4       5       0.8639446       158.5862
2012    4       6       0.7967814       150.6259
2012    4       7       0.9261303       164.0571
2012    5       0       0.931582        163.9893
2012    5       1       0.9415604       164.8399
2012    5       2       1.01465         172.813
2012    5       3       1.145234        185.0139
2012    5       4       1.187515        188.1846
2012    5       5       1.164519        186.5557
2012    5       6       1.173073        186.8089
2012    5       7       1.138797        183.8972
2012    6       0       1.113657        181.9172
2012    6       1       1.113027        182.1595
2012    6       2       1.177026        187.8844
2012    6       3       1.141228        185.4614
2012    6       4       1.218762        191.453
2012    6       5       1.267811        195.0611
2012    6       6       1.386707        202.9659
2012    6       7       1.552258        212.9287
2012    7       0       1.728613        221.8666
2012    7       1       1.805887        225.2241
2012    7       2       1.668875        220.24
2012    7       3       1.756841        225.4362
2012    7       4       1.902472        230.8823
2012    7       5       1.718599        222.5462
2012    7       6       1.519092        212.027
2012    7       7       1.495199        210.0367
2012    8       0       1.384132        202.4251
2012    8       1       1.398979        203.2749
2012    8       2       1.525779        211.2751
2012    8       3       1.667247        219.5726
2012    8       4       1.885523        229.4246
2012    8       5       1.842776        227.1993
2012    8       6       1.676857        219.4067
2012    8       7       1.586183        215.1015
2012    9       0       1.759641        223.6081
2012    9       1       1.730012        222.6346
2012    9       2       1.678844        220.6758
2012    9       3       1.761004        224.7648
2012    9       4       1.88355         230.2546
2012    9       5       1.83634         228.5173
2012    9       6       1.791074        226.1497
2012    9       7       1.811575        226.7771
2012    10      0       1.502084        210.7336
2012    10      1       1.415969        205.4209
2012    10      2       1.656526        219.7573
2012    10      3       1.954241        233.692
2012    10      4       1.971391        233.8497
2012    10      5       1.941618        232.0774
2012    10      6       1.880264        228.1755
2012    10      7       1.72192         220.8866
2012    11      0       1.516026        210.1873
2012    11      1       1.580807        213.5382
2012    11      2       1.563395        213.2377
2012    11      3       1.591832        215.3872
2012    11      4       1.675323        219.5393
2012    11      5       1.60097         215.9709
2012    11      6       1.546093        212.4919
2012    11      7       1.467212        207.6182
2012    12      0       1.455364        207.1561
2012    12      1       1.427283        205.3859
2012    12      2       1.371928        202.1903
2012    12      3       1.400575        204.7425
2012    12      4       1.42092         206.259
2012    12      5       1.437148        207.1098
2012    12      6       1.514462        211.2177
2012    12      7       1.589551        215.1508
2012    13      0       1.664788        218.5668
2012    13      1       1.640219        217.1189
2012    13      2       1.602622        215.788
2012    13      3       1.569505        215.2069
2012    13      4       1.613373        217.82
2012    13      5       1.46336         209.2655
2012    13      6       1.484128        209.8886
2012    13      7       1.529398        212.1496
2012    14      0       1.52355         211.0078
2012    14      1       1.523094        210.86
2012    14      2       1.582348        214.4106
2012    14      3       1.757003        223.3485
2012    14      4       1.788809        224.8174
2012    14      5       1.788866        224.8193
2012    14      6       1.789134        225.2479
2012    14      7       1.75969         223.3307
2012    15      0       1.720484        221.1917
2012    15      1       1.681951        219.0864
2012    15      2       1.739619        222.6238
2012    15      3       1.819034        227.5854
2012    15      4       1.89049         229.6924
2012    15      5       1.710487        220.9352
2012    15      6       1.628632        216.9338
2012    15      7       1.472415        208.5624
2012    16      0       1.411824        204.9543
2012    16      1       1.639092        217.1603
2012    16      2       1.516386        211.45
2012    16      3       1.563023        214.7028
2012    16      4       1.700448        221.7867
2012    16      5       1.781769        225.7832
2012    16      6       1.858116        228.6425
2012    16      7       1.828885        227.4594
2012    17      0       1.706868        222.0904
2012    17      1       1.783953        225.3459
2012    17      2       1.724811        223.2305
2012    17      3       1.769977        225.4464
2012    17      4       1.883523        230.4665
2012    17      5       1.917018        232.0185
2012    17      6       1.965876        233.4646
2012    17      7       1.848805        228.5249
2012    18      0       1.767071        224.2284
2012    18      1       1.829961        227.5714
2012    18      2       1.79985         227.0274
2012    18      3       1.777646        226.6134
2012    18      4       1.606698        218.6384
2012    18      5       1.486666        212.1463
2012    18      6       1.773337        226.6354
2012    18      7       1.761241        225.9534
2012    19      0       1.698768        223.3294
2012    19      1       1.449893        209.1936
2012    19      2       1.475359        211.6479
2012    19      3       1.496918        213.7098
2012    19      4       1.450109        211.0122
2012    19      5       1.487442        212.9956
2012    19      6       1.460107        210.7711
2012    19      7       1.600006        218.4273
2012    20      0       1.44572         209.1372
2012    20      1       1.227149        193.5662
2012    20      2       1.200427        191.9376
2012    20      3       1.326697        201.6614
2012    20      4       1.229476        194.7611
2012    20      5       1.163756        189.0291
2012    20      6       1.102823        183.555
2012    20      7       1.235381        193.7298
2012    21      0       1.158426        187.1643
2012    21      1       1.203976        189.8424
2012    21      2       1.169428        187.5498
2012    21      3       1.235735        193.2446
2012    21      4       1.182825        189.9099
2012    21      5       1.233346        193.4788
2012    21      6       1.334898        200.3114
2012    21      7       1.305895        198.2446
2012    22      0       1.251437        194.2409
2012    22      1       1.268221        195.1066
2012    22      2       1.420853        205.3258
2012    22      3       1.664493        219.2314
2012    22      4       1.695239        221.7671
2012    22      5       1.492739        211.3928
2012    22      6       1.434687        207.6203
2012    22      7       1.558354        214.2467
2012    23      0       1.515955        211.3313
2012    23      1       1.375968        202.7027
2012    23      2       1.38101         203.0621
2012    23      3       1.323498        199.5795
2012    23      4       1.220421        192.2058
2012    23      5       1.309           198.6873
2012    23      6       1.401656        205.1911
2012    23      7       1.683433        220.8225
2012    24      0       1.662262        219.0601
2012    24      1       1.509511        210.7474
2012    24      2       1.630603        217.7313
2012    24      3       1.822889        227.5776
2012    24      4       1.926269        231.9901
2012    24      5       1.775115        225.9516
2012    24      6       1.771721        225.6592
2012    24      7       1.864736        229.1431
2012    25      0       1.917194        230.772
2012    25      1       1.853207        227.9753
2012    25      2       1.904178        229.3067
2012    25      3       1.827688        225.8322
2012    25      4       1.737864        222.3162
2012    25      5       1.653957        218.8256
2012    25      6       1.715699        221.4817
2012    25      7       1.888051        229.1841
2012    26      0       1.768024        224.0459
2012    26      1       1.703252        220.8589
2012    26      2       1.628243        217.4919
2012    26      3       1.773008        224.6331
2012    26      4       1.929674        230.5135
2012    26      5       1.777291        224.2853
2012    26      6       1.554877        213.4666
2012    26      7       1.585518        214.7716
2012    27      0       1.740518        222.1397
2012    27      1       1.918842        228.8719
2012    27      2       1.822089        225.416
2012    27      3       1.881293        228.0725
2012    27      4       1.866713        227.8537
2012    27      5       1.769877        224.2711
2012    27      6       1.916241        230.28
2012    27      7       1.965874        232.0658
2012    28      0       1.799894        225.1543
2012    28      1       1.739947        221.6326
2012    28      2       1.770424        223.1422
2012    28      3       1.870143        227.8058
2012    28      4       2.000445        232.9658
2012    28      5       1.873491        228.5075
2012    28      6       1.866669        228.4994
2012    28      7       1.784929        225.0554
2012    29      0       1.739828        223.1726
2012    29      1       1.75724         222.8828
2012    29      2       1.605661        215.9678
2012    29      3       1.567487        214.1432
2012    29      4       1.604681        216.1011
2012    29      5       1.45909         207.8532
2012    29      6       1.36293         201.1772
2012    29      7       1.328977        198.7434
2012    30      0       1.343211        199.4388
2012    30      1       1.640354        216.4157
2012    30      2       1.654862        218.0572
2012    30      3       1.540701        213.5143
2012    30      4       1.375488        203.7172
2012    30      5       0.9500607       168.2271
2012    30      6       0.8550628       157.2167
2012    30      7       0.9248131       164.1475
2012    31      0       0.907835        161.9377
2012    31      1       0.8841562       159.2637
2012    31      2       0.8931352       160.9333
2012    31      3       0.9031161       162.7193
2012    31      4       0.8704884       159.534
2012    31      5       0.8456766       156.1217
2012    31      6       0.8610932       156.9754
2012    31      7       0.8342115       153.0722
2013    1       0       0.9026255       162.5065
2013    1       1       0.9248333       163.6689
2013    1       2       0.963182        166.6285
2013    1       3       0.8390579       153.5566
2013    1       4       0.6283286       127.5384
2013    1       5       0.5240989       112.2704
2013    1       6       0.5052923       109.2592
2013    1       7       0.5171482       111.3707
2013    2       0       0.6095609       126.5429
2013    2       1       0.8615092       158.6272
2013    2       2       1.01794         174.4082
2013    2       3       1.162144        187.7683
2013    2       4       1.234297        193.9286
2013    2       5       1.352108        202.7377
2013    2       6       1.361667        203.7637
2013    2       7       1.296861        199.5873
2013    3       0       1.243943        195.427
2013    3       1       1.204315        191.3222
2013    3       2       1.247777        194.5286
2013    3       3       1.395509        205.3841
2013    3       4       1.563718        216.2117
2013    3       5       1.762           226.1492
2013    3       6       1.760409        225.4141
2013    3       7       1.819598        227.1479
2013    4       0       1.497113        211.1331
2013    4       1       1.328103        199.9404
2013    4       2       1.330414        199.945
2013    4       3       1.387646        204.1496
2013    4       4       1.415356        206.7309
2013    4       5       1.690792        222.661
2013    4       6       1.936909        232.8331
2013    4       7       1.957503        233.0751
2013    5       0       1.798844        226.7663
2013    5       1       1.661143        219.9616
2013    5       2       1.783546        225.5929
2013    5       3       1.846236        228.4406
2013    5       4       1.840504        228.4374
2013    5       5       1.447868        209.2762
2013    5       6       1.383377        204.6138
2013    5       7       1.374632        203.3267
2013    6       0       1.243529        193.6042
2013    6       1       1.235705        193.0078
2013    6       2       1.175359        189.5768
2013    6       3       1.32499         201.2538
2013    6       4       1.420304        207.6366
2013    6       5       1.15142         187.8544
2013    6       6       1.104493        183.1513
2013    6       7       1.101728        182.7429
2013    7       0       1.114792        183.1592
2013    7       1       1.155077        186.5734
2013    7       2       1.368229        203.4579
2013    7       3       1.477797        210.6627
2013    7       4       1.618301        218.4917
2013    7       5       1.458337        210.3104
2013    7       6       1.520811        213.8109
2013    7       7       1.648481        219.7901
2013    8       0       1.661965        219.9916
2013    8       1       1.670772        220.4555
2013    8       2       1.626475        219.3666
2013    8       3       1.786051        227.6864
2013    8       4       2.037029        237.1973
2013    8       5       1.591629        218.2322
2013    8       6       1.435091        208.5344
2013    8       7       1.337816        201.2267
2013    9       0       1.310285        199.4255
2013    9       1       1.268524        195.8348
2013    9       2       1.231648        194.1958
2013    9       3       1.229463        194.811
2013    9       4       1.14709         187.9013
2013    9       5       1.13431         186.4842
2013    9       6       1.374839        205.3506
2013    9       7       1.474666        211.1725
2013    10      0       1.54901         215.5547
2013    10      1       1.55237         214.4606
2013    10      2       1.569865        214.5422
2013    10      3       1.73074         223.4852
2013    10      4       1.917389        232.3064
2013    10      5       1.77679         226.3954
2013    10      6       1.649781        220.4358
2013    10      7       1.650484        220.3162
2013    11      0       1.589257        217.5848
2013    11      1       1.715017        223.8692
2013    11      2       1.785672        228.0613
2013    11      3       2.028637        238.5679
2013    11      4       2.365012        248.5684
2013    11      5       2.419717        249.2812
2013    11      6       2.329535        246.7049
2013    11      7       2.262209        244.86
2013    12      0       2.37678         247.1163
2013    12      1       2.108437        240.4382
2013    12      2       2.218219        244.5133
2013    12      3       2.219868        244.3805
2013    12      4       2.156065        242.0866
2013    12      5       1.904553        232.9015
2013    12      6       2.020927        236.3407
2013    12      7       1.954876        233.5162
2013    13      0       1.879881        231.1798
2013    13      1       2.142817        239.7341
2013    13      2       2.12464         240.4266
2013    13      3       2.32982         247.2438
2013    13      4       2.420936        249.0863
2013    13      5       2.306816        245.494
2013    13      6       2.326434        244.8784
2013    13      7       2.042843        236.378
2013    14      0       1.877489        229.9729
2013    14      1       1.809723        227.8183
2013    14      2       2.094721        240.0904
2013    14      3       2.252822        246.2033
2013    14      4       2.487324        251.5051
2013    14      5       2.187117        242.6723
2013    14      6       2.088976        239.0642
2013    14      7       2.156209        240.7755
2013    15      0       2.067451        237.58
2013    15      1       2.043385        236.999
2013    15      2       2.039815        237.8913
2013    15      3       2.019622        237.7998
2013    15      4       2.156256        241.9182
2013    15      5       2.058463        238.4901
2013    15      6       1.959183        234.4354
2013    15      7       1.928912        232.5614
2013    16      0       1.858347        229.6141
2013    16      1       1.814673        228.1627
2013    16      2       1.833522        229.6547
2013    16      3       1.970163        235.3068
2013    16      4       2.222025        243.6098
2013    16      5       2.086257        239.5484
2013    16      6       2.128144        240.6748
2013    16      7       2.08101         238.7353
2013    17      0       1.944904        233.8462
2013    17      1       1.740604        225.6818
2013    17      2       1.768716        227.4892
2013    17      3       1.748643        227.5466
2013    17      4       2.133602        242.096
2013    17      5       2.211789        242.8203
2013    17      6       2.10842         238.4508
2013    17      7       1.996262        234.7153
2013    18      0       1.826474        228.0567
2013    18      1       1.608506        217.1391
2013    18      2       1.611035        217.7138
2013    18      3       1.747281        224.6701
2013    18      4       1.920427        232.1336
2013    18      5       1.801146        227.686
2013    18      6       1.689742        222.3193
2013    18      7       1.704247        223.104
2013    19      0       1.691989        222.5641
2013    19      1       1.664937        219.6451
2013    19      2       1.608164        217.3408
2013    19      3       1.651236        220.7899
2013    19      4       1.787809        227.8551
2013    19      5       1.618505        219.9989
2013    19      6       1.706989        223.5884
2013    19      7       1.630782        218.9809
2013    20      0       1.513761        212.3535
2013    20      1       1.448781        208.7217
2013    20      2       1.53044         214.0325
2013    20      3       1.669104        222.1812
2013    20      4       2.054198        238.0214
2013    20      5       2.144016        239.9357
2013    20      6       2.039667        235.82
2013    20      7       2.043428        235.5653
2013    21      0       1.945868        232.3721
2013    21      1       1.983904        233.593
2013    21      2       1.928513        232.3185
2013    21      3       1.868605        231.4616
2013    21      4       2.096567        239.8802
2013    21      5       2.1545          240.9652
2013    21      6       2.137382        239.2324
2013    21      7       2.020745        234.8814
2013    22      0       1.870702        229.3284
2013    22      1       1.718248        221.7889
2013    22      2       1.679626        220.6141
2013    22      3       1.872862        229.9617
2013    22      4       1.926901        232.9921
2013    22      5       1.872545        230.6174
2013    22      6       1.745613        225.0788
2013    22      7       1.907387        231.1856
2013    23      0       1.872162        229.3719
2013    23      1       1.817575        226.3994
2013    23      2       1.876297        229.124
2013    23      3       1.948843        232.6743
2013    23      4       1.987815        233.973
2013    23      5       1.948265        232.4426
2013    23      6       1.998255        233.8224
2013    23      7       1.86071         228.7113
2013    24      0       1.611654        217.4173
2013    24      1       1.589727        216.17
2013    24      2       1.627339        218.5523
2013    24      3       1.644829        220.1174
2013    24      4       1.713692        223.6806
2013    24      5       1.827297        228.482
2013    24      6       1.94178         231.8706
2013    24      7       1.766782        223.9839
2013    25      0       1.475074        208.8494
2013    25      1       1.379578        202.0933
2013    25      2       1.341908        199.2226
2013    25      3       1.356916        200.9364
2013    25      4       1.547138        212.4396
2013    25      5       1.318874        198.9841
2013    25      6       1.291265        196.6007
2013    25      7       1.178737        188.3289
2013    26      0       1.239894        192.3819
2013    26      1       1.223049        190.9739
2013    26      2       1.321412        198.3981
2013    26      3       1.331564        199.6572
2013    26      4       1.275253        195.7976
2013    26      5       1.179055        188.767
2013    26      6       1.191861        189.572
2013    26      7       1.205877        190.5389
2013    27      0       1.187834        188.766
2013    27      1       1.261389        193.4695
2013    27      2       1.149891        185.3108
2013    27      3       1.207788        190.2875
2013    27      4       1.425303        205.0872
2013    27      5       1.358506        201.5604
2013    27      6       1.375645        202.5452
2013    27      7       1.568502        213.2757
2013    28      0       1.445846        206.3703
2013    28      1       1.259998        193.5867
2013    28      2       1.18133         188.1118
2013    28      3       1.025547        175.5902
2013    28      4       1.060654        178.8495
2013    28      5       1.209196        191.6547
2013    28      6       1.292569        197.7265
2013    28      7       1.340571        200.417
2013    29      0       1.512148        210.5018
2013    29      1       1.66083         217.7506
2013    29      2       1.639441        217.5221
2013    29      3       1.580255        215.8618
2013    29      4       1.621089        217.8387
2013    29      5       1.345873        201.6299
2013    29      6       1.252845        194.762
2013    29      7       1.230779        192.4406
2013    30      0       1.217341        191.2341
2013    30      1       1.277977        195.3046
2013    30      2       1.482118        209.2593
2013    30      3       1.664246        219.7107
2013    30      4       1.734617        222.8431
2013    30      5       1.48507         209.4164
2013    30      6       1.368463        201.7784
2013    30      7       1.386945        202.725
2013    31      0       1.426305        205.027
2013    31      1       1.504967        210.1945
2013    31      2       1.489245        210.5767
2013    31      3       1.612277        218.0322
2013    31      4       1.704979        222.4951
2013    31      5       1.500313        211.4522
2013    31      6       1.468059        208.5969
2013    31      7       1.457046        207.4669
2014    1       0       1.24882         193.5467
2014    1       1       1.409601        204.3915
2014    1       2       1.617309        217.6969
2014    1       3       1.954718        233.5333
2014    1       4       1.892622        231.3048
2014    1       5       1.709858        222.6132
2014    1       6       1.38711         203.6167
2014    1       7       1.326614        198.9442
2014    2       0       1.304576        196.9746
2014    2       1       1.603014        213.666
2014    2       2       1.522402        211.1495
2014    2       3       1.657208        219.9246
2014    2       4       1.89616         230.7999
2014    2       5       1.706865        221.9297
2014    2       6       1.460803        208.2791
2014    2       7       1.498417        209.9473
2014    3       0       1.620264        216.5297
2014    3       1       1.776137        224.0813
2014    3       2       1.839294        227.826
2014    3       3       1.880452        230.3219
2014    3       4       1.958451        233.4476
2014    3       5       1.963078        233.6709
2014    3       6       1.686783        221.2777
2014    3       7       1.303219        198.1329
2014    4       0       1.241695        193.3117
2014    4       1       1.297971        197.7981
2014    4       2       1.386203        205.022
2014    4       3       1.592828        218.259
2014    4       4       1.542733        215.4129
2014    4       5       1.287336        198.7561
2014    4       6       1.156882        187.7326
2014    4       7       1.192041        190.004
2014    5       0       1.100724        182.5992
2014    5       1       1.140183        185.7399
2014    5       2       1.113328        184.4791
2014    5       3       1.070915        181.1017
2014    5       4       0.9265483       166.742
2014    5       5       0.7600071       146.8808
2014    5       6       0.7532121       145.4511
2014    5       7       0.9151274       163.9555
2014    6       0       0.9848339       171.2139
2014    6       1       1.100708        181.3731
2014    6       2       1.241422        194.2238
2014    6       3       1.599037        218.6131
2014    6       4       1.750028        226.7382
2014    6       5       1.383093        206.2807
2014    6       6       1.175296        190.1419
2014    6       7       1.263225        195.9022
2014    7       0       1.221243        191.8274
2014    7       1       1.291799        196.5786
2014    7       2       1.426235        206.7774
2014    7       3       1.683382        221.9281
2014    7       4       1.995702        235.5714
2014    7       5       1.821034        228.7515
2014    7       6       1.915499        231.8146
2014    7       7       1.634009        218.9482
2014    8       0       1.485028        210.6003
2014    8       1       1.443915        208.0779
2014    8       2       1.534163        213.7231
2014    8       3       1.781728        226.7084
2014    8       4       2.136551        240.6788
2014    8       5       1.952586        233.3606
2014    8       6       1.582086        215.6833
2014    8       7       1.344489        201.2378
2014    9       0       1.127788        184.3856
2014    9       1       1.106164        182.2351
2014    9       2       0.9827671       171.9002
2014    9       3       1.102604        183.6568
2014    9       4       1.302287        199.3355
2014    9       5       1.302814        199.1449
2014    9       6       1.234701        193.5765
2014    9       7       1.202715        190.5515
2014    10      0       1.211513        190.6915
2014    10      1       1.234831        192.3442
2014    10      2       1.114481        183.5673
2014    10      3       1.116025        184.5086
2014    10      4       1.306315        199.6997
2014    10      5       1.280678        197.8305
2014    10      6       1.354868        202.2452
2014    10      7       1.413375        205.5733
2014    11      0       1.341703        200.2866
2014    11      1       1.223995        191.6689
2014    11      2       1.090659        181.8185
2014    11      3       1.090227        182.8284
2014    11      4       1.043215        178.4701
2014    11      5       0.9375756       167.5416
2014    11      6       0.9430783       167.9578
2014    11      7       0.987825        172.0806
2014    12      0       1.263371        193.7652
2014    12      1       1.500732        208.4998
2014    12      2       1.34461         200.6019
2014    12      3       1.438699        208.0921
2014    12      4       1.611194        218.4698
2014    12      5       1.766533        225.3963
2014    12      6       1.451032        208.5954
2014    12      7       1.26752         195.855
2014    13      0       1.256403        194.3956
2014    13      1       1.244312        193.4907
2014    13      2       1.198359        190.7011
2014    13      3       1.195272        190.9328
2014    13      4       1.442147        207.5136
2014    13      5       1.516236        212.0914
2014    13      6       1.621696        217.1488
2014    13      7       1.6214          215.0537
2014    14      0       1.496479        207.7494
2014    14      1       1.279037        194.3936
2014    14      2       1.177073        188.0371
2014    14      3       1.053207        178.2271
2014    14      4       0.9768326       170.8214
2014    14      5       0.8071433       152.4078
2014    14      6       0.7163783       140.5232
2014    14      7       0.9638874       167.4432
2014    15      0       1.250504        192.1835
2014    15      1       1.554455        211.9203
2014    15      2       1.525133        211.3364
2014    15      3       1.34494         200.2962
2014    15      4       1.616145        216.1521
2014    15      5       1.387354        202.84
2014    15      6       0.8902925       160.9915
2014    15      7       1.183074        187.4315
2014    16      0       1.447565        205.2465
2014    16      1       1.194022        187.4422
2014    16      2       0.900815        161.2938
2014    16      3       0.659915        133.2315
2014    16      4       0.6288663       128.6156
2014    16      5       0.6761881       135.1491
2014    16      6       0.6102133       125.8779
2014    16      7       0.5708223       119.8846
2014    17      0       0.5216495       112.0428
2014    17      1       0.4368372       98.56528
2014    17      2       0.4008856       92.61234
2014    17      3       0.4241406       96.95727
2014    17      4       0.5033487       109.8673
2014    17      5       0.5606312       118.453
2014    17      6       0.522935        112.4674
2014    17      7       0.4821687       105.9255
2014    18      0       0.3885205       90.26039
2014    18      1       0.3267214       79.14836
2014    18      2       0.2914766       72.50667
2014    18      3       0.2806808       70.32138
2014    18      4       0.2859805       71.28246
2014    18      5       0.2606552       66.33048
2014    18      6       0.2348869       61.18372
2014    18      7       0.2214806       58.42999
2014    19      0       0.2164517       57.34677
2014    19      1       0.2334681       60.87951
2014    19      2       0.2630911       67.03289
2014    19      3       0.3167107       77.49054
2014    19      4       0.329095        79.8457
2014    19      5       0.3214961       78.30323
2014    19      6       0.2819277       70.74497
2014    19      7       0.25931         66.19442
2014    20      0       0.2655445       67.37422
2014    20      1       0.3156422       77.07683
2014    20      2       0.3191359       77.86126
2014    20      3       0.2929002       73.04898
2014    20      4       0.2603085       66.27363
2014    20      5       0.2307214       59.89028
2014    20      6       0.2492107       63.66677
2014    20      7       0.4037631       92.69377
2014    21      0       0.4858226       106.0415
2014    21      1       0.5050786       108.7571
2014    21      2       0.5311724       112.6512
2014    21      3       0.5399047       114.238
2014    21      4       0.5808453       119.7719
2014    21      5       0.5290057       111.8427
2014    21      6       0.52808         111.4487
2014    21      7       0.5978334       121.7989
2014    22      0       0.6897708       134.2789
2014    22      1       0.6619952       130.968
2014    22      2       0.6913484       135.0849
2014    22      3       0.7479157       142.3426
2014    22      4       0.8648911       155.7443
2014    22      5       0.9508243       164.8057
2014    22      6       0.9669181       166.4551
2014    22      7       0.9113164       161.2028
2014    23      0       0.8570458       155.2702
2014    23      1       0.9072842       160.1695
2014    23      2       0.8328888       152.6897
2014    23      3       0.8214794       152.062
2014    23      4       0.9141967       162.1854
2014    23      5       0.999186        171.0865
2014    23      6       0.9878892       169.9979
2014    23      7       0.8988575       160.9799
2014    24      0       0.8049476       150.4604
2014    24      1       0.8121748       150.1962
2014    24      2       0.7587703       143.7747
2014    24      3       0.8489983       154.4366
2014    24      4       1.096874        179.4116
2014    24      5       1.102585        179.8087
2014    24      6       1.028699        173.2276
2014    24      7       0.9899968       169.5352
2014    25      0       0.9631139       166.9375
2014    25      1       1.02919         173.0278
2014    25      2       1.02865         173.3306
2014    25      3       1.071474        178.0608
2014    25      4       1.198884        188.833
2014    25      5       1.363596        200.6852
2014    25      6       1.298629        196.1968
2014    25      7       1.113978        181.9823
2014    26      0       1.018988        173.4673
2014    26      1       0.9984851       170.4161
2014    26      2       0.7882901       148.5797
2014    26      3       0.6994889       137.9086
2014    26      4       0.8079722       150.8811
2014    26      5       1.005986        171.6081
2014    26      6       1.096789        180.159
2014    26      7       1.044966        175.8511
2014    27      0       0.9898878       170.603
2014    27      1       0.9495758       166.1282
2014    27      2       0.7883143       148.7217
2014    27      3       0.7550529       145.429
2014    27      4       0.7182332       140.8266
2014    27      5       0.797021        149.5805
2014    27      6       0.994181        170.0997
2014    27      7       1.210051        188.9064
2014    28      0       1.27637         193.7495
2014    28      1       1.273754        193.4014
2014    28      2       1.205937        188.8702
2014    28      3       1.260697        194.1445
2014    28      4       1.26921         195.0738
2014    28      5       1.328404        198.5675
2014    28      6       1.256437        193.7989
2014    28      7       1.29607         196.4052
2014    29      0       1.191219        187.9475
2014    29      1       1.109875        181.0579
2014    29      2       1.077766        178.3854
2014    29      3       1.107561        181.8939
2014    29      4       1.185347        188.3435
2014    29      5       1.041711        176.2124
2014    29      6       1.021824        174.4598
2014    29      7       0.969717        169.2135
2014    30      0       0.9671828       168.4757
2014    30      1       1.007767        171.6323
2014    30      2       0.9750824       169.0007
2014    30      3       1.109597        181.494
2014    30      4       1.078697        179.1198
2014    30      5       0.9035092       162.4527
2014    30      6       0.8193938       153.1724
2014    30      7       0.7773336       147.9017
2014    31      0       0.7815406       148.09
2014    31      1       0.7672081       145.4171
2014    31      2       0.8669516       157.3319
2014    31      3       0.9297821       164.7209
2014    31      4       0.8957537       161.3223
2014    31      5       0.7488067       144.5937
2014    31      6       0.6902911       137.0061
2014    31      7       0.7704216       146.4215
2015    1       0       1.690115        223.2671
2015    1       1       1.672466        221.7188
2015    1       2       1.711799        224.081
2015    1       3       1.735022        226.0695
2015    1       4       1.676469        223.9668
2015    1       5       1.819277        230.6966
2015    1       6       1.882569        233.1288
2015    1       7       1.830768        231.3981
2015    2       0       1.766266        228.2381
2015    2       1       1.79722         228.2897
2015    2       2       1.804115        229.0256
2015    2       3       1.929306        234.9112
2015    2       4       2.099128        241.5802
2015    2       5       2.159418        243.0315
2015    2       6       1.9385          235.4341
2015    2       7       2.075303        239.7077
2015    3       0       2.134541        241.4248
2015    3       1       1.986124        236.1367
2015    3       2       1.928305        234.1817
2015    3       3       2.00048         237.8078
2015    3       4       2.305097        246.3512
2015    3       5       2.265733        244.8312
2015    3       6       2.206958        241.5823
2015    3       7       2.011642        234.0158
2015    4       0       1.661031        219.5899
2015    4       1       1.520174        211.9771
2015    4       2       1.587446        216.6789
2015    4       3       1.745981        225.3242
2015    4       4       1.716993        224.8247
2015    4       5       1.913708        232.7733
2015    4       6       2.082724        238.1686
2015    4       7       2.138727        239.3363
2015    5       0       1.817933        227.2921
2015    5       1       1.747858        223.5523
2015    5       2       1.72367         223.0619
2015    5       3       1.686976        221.6977
2015    5       4       1.515297        213.3856
2015    5       5       1.660942        220.8254
2015    5       6       1.706985        222.4393
2015    5       7       1.573523        215.6384
2015    6       0       1.456795        208.7669
2015    6       1       1.421798        206.745
2015    6       2       1.495177        211.6633
2015    6       3       1.604796        218.3752
2015    6       4       1.748201        225.8654
2015    6       5       1.683495        222.6289
2015    6       6       1.5767          216.7631
2015    6       7       1.541961        214.4915
2015    7       0       1.433653        208.1131
2015    7       1       1.613985        217.8487
2015    7       2       1.591383        217.3341
2015    7       3       1.580473        217.0934
2015    7       4       1.70923         223.3298
2015    7       5       1.536009        214.3586
2015    7       6       1.696653        222.0498
2015    7       7       1.734037        223.6127
2015    8       0       1.758972        224.2826
2015    8       1       1.954057        231.5933
2015    8       2       2.026553        233.9769
2015    8       3       1.936935        231.3197
2015    8       4       1.602321        217.1886
2015    8       5       1.635831        218.7558
2015    8       6       1.630881        218.3578
2015    8       7       1.720119        222.4267
2015    9       0       1.618214        217.7108
2015    9       1       1.589867        216.5813
2015    9       2       1.701719        222.8039
2015    9       3       1.899658        232.2447
2015    9       4       2.161201        241.8508
2015    9       5       2.134997        240.2258
2015    9       6       2.082245        238.2442
2015    9       7       2.045539        236.5664
2015    10      0       1.895821        230.5682
2015    10      1       1.99692         234.0529
2015    10      2       1.93722         232.6699
2015    10      3       2.05891         238.4455
2015    10      4       2.224165        242.9091
2015    10      5       1.982181        234.1931
2015    10      6       1.690457        221.995
2015    10      7       1.678289        221.1243
2015    11      0       1.605248        217.0771
2015    11      1       1.552453        214.5661
2015    11      2       1.701024        223.2501
2015    11      3       1.799875        228.7668
2015    11      4       2.074859        238.8256
2015    11      5       1.799435        227.7977
2015    11      6       1.446469        208.8346
2015    11      7       1.271764        196.7095
2015    12      0       1.210294        191.8349
2015    12      1       1.334716        200.2703
2015    12      2       1.486636        210.821
2015    12      3       1.648423        220.8934
2015    12      4       1.902431        232.6886
2015    12      5       2.077884        238.6401
2015    12      6       2.032816        235.8581
2015    12      7       1.839957        227.5916
2015    13      0       1.507267        211.5245
2015    13      1       1.526494        212.4081
2015    13      2       1.811507        227.3194
2015    13      3       2.083591        238.558
2015    13      4       1.847373        229.5106
2015    13      5       1.693995        222.0149
2015    13      6       1.467328        209.1531
2015    13      7       1.42314         205.9502
2015    14      0       1.341126        200.0732
2015    14      1       1.367272        201.7185
2015    14      2       1.593714        216.0166
2015    14      3       1.772281        225.9598
2015    14      4       1.900862        230.7805
2015    14      5       1.942324        231.7849
2015    14      6       1.568937        213.131
2015    14      7       1.670484        218.2478
2015    15      0       1.804199        224.5043
2015    15      1       1.813488        224.3087
2015    15      2       1.762505        221.8415
2015    15      3       1.704238        219.8133
2015    15      4       1.881639        227.602
2015    15      5       1.534616        210.797
2015    15      6       1.43605         204.394
2015    15      7       1.517846        209.0919
2015    16      0       1.451676        205.3549
2015    16      1       1.538112        210.6137
2015    16      2       1.616666        215.5635
2015    16      3       1.887156        228.6133
2015    16      4       1.923369        230.6863
2015    16      5       1.774655        224.905
2015    16      6       1.398179        204.4038
2015    16      7       1.236044        192.6789
2015    17      0       1.446206        206.8257
2015    17      1       1.281642        196.0913
2015    17      2       1.052801        178.3178
2015    17      3       0.9937727       173.1308
2015    17      4       0.9875203       172.0388
2015    17      5       0.7884432       150.2173
2015    17      6       0.8083571       151.7292
2015    17      7       0.9278205       163.734
2015    18      0       0.9301218       163.1866
2015    18      1       0.8367961       152.6406
2015    18      2       0.9187437       161.5804
2015    18      3       1.004486        170.8064
2015    18      4       1.103644        180.0252
2015    18      5       0.9019693       160.2911
2015    18      6       0.5842874       119.7425
2015    18      7       0.47214         102.3431
2015    19      0       0.3862168       88.61915
2015    19      1       0.3629027       84.89739
2015    19      2       0.3589582       84.58072
2015    19      3       0.3963228       91.5636
2015    19      4       0.3738583       87.65084
2015    19      5       0.3242945       78.40027
2015    19      6       0.2976193       73.45719
2015    19      7       0.2861671       71.30435
2015    20      0       0.2920869       72.46006
2015    20      1       0.3458914       82.21894
2015    20      2       0.3988082       91.47504
2015    20      3       0.4737608       104.2174
2015    20      4       0.5863051       120.8256
2015    20      5       0.5589926       116.7534
2015    20      6       0.5684795       117.8159
2015    20      7       0.6454508       127.8376
2015    21      0       0.740163        139.4264
2015    21      1       0.7563647       141.5602
2015    21      2       0.918872        160.0823
2015    21      3       1.231849        189.2317
2015    21      4       1.42611         203.3018
2015    21      5       1.468669        205.7345
2015    21      6       1.391778        200.8693
2015    21      7       1.214822        188.8397
2015    22      0       1.147561        183.4357
2015    22      1       1.201026        187.1443
2015    22      2       1.210064        188.4009
2015    22      3       1.425041        203.309
2015    22      4       1.564562        211.6971
2015    22      5       1.556308        211.1201
2015    22      6       1.301867        194.9602
2015    22      7       0.9878442       168.7865
2015    23      0       0.9969124       168.8202
2015    23      1       1.0992          177.3783
2015    23      2       1.056089        174.172
2015    23      3       1.051714        174.6477
2015    23      4       1.163072        184.1718
2015    23      5       0.9692814       167.0154
2015    23      6       1.166975        183.0404
2015    23      7       1.011355        170.2293
2015    24      0       0.8285245       151.9924
2015    24      1       0.8492514       153.7898
2015    24      2       0.9587588       165.1935
2015    24      3       1.106687        179.0026
2015    24      4       1.162281        183.4943
2015    24      5       1.09443         178.7245
2015    24      6       1.062898        175.6657
2015    24      7       1.015326        171.124
2015    25      0       0.8414569       153.6294
2015    25      1       0.6670283       132.4261
2015    25      2       0.5265439       112.9082
2015    25      3       0.5131142       110.8357
2015    25      4       0.5025436       109.1247
2015    25      5       0.4524997       101.1696
2015    25      6       0.4054924       93.20148
2015    25      7       0.4027292       92.77311
2015    26      0       0.4195906       95.73997
2015    26      1       0.3865662       89.99815
2015    26      2       0.3856632       89.77714
2015    26      3       0.4693222       103.4245
2015    26      4       0.6196647       125.328
2015    26      5       0.6423419       128.8356
2015    26      6       0.6647247       132.2767
2015    26      7       0.6453235       130.1889
2015    27      0       0.6183836       126.8186
2015    27      1       0.5700384       120.0557
2015    27      2       0.4936843       108.3601
2015    27      3       0.4812543       106.2891
2015    27      4       0.529194        113.3289
2015    27      5       0.5611066       118.1617
2015    27      6       0.6086684       125.1171
2015    27      7       0.6335683       128.5456
2015    28      0       0.6188726       126.4689
2015    28      1       0.5846659       121.6612
2015    28      2       0.5405517       115.6231
2015    28      3       0.5717156       120.7229
2015    28      4       0.7874596       148.8918
2015    28      5       1.013764        173.0719
2015    28      6       1.11061         181.9238
2015    28      7       1.159874        185.6386
2015    29      0       1.10665         181.2876
2015    29      1       1.071697        177.9338
2015    29      2       0.9626202       168.4158
2015    29      3       0.9067896       163.2704
2015    29      4       0.9472026       167.7232
2015    29      5       0.8318005       155.3123
2015    29      6       0.7445672       144.6205
2015    29      7       0.7347397       142.9523
2015    30      0       0.7929876       149.5536
2015    30      1       0.7283479       141.7942
2015    30      2       0.5919151       123.9384
2015    30      3       0.479173        106.6933
2015    30      4       0.4831558       107.2172
2015    30      5       0.5057852       110.9027
2015    30      6       0.5223593       113.3392
2015    30      7       0.5525935       117.6215
2015    31      0       0.5171783       111.8959
2015    31      1       0.4696168       104.4192
2015    31      2       0.4371363       99.01081
2015    31      3       0.4045249       93.43366
2015    31      4       0.4276743       97.50888
2015    31      5       0.4964842       108.5467
2015    31      6       0.5031756       109.364
2015    31      7       0.4989737       108.4514
2016    1       0       1.190059        190.0272
2016    1       1       1.448053        208.2184
2016    1       2       1.616685        218.573
2016    1       3       1.579287        217.2878
2016    1       4       1.457111        210.1912
2016    1       5       1.301056        199.7768
2016    1       6       1.420346        206.409
2016    1       7       1.395336        203.7202
2016    2       0       1.428788        205.4364
2016    2       1       1.492779        209.7805
2016    2       2       1.741341        223.0519
2016    2       3       1.835508        227.8649
2016    2       4       1.663831        220.8328
2016    2       5       1.622479        218.979
2016    2       6       1.549376        214.8795
2016    2       7       1.65008         219.2423
2016    3       0       1.671645        219.6668
2016    3       1       1.678216        220.5922
2016    3       2       1.701531        223.0597
2016    3       3       1.93717         234.3311
2016    3       4       2.282344        245.6501
2016    3       5       2.271347        244.3523
2016    3       6       2.091592        238.3776
2016    3       7       2.097618        238.3173
2016    4       0       2.016384        235.2857
2016    4       1       1.925036        231.7009
2016    4       2       1.793781        227.5606
2016    4       3       1.806543        228.9795
2016    4       4       2.065296        238.7903
2016    4       5       1.943688        234.0189
2016    4       6       1.710843        224.0132
2016    4       7       1.706143        223.2297
2016    5       0       1.574862        216.2888
2016    5       1       1.547621        214.7353
2016    5       2       1.683012        222.6198
2016    5       3       1.740084        225.9972
2016    5       4       1.876511        232.0447
2016    5       5       1.97631         235.8485
2016    5       6       2.248747        243.8675
2016    5       7       2.220995        243.3684
2016    6       0       1.899688        232.2692
2016    6       1       1.837632        228.7443
2016    6       2       1.808425        228.0497
2016    6       3       1.827299        229.5696
2016    6       4       1.739697        226.6329
2016    6       5       1.906811        234.1288
2016    6       6       1.954534        235.5481
2016    6       7       1.936076        234.3129
2016    7       0       1.825592        229.5138
2016    7       1       2.043052        237.145
2016    7       2       1.920383        233.5568
2016    7       3       1.915529        234.798
2016    7       4       2.109073        242.0773
2016    7       5       2.264403        246.2295
2016    7       6       2.250493        245.2727
2016    7       7       2.3399          246.6103
2016    8       0       2.342072        245.9297
2016    8       1       2.109056        238.7525
2016    8       2       2.010811        236.4111
2016    8       3       2.066804        239.6048
2016    8       4       2.423085        249.778
2016    8       5       2.347169        246.8344
2016    8       6       2.324152        245.9354
2016    8       7       2.150259        240.0315
2016    9       0       1.945359        233.0521
2016    9       1       1.822554        227.7276
2016    9       2       1.822977        228.5406
2016    9       3       1.884737        232.3001
2016    9       4       2.28654         246.2897
2016    9       5       2.288956        245.1998
2016    9       6       2.080394        237.8866
2016    9       7       2.026058        235.1482
2016    10      0       1.873456        229.0841
2016    10      1       1.720966        222.5618
2016    10      2       1.821604        228.2137
2016    10      3       1.881248        231.903
2016    10      4       1.924401        233.3236
2016    10      5       1.532665        214.5631
2016    10      6       1.572716        215.9868
2016    10      7       1.705151        221.252
2016    11      0       1.502012        210.6045
2016    11      1       1.539822        212.9555
2016    11      2       1.720073        223.0275
2016    11      3       1.894582        231.9043
2016    11      4       2.084798        238.8754
2016    11      5       2.063878        237.9738
2016    11      6       2.039065        237.1879
2016    11      7       2.115682        239.1197
2016    12      0       2.050849        237.095
2016    12      1       2.197362        241.6835
2016    12      2       2.159536        241.612
2016    12      3       2.048679        240.0261
2016    12      4       2.234575        245.7731
2016    12      5       2.239901        245.2124
2016    12      6       2.065321        239.644
2016    12      7       2.104832        240.4522
2016    13      0       2.000311        236.6997
2016    13      1       1.856293        230.8482
2016    13      2       1.870904        232.5049
2016    13      3       1.934831        236.4253
2016    13      4       2.009799        238.898
2016    13      5       2.237318        245.6497
2016    13      6       2.19535         243.892
2016    13      7       2.059461        239.2469
2016    14      0       2.32951         246.6201
2016    14      1       1.926568        233.5289
2016    14      2       1.795666        229.5578
2016    14      3       1.920836        235.029
2016    14      4       2.13858         242.4618
2016    14      5       2.423046        249.9198
2016    14      6       2.376095        247.7586
2016    14      7       2.299163        245.4961
2016    15      0       2.335131        246.0713
2016    15      1       1.90916         232.3324
2016    15      2       1.826307        230.6374
2016    15      3       1.872248        233.1023
2016    15      4       1.810852        230.0434
2016    15      5       1.535896        216.3798
2016    15      6       1.476691        212.6236
2016    15      7       1.269051        196.5559
2016    16      0       1.263967        196.7989
2016    16      1       1.231946        193.2073
2016    16      2       1.132135        186.067
2016    16      3       0.97599         172.0499
2016    16      4       0.8061312       153.5711
2016    16      5       0.7331055       144.249
2016    16      6       0.7236818       142.086
2016    16      7       0.7230296       141.3183
2016    17      0       0.7283862       141.5427
2016    17      1       0.8157614       152.0474
2016    17      2       0.9020639       162.8654
2016    17      3       0.9062814       164.1808
2016    17      4       1.085712        181.2012
2016    17      5       1.289292        197.0636
2016    17      6       1.351751        201.2015
2016    17      7       1.498873        210.0767
2016    18      0       1.48972         209.7963
2016    18      1       1.461062        208.2617
2016    18      2       1.455271        208.5555
2016    18      3       1.546021        214.3509
2016    18      4       1.69926         222.3204
2016    18      5       1.562424        215.6862
2016    18      6       1.37671         204.1706
2016    18      7       1.395429        205.2197
2016    19      0       1.458501        208.4825
2016    19      1       1.394586        204.486
2016    19      2       1.436162        208.2549
2016    19      3       1.602382        218.6537
2016    19      4       1.629444        219.9436
2016    19      5       1.540293        215.0371
2016    19      6       1.591115        217.4802
2016    19      7       1.742718        224.3544
2016    20      0       1.651347        219.5138
2016    20      1       1.636284        218.4772
2016    20      2       1.673141        220.961
2016    20      3       1.851999        229.5358
2016    20      4       2.133814        239.6462
2016    20      5       2.025986        235.4709
2016    20      6       1.844507        227.4453
2016    20      7       1.79477         224.7352
2016    21      0       1.660261        218.352
2016    21      1       1.465826        207.9019
2016    21      2       1.328335        199.3713
2016    21      3       1.109059        183.0328
2016    21      4       1.130581        184.3764
2016    21      5       1.167047        187.2654
2016    21      6       1.227489        191.1433
2016    21      7       1.239964        191.8903
2016    22      0       1.126649        182.6822
2016    22      1       0.9375091       164.9164
2016    22      2       0.8777732       159.5582
2016    22      3       1.057544        177.8139
2016    22      4       1.296541        196.2768
2016    22      5       1.261164        193.169
2016    22      6       1.209206        188.7052
2016    22      7       1.583492        213.001
2016    23      0       1.630867        215.5697
2016    23      1       1.520128        210.0885
2016    23      2       1.655846        218.0981
2016    23      3       1.662346        219.0819
2016    23      4       1.564472        214.0589
2016    23      5       1.461713        208.3104
2016    23      6       1.406266        204.6712
2016    23      7       1.584828        214.1744
2016    24      0       1.491326        208.3965
2016    24      1       1.435082        204.552
2016    24      2       1.385547        201.802
2016    24      3       1.437657        205.6409
2016    24      4       1.553636        212.4075
2016    24      5       1.449991        206.9141
2016    24      6       1.550772        212.2941
2016    24      7       1.465864        207.6715
2016    25      0       1.384484        202.6695
2016    25      1       1.319749        198.2144
2016    25      2       1.261375        194.8056
2016    25      3       1.324675        199.9724
2016    25      4       1.434669        207.6816
2016    25      5       1.464856        209.5989
2016    25      6       1.498621        211.1633
2016    25      7       1.456386        208.2775
2016    26      0       1.428255        206.5222
2016    26      1       1.493925        210.3881
2016    26      2       1.55428         214.3085
2016    26      3       1.643582        219.7021
2016    26      4       1.861988        229.3273
2016    26      5       1.809694        226.282
2016    26      6       1.642518        217.8364
2016    26      7       1.484214        208.8654
2016    27      0       1.452044        206.5058
2016    27      1       1.44618         205.8922
2016    27      2       1.509528        209.8058
2016    27      3       1.605625        215.0513
2016    27      4       1.915997        229.2782
2016    27      5       1.777557        223.7283
2016    27      6       1.697944        219.6431
2016    27      7       1.537613        210.9653
2016    28      0       1.37292         200.6581
2016    28      1       1.321854        197.1968
2016    28      2       1.355986        199.9425
2016    28      3       1.454755        206.7557
2016    28      4       1.694986        219.6567
2016    28      5       1.625273        215.9851
2016    28      6       1.482484        208.0681
2016    28      7       1.370008        201.0868
2016    29      0       1.360711        200.3006
2016    29      1       1.390445        202.0301
2016    29      2       1.441908        205.7323
2016    29      3       1.540338        212.4106
2016    29      4       1.768748        223.3138
2016    29      5       1.66935         218.2614
2016    29      6       1.572927        213.0022
2016    29      7       1.646352        216.8127
2016    30      0       1.571458        212.6734
2016    30      1       1.639664        216.2421
2016    30      2       1.474983        208.2538
2016    30      3       1.386075        203.3912
2016    30      4       1.229685        192.0932
2016    30      5       1.036287        175.3881
2016    30      6       1.072461        177.893
2016    30      7       1.059012        176.423
2016    31      0       0.9244358       163.3676
2016    31      1       0.9930602       169.7866
2016    31      2       1.184104        186.6724
2016    31      3       1.335937        198.5872
2016    31      4       1.383236        201.5704
2016    31      5       1.242667        191.6119
2016    31      6       1.310083        196.3996
2016    31      7       1.317067        196.4307
2017    1       0       1.149306        184.6817
2017    1       1       1.072212        178.405
2017    1       2       1.14775         186.4444
2017    1       3       1.248198        195.5416
2017    1       4       1.262688        196.8726
2017    1       5       1.252758        195.9127
2017    1       6       1.353951        202.8751
2017    1       7       1.487761        210.8718
2017    2       0       1.644477        218.6775
2017    2       1       1.814498        226.0644
2017    2       2       1.889032        230.1563
2017    2       3       2.123027        239.2625
2017    2       4       2.07678         238.5609
2017    2       5       2.103174        239.4813
2017    2       6       2.199199        241.4438
2017    2       7       2.169622        240.079
2017    3       0       1.975868        233.2125
2017    3       1       1.796267        226.3042
2017    3       2       1.846027        229.5083
2017    3       3       1.936535        234.4368
2017    3       4       2.12739         240.9995
2017    3       5       1.755898        227.2523
2017    3       6       2.004299        236.1415
2017    3       7       2.052085        237.1424
2017    4       0       1.927455        232.7366
2017    4       1       1.900958        231.9872
2017    4       2       1.935742        234.411
2017    4       3       2.161823        243.3625
2017    4       4       2.081939        240.4343
2017    4       5       1.599254        219.1195
2017    4       6       1.452355        210.1167
2017    4       7       1.385855        205.5342
2017    5       0       1.28761         198.3467
2017    5       1       1.274135        196.6622
2017    5       2       1.1915          191.294
2017    5       3       1.351314        203.3905
2017    5       4       1.679136        221.8826
2017    5       5       1.563341        216.1267
2017    5       6       1.37653         204.4625
2017    5       7       1.318015        199.978
2017    6       0       1.328478        200.4061
2017    6       1       1.398665        205.2699
2017    6       2       1.524815        214.1352
2017    6       3       1.679238        222.8052
2017    6       4       1.991682        236.3405
2017    6       5       2.004351        236.049
2017    6       6       1.753043        225.7979
2017    6       7       1.888836        230.4051
2017    7       0       2.005068        235.1555
2017    7       1       1.997057        235.1518
2017    7       2       1.930674        233.2013
2017    7       3       2.006169        236.522
2017    7       4       2.200008        243.1819
2017    7       5       2.129682        240.3321
2017    7       6       1.896513        232.5717
2017    7       7       2.188735        241.6289
2017    8       0       2.148422        240.0988
2017    8       1       1.798091        226.2723
2017    8       2       1.793904        226.4821
2017    8       3       1.960921        233.5752
2017    8       4       2.086008        238.1016
2017    8       5       1.977864        233.5946
2017    8       6       1.658214        220.0996
2017    8       7       1.637065        219.2223
2017    9       0       1.759106        224.6415
2017    9       1       1.70944         221.8589
2017    9       2       1.667268        220.4696
2017    9       3       1.680748        221.3371
2017    9       4       1.425248        206.484
2017    9       5       1.001943        173.4057
2017    9       6       0.8911599       161.909
2017    9       7       0.9707061       169.4987
2017    10      0       1.087531        179.6621
2017    10      1       1.188772        187.895
2017    10      2       1.272658        195.498
2017    10      3       1.48509         210.354
2017    10      4       1.502005        211.542
2017    10      5       1.235387        193.8992
2017    10      6       1.104193        183.1354
2017    10      7       1.025419        175.7461
2017    11      0       0.9604219       169.1605
2017    11      1       0.9593985       168.9187
2017    11      2       0.9628354       169.8524
2017    11      3       1.007877        174.148
2017    11      4       1.05            177.8377
2017    11      5       0.9367387       166.6232
2017    11      6       0.9453421       166.9703
2017    11      7       0.9967988       171.4988
2017    12      0       0.8922363       161.2341
2017    12      1       0.8771751       160.1072
2017    12      2       0.9875263       171.6833
2017    12      3       1.181674        188.6856
2017    12      4       1.247791        193.1056
2017    12      5       1.014235        173.7884
2017    12      6       0.9218638       164.4244
2017    12      7       0.8419206       155.6915
2017    13      0       0.6468719       131.6908
2017    13      1       0.5931728       124.0601
2017    13      2       0.5736504       121.3198
2017    13      3       0.5826013       122.6572
2017    13      4       0.6614554       133.6137
2017    13      5       0.8419834       155.9969
2017    13      6       0.846321        155.6627
2017    13      7       0.8361059       154.2308
2017    14      0       0.7922861       149.1277
2017    14      1       0.6632716       133.1824
2017    14      2       0.6316033       128.9548
2017    14      3       0.7770167       147.7219
2017    14      4       1.166463        186.1149
2017    14      5       1.128775        183.1264
2017    14      6       1.025961        173.6896
2017    14      7       0.9542698       166.6363
2017    15      0       0.9403683       165.2928
2017    15      1       0.8741134       158.1618
2017    15      2       0.8874144       160.6166
2017    15      3       0.9801289       171.0511
2017    15      4       1.003427        173.4593
2017    15      5       0.8984437       162.927
2017    15      6       0.8099572       153.1212
2017    15      7       0.7343545       143.9773
2017    16      0       0.6902574       138.2672
2017    16      1       0.6407463       131.42
2017    16      2       0.5754516       122.5237
2017    16      3       0.5941705       125.9097
2017    16      4       0.612088        128.6512
2017    16      5       0.5869454       125.2695
2017    16      6       0.5615778       121.357
2017    16      7       0.5626287       121.1033
2017    17      0       0.5092973       112.3089
2017    17      1       0.3996214       94.02481
2017    17      2       0.3368046       82.64303
2017    17      3       0.377658        90.55983
2017    17      4       0.5698367       122.3783
2017    17      5       0.7045527       141.3511
2017    17      6       0.7680409       149.1156
2017    17      7       0.8739225       160.6975
2017    18      0       1.105652        182.4741
2017    18      1       1.193806        189.8925
2017    18      2       0.8977798       163.7022
2017    18      3       0.7695477       148.915
2017    18      4       0.8516177       158.6547
2017    18      5       0.954266        169.6618
2017    18      6       0.982017        172.1094
2017    18      7       1.068529        179.6249
2017    19      0       1.048164        177.8416
2017    19      1       0.8778215       160.5921
2017    19      2       0.6367441       131.0355
2017    19      3       0.5858345       124.2064
2017    19      4       0.7554693       147.1612
2017    19      5       0.8696333       160.4455
2017    19      6       1.004993        173.6349
2017    19      7       1.171972        187.6597
2017    20      0       1.285101        196.3158
2017    20      1       1.402222        204.66
2017    20      2       1.419193        206.9147
2017    20      3       1.577511        216.7772
2017    20      4       1.747569        224.9254
2017    20      5       1.446675        208.958
2017    20      6       1.205365        191.7828
2017    20      7       1.045022        177.5971
2017    21      0       0.8881391       161.3683
2017    21      1       0.6862887       137.2448
2017    21      2       0.6551068       133.5268
2017    21      3       0.7632889       148.1825
2017    21      4       0.9473593       168.7276
2017    21      5       1.169472        188.4508
2017    21      6       1.647442        218.2134
2017    21      7       1.299549        197.4817
2017    22      0       0.821948        153.9202
2017    22      1       0.7171488       141.1316
2017    22      2       0.7057107       140.1269
2017    22      3       0.773035        148.9549
2017    22      4       0.8054199       152.627
2017    22      5       0.8086608       152.7809
2017    22      6       0.8388343       156.0584
2017    22      7       0.8680696       159.0662
2017    23      0       0.8840877       160.7968
2017    23      1       0.9895536       171.2875
2017    23      2       1.31539         198.3967
2017    23      3       1.851627        228.1304
2017    23      4       1.737851        223.8375
2017    23      5       1.120851        184.4383
2017    23      6       0.9392928       166.8769
2017    23      7       0.8858886       160.9093
2017    24      0       0.8004275       150.7985
2017    24      1       0.8358607       154.3603
2017    24      2       0.8048569       151.3025
2017    24      3       0.846082        156.1536
2017    24      4       0.9037646       162.4672
2017    24      5       0.9111105       163.2312
2017    24      6       0.80599         151.5838
2017    24      7       0.7845635       148.7183
2017    25      0       0.7972222       149.9377
2017    25      1       0.9101664       162.2401
2017    25      2       1.15628         185.1573
2017    25      3       1.242607        191.889
2017    25      4       1.184802        187.1061
2017    25      5       0.9688534       167.8192
2017    25      6       0.8135284       151.2489
2017    25      7       0.6831975       135.0149
2017    26      0       0.5411533       115.071
2017    26      1       0.5106779       110.6899
2017    26      2       0.4997242       109.1564
2017    26      3       0.5411918       115.6214
2017    26      4       0.635112        128.8384
2017    26      5       0.6570544       131.9555
2017    26      6       0.5669096       119.1118
2017    26      7       0.4560537       101.5977
2017    27      0       0.397315        91.44557
2017    27      1       0.43808         98.5249
2017    27      2       0.4305467       97.46451
2017    27      3       0.4543556       101.8133
2017    27      4       0.4801588       106.0819
2017    27      5       0.4575509       102.5419
2017    27      6       0.41937         96.00561
2017    27      7       0.3922579       91.03831
2017    28      0       0.345827        82.53539
2017    28      1       0.3907961       90.49364
2017    28      2       0.4269165       96.92675
2017    28      3       0.5310279       114.1333
2017    28      4       0.6307986       128.6046
2017    28      5       0.6272628       128.0623
2017    28      6       0.6630955       132.614
2017    28      7       1.072344        175.9483
2017    29      0       1.127177        181.295
2017    29      1       1.075568        177.4059
2017    29      2       1.148599        184.348
2017    29      3       1.190255        188.1482
2017    29      4       1.085634        179.535
2017    29      5       0.9433326       166.2341
2017    29      6       0.9338902       164.5637
2017    29      7       1.013226        171.3443
2017    30      0       1.127991        181.2239
2017    30      1       1.305641        194.3576
2017    30      2       1.414403        202.4445
2017    30      3       1.576776        212.368
2017    30      4       1.767762        222.1382
2017    30      5       1.596245        214.386
2017    30      6       1.545976        211.7454
2017    30      7       1.502132        209.156
2017    31      0       1.501355        208.5648
2017    31      1       1.543441        210.3704
2017    31      2       1.488733        207.6951
2017    31      3       1.628993        216.1628
2017    31      4       1.808939        224.2084
2017    31      5       1.608282        214.9453
2017    31      6       1.453705        206.0133
2017    31      7       1.338962        198.5263
2018    1       0       1.505149        210.8533
2018    1       1       1.459614        208.401
2018    1       2       1.211448        192.6692
2018    1       3       1.083522        182.4973
2018    1       4       0.9777329       172.0703
2018    1       5       1.324192        200.4466
2018    1       6       1.507638        211.9724
2018    1       7       1.224731        192.7389
2018    2       0       1.034109        177.0557
2018    2       1       0.8722078       160.1585
2018    2       2       0.8068419       153.2337
2018    2       3       0.7718386       149.8414
2018    2       4       0.7619882       148.6102
2018    2       5       0.7693584       149.156
2018    2       6       0.8943301       163.2835
2018    2       7       0.964374        170.3929
2018    3       0       0.8503278       158.444
2018    3       1       0.8283937       155.7533
2018    3       2       0.8280382       156.5012
2018    3       3       0.9236481       167.351
2018    3       4       0.9554451       170.9525
2018    3       5       1.009357        176.0262
2018    3       6       0.9752636       171.8449
2018    3       7       1.032744        177.4453
2018    4       0       1.213207        192.9883
2018    4       1       1.336066        202.0163
2018    4       2       1.388773        206.4877
2018    4       3       1.474227        212.4155
2018    4       4       1.661325        222.805
2018    4       5       1.753499        227.488
2018    4       6       1.642079        221.6364
2018    4       7       1.513403        214.1593
2018    5       0       1.479755        211.9468
2018    5       1       1.534408        215.1195
2018    5       2       1.612375        219.8587
2018    5       3       1.753495        227.5334
2018    5       4       2.032551        238.6061
2018    5       5       2.063882        238.9381
2018    5       6       2.079913        239.0217
2018    5       7       2.029486        236.0962
2018    6       0       1.689606        221.4896
2018    6       1       1.566279        215.6241
2018    6       2       1.716204        225.0639
2018    6       3       1.928333        235.0804
2018    6       4       2.174796        243.9583
2018    6       5       2.143236        241.7147
2018    6       6       2.005971        237.2501
2018    6       7       1.984666        234.8883
2018    7       0       1.766582        225.551
2018    7       1       1.765518        224.6239
2018    7       2       2.048462        236.1133
2018    7       3       2.183838        241.0512
2018    7       4       2.189323        241.7289
2018    7       5       2.193726        241.6697
2018    7       6       2.353902        245.9886
2018    7       7       2.21507         241.1544
2018    8       0       2.219506        241.1092
2018    8       1       2.000712        235.0249
2018    8       2       1.995302        236.3261
2018    8       3       2.028069        238.6522
2018    8       4       2.214399        244.5191
2018    8       5       2.100859        241.0786
2018    8       6       2.288209        244.9852
2018    8       7       2.131793        239.3628
2018    9       0       1.954629        233.403
2018    9       1       1.920187        232.2881
2018    9       2       1.907864        233.01
2018    9       3       1.868867        232.9323
2018    9       4       1.96607         237.1018
2018    9       5       2.04325         238.9931
2018    9       6       1.847793        230.8964
2018    9       7       1.887915        231.426
2018    10      0       1.842562        228.8458
2018    10      1       1.692401        222.3563
2018    10      2       1.656434        221.888
2018    10      3       1.73145         226.3574
2018    10      4       1.92831         235.1403
2018    10      5       2.075814        240.1041
2018    10      6       1.987218        236.6615
2018    10      7       1.918072        233.1043
2018    11      0       1.829615        228.3001
2018    11      1       1.727774        223.9812
2018    11      2       1.719404        224.5222
2018    11      3       1.875819        231.6048
2018    11      4       1.981633        236.0918
2018    11      5       1.82086         229.6766
2018    11      6       1.666123        222.0869
2018    11      7       1.59093         217.8875
2018    12      0       1.616237        218.2455
2018    12      1       1.733816        223.721
2018    12      2       1.835487        228.9256
2018    12      3       1.890236        232.4418
2018    12      4       1.951007        235.0431
2018    12      5       2.174245        241.8994
2018    12      6       2.107273        239.8969
2018    12      7       1.976725        235.0665
2018    13      0       2.040384        237.381
2018    13      1       1.920308        232.4773
2018    13      2       1.972255        235.0901
2018    13      3       1.893283        233.522
2018    13      4       1.664987        223.5019
2018    13      5       1.299734        200.8215
2018    13      6       1.300016        200.7161
2018    13      7       1.484552        211.7845
2018    14      0       1.560914        215.0127
2018    14      1       1.56718         214.9112
2018    14      2       1.648529        220.2208
2018    14      3       1.568543        217.0923
2018    14      4       1.377216        205.3484
2018    14      5       1.324281        201.7814
2018    14      6       1.457577        209.8781
2018    14      7       1.410028        206.2225
2018    15      0       1.308509        199.0105
2018    15      1       1.132081        185.6952
2018    15      2       1.019156        176.6279
2018    15      3       0.9290873       168.2853
2018    15      4       0.8890467       163.6106
2018    15      5       0.8664952       160.8701
2018    15      6       1.037626        177.8955
2018    15      7       1.329075        201.2157
2018    16      0       1.466379        209.5287
2018    16      1       1.591045        216.0568
2018    16      2       1.719304        223.5408
2018    16      3       1.910835        232.8498
2018    16      4       2.148413        241.1485
2018    16      5       2.194826        242.3601
2018    16      6       2.1475          240.9165
2018    16      7       2.232993        242.7037
2018    17      0       2.133731        238.8483
2018    17      1       1.823063        227.8116
2018    17      2       1.805691        228.4857
2018    17      3       1.876389        232.1935
2018    17      4       2.117625        241.5414
2018    17      5       2.027773        237.729
2018    17      6       2.22307         242.4743
2018    17      7       1.918506        231.5192
2018    18      0       1.79001         226.8672
2018    18      1       1.686105        221.8042
2018    18      2       1.61388         218.8005
2018    18      3       1.724572        225.2931
2018    18      4       1.991938        236.392
2018    18      5       1.758319        226.7717
2018    18      6       1.619999        219.1065
2018    18      7       1.579581        216.1991
2018    19      0       1.501027        211.3599
2018    19      1       1.449124        208.0381
2018    19      2       1.549456        214.4378
2018    19      3       1.717919        223.9348
2018    19      4       1.844179        229.6195
2018    19      5       1.642407        220.3389
2018    19      6       1.511272        212.7839
2018    19      7       1.558184        214.452
2018    20      0       1.542307        213.4213
2018    20      1       1.590833        216.172
2018    20      2       1.661484        221.0301
2018    20      3       1.920041        233.4054
2018    20      4       2.220159        242.9977
2018    20      5       1.914005        232.1905
2018    20      6       1.830983        227.8708
2018    20      7       1.940508        231.2796
2018    21      0       1.739912        222.8346
2018    21      1       1.675061        219.9505
2018    21      2       1.778951        225.782
2018    21      3       1.833476        228.8643
2018    21      4       1.808076        228.1348
2018    21      5       1.723216        224.6864
2018    21      6       1.748782        225.3405
2018    21      7       1.679413        221.5372
2018    22      0       1.586812        217.069
2018    22      1       1.782531        226.3986
2018    22      2       1.773236        226.7288
2018    22      3       1.790347        228.6195
2018    22      4       1.853096        231.1881
2018    22      5       1.352556        204.2115
2018    22      6       1.261642        196.5766
2018    22      7       1.204117        191.2399
2018    23      0       1.368149        202.813
2018    23      1       1.546173        213.8428
2018    23      2       1.67736         222.5305
2018    23      3       1.768816        227.867
2018    23      4       1.496358        213.4516
2018    23      5       1.212502        193.1807
2018    23      6       1.078736        181.0814
2018    23      7       1.092857        181.6844
2018    24      0       0.9240736       165.7459
2018    24      1       0.8643857       159.6914
2018    24      2       0.9498009       169.5052
2018    24      3       1.045428        179.4328
2018    24      4       1.003449        175.2306
2018    24      5       0.91786         166.1938
2018    24      6       0.9804505       172.1408
2018    24      7       1.253686        194.9474
2018    25      0       1.379294        203.7904
2018    25      1       1.271111        196.2001
2018    25      2       0.9587031       169.7555
2018    25      3       0.8060797       153.4777
2018    25      4       0.7599406       147.8535
2018    25      5       0.7654567       148.2028
2018    25      6       0.8251036       154.822
2018    25      7       0.9531891       168.1128
2018    26      0       0.7862368       149.9439
2018    26      1       0.5835302       123.3496
2018    26      2       0.4284019       98.83822
2018    26      3       0.4212452       97.69991
2018    26      4       0.5355755       116.6307
2018    26      5       0.6195759       128.9346
2018    26      6       0.602661        126.1303
2018    26      7       0.5392621       116.3877
2018    27      0       0.3855661       91.00538
2018    27      1       0.3139464       77.55281
2018    27      2       0.2900016       72.98015
2018    27      3       0.3323693       81.35283
2018    27      4       0.3438909       83.5063
2018    27      5       0.2756465       70.37744
2018    27      6       0.1748918       48.91391
2018    27      7       0.2657614       67.99474
2018    28      0       0.3826845       89.80893
2018    28      1       0.4220916       96.43513
2018    28      2       0.5269036       113.9571
2018    28      3       0.6049159       126.2642
2018    28      4       0.607821        126.5172
2018    28      5       0.5048624       111.127
2018    28      6       0.5149484       112.355
2018    28      7       0.7339444       142.6483
2018    29      0       0.8863221       160.3358
2018    29      1       0.9903294       171.4984
2018    29      2       0.9802058       171.8459
2018    29      3       1.026773        177.5104
2018    29      4       0.9684309       171.6662
2018    29      5       0.8127848       154.3112
2018    29      6       0.720962        142.7738
2018    29      7       0.6963231       139.1171
2018    30      0       0.8518683       157.1729
2018    30      1       0.8850178       161.2859
2018    30      2       1.032825        177.1706
2018    30      3       1.089049        182.7568
2018    30      4       0.7842908       151.0812
2018    30      5       0.6019918       126.8887
2018    30      6       0.5448965       118.0762
2018    30      7       0.547845        117.8189
2018    31      0       0.4953618       109.3382
2018    31      1       0.445157        101.4152
2018    31      2       0.4728781       105.9815
2018    31      3       0.503962        111.231
2018    31      4       0.5703909       121.5271
2018    31      5       0.5768893       122.5097
2018    31      6       0.6023533       125.7098
2018    31      7       0.5549105       118.3805
