####################################################################################################
# Month: 11Nov                                                                                     #
# Station: BLDR                                                                                    #
# Frequency: 230 GHz                                                                               #
# Columns are: year    day     segment         tau     Tb (K)                                      #
####################################################################################################
2009    1       0       0.1988524       52.43783
2009    1       1       0.1980394       52.28458
2009    1       2       0.2108751       54.97056
2009    1       3       0.1967251       51.73806
2009    1       4       0.2438587       61.13175
2009    1       5       0.2677838       65.7398
2009    1       6       0.2245381       57.7211
2009    1       7       0.2483441       62.53567
2009    2       0       0.2664439       66.15927
2009    2       1       0.2970623       71.95553
2009    2       2       0.2795997       68.70137
2009    2       3       0.2641841       65.64079
2009    2       4       0.3261209       76.94484
2009    2       5       0.2996547       72.0823
2009    2       6       0.2811672       68.75465
2009    2       7       0.2875972       70.26874
2009    3       0       0.2249398       58.12714
2009    3       1       0.1838313       49.08641
2009    3       2       0.1532996       42.05656
2009    3       3       0.1636983       44.09404
2009    3       4       0.150647        41.21651
2009    3       5       0.17179         45.73164
2009    3       6       0.2424138       60.92423
2009    3       7       0.2668722       66.37354
2009    4       0       0.2634187       65.53056
2009    4       1       0.2545714       63.57583
2009    4       2       0.2669561       66.13891
2009    4       3       0.249793        62.90623
2009    4       4       0.1856703       49.58182
2009    4       5       0.1434284       40.08493
2009    4       6       0.1287915       36.58234
2009    4       7       0.1465008       40.74272
2009    5       0       0.1375891       38.75079
2009    5       1       0.1124436       32.84447
2009    5       2       0.104257        30.88971
2009    5       3       0.1063992       31.3723
2009    5       4       0.1009146       30.04181
2009    5       5       0.1083147       31.82131
2009    5       6       0.1848932       49.10811
2009    5       7       0.2794913       68.75651
2009    6       0       0.2750863       68.19806
2009    6       1       0.2526298       63.96505
2009    6       2       0.219161        56.98613
2009    6       3       0.1961961       52.30103
2009    6       4       0.1819895       49.3165
2009    6       5       0.1513358       42.14752
2009    6       6       0.1310105       37.59769
2009    6       7       0.1691423       46.3476
2009    7       0       0.1858655       50.11747
2009    7       1       0.1834082       49.37801
2009    7       2       0.2279252       59.03149
2009    7       3       0.2948402       72.93152
2009    7       4       0.3747266       87.72308
2009    7       5       0.3646935       85.69296
2009    7       6       0.3060352       74.48028
2009    7       7       0.2764278       68.53771
2009    8       0       0.2709475       67.43592
2009    8       1       0.270041        67.16809
2009    8       2       0.2517582       63.38951
2009    8       3       0.2723681       67.6726
2009    8       4       0.3272141       78.01801
2009    8       5       0.2889556       70.5191
2009    8       6       0.1977035       52.3095
2009    8       7       0.2509158       63.136
2009    9       0       0.3082779       74.33521
2009    9       1       0.3502993       81.83983
2009    9       2       0.4473557       98.45009
2009    9       3       0.4801336       103.7343
2009    9       4       0.3898293       88.55713
2009    9       5       0.2879112       69.97668
2009    9       6       0.2444272       61.33939
2009    9       7       0.2553684       63.40908
2009    10      0       0.2362529       59.75087
2009    10      1       0.2027256       52.81554
2009    10      2       0.1960579       51.25102
2009    10      3       0.2184342       55.81762
2009    10      4       0.2313508       58.35422
2009    10      5       0.2273148       57.43227
2009    10      6       0.2340582       58.90874
2009    10      7       0.2659364       65.57057
2009    11      0       0.2563445       63.8945
2009    11      1       0.239601        60.51563
2009    11      2       0.2228016       57.14833
2009    11      3       0.2206764       56.69485
2009    11      4       0.2396167       60.3407
2009    11      5       0.2851983       68.83184
2009    11      6       0.3149753       74.89633
2009    11      7       0.3261637       77.59474
2009    12      0       0.3075106       74.33942
2009    12      1       0.2690955       66.98042
2009    12      2       0.2895712       70.02734
2009    12      3       0.29325         71.28535
2009    12      4       0.2741408       68.44979
2009    12      5       0.379749        88.47968
2009    12      6       0.4240273       96.31177
2009    12      7       0.4431362       99.93067
2009    13      0       0.3928633       90.82637
2009    13      1       0.3521893       83.13759
2009    13      2       0.3875043       89.5634
2009    13      3       0.4310343       96.7624
2009    13      4       0.4796232       104.2773
2009    13      5       0.5137303       109.5193
2009    13      6       0.5212637       110.1009
2009    13      7       0.5033984       106.7352
2009    14      0       0.597983        120.6313
2009    14      1       0.4282664       94.68465
2009    14      2       0.3019308       72.56526
2009    14      3       0.2177556       55.5806
2009    14      4       0.2191235       55.60814
2009    14      5       0.2949137       70.44052
2009    14      6       0.500921        105.6063
2009    14      7       0.5761903       117.2994
2009    15      0       0.5329114       110.328
2009    15      1       0.4784215       101.7006
2009    15      2       0.4415441       95.09983
2009    15      3       0.434781        93.37801
2009    15      4       0.388399        85.56507
2009    15      5       0.3187838       73.4164
2009    15      6       0.3049837       71.30271
2009    15      7       0.3439756       78.39439
2009    16      0       0.2167172       53.95984
2009    16      1       0.1570111       41.53036
2009    16      2       0.09043364      26.74642
2009    16      3       0.05160782      17.47968
2009    16      4       0.04785468      16.60012
2009    16      5       0.0435123       15.54655
2009    16      6       0.04221421      15.20751
2009    16      7       0.07030987      22.27117
2009    17      0       0.09038741      27.15934
2009    17      1       0.1010983       29.68393
2009    17      2       0.1222134       34.70304
2009    17      3       0.1523903       41.80989
2009    17      4       0.1619476       44.13267
2009    17      5       0.154218        42.48364
2009    17      6       0.1445467       40.364
2009    17      7       0.1530785       42.46769
2009    18      0       0.1484584       41.49528
2009    18      1       0.1364184       38.72945
2009    18      2       0.1296416       37.16602
2009    18      3       0.1217177       35.3491
2009    18      4       0.1093923       32.38665
2009    18      5       0.1040114       31.00061
2009    18      6       0.1020443       30.52266
2009    18      7       0.1238558       35.82841
2009    19      0       0.1381458       39.11244
2009    19      1       0.1212657       34.99031
2009    19      2       0.1075786       31.56354
2009    19      3       0.1325106       37.20101
2009    19      4       0.1678509       45.01771
2009    19      5       0.1662613       44.54247
2009    19      6       0.17819         47.1484
2009    19      7       0.1883645       49.48449
2009    20      0       0.1859027       49.07981
2009    20      1       0.1581424       43.06172
2009    20      2       0.1236512       35.20089
2009    20      3       0.0896754       27.11997
2009    20      4       0.07182618      22.71557
2009    20      5       0.07393157      23.09807
2009    20      6       0.08273382      25.329
2009    20      7       0.098363        29.30505
2009    21      0       0.1078692       31.65589
2009    21      1       0.09068111      27.58602
2009    21      2       0.07397216      23.48603
2009    21      3       0.06671147      21.56063
2009    21      4       0.07614196      23.90001
2009    21      5       0.1075733       31.08713
2009    21      6       0.1123878       32.348
2009    21      7       0.1477824       40.43432
2009    22      0       0.2049839       52.35219
2009    22      1       0.3316803       76.31401
2009    22      2       0.3427901       78.44466
2009    22      3       0.2553979       62.43585
2009    22      4       0.1443522       39.45569
2009    22      5       0.112122        31.91404
2009    22      6       0.1287991       35.39338
2009    22      7       0.1659856       44.10265
2009    23      0       0.2084395       53.21098
2009    23      1       0.1899396       49.39222
2009    23      2       0.182747        47.94818
2009    23      3       0.2105399       53.4318
2009    23      4       0.3020438       70.69682
2009    23      5       0.2018451       50.74002
2009    23      6       0.230239        56.13983
2009    23      7       0.1905153       48.11203
2009    24      0       0.1621005       42.28977
2009    24      1       0.1097026       30.89548
2009    24      2       0.09754957      28.30622
2009    24      3       0.08914791      26.54344
2009    24      4       0.06664034      21.23112
2009    24      5       0.06745212      21.39649
2009    24      6       0.07501203      23.3075
2009    24      7       0.1189461       33.81713
2009    25      0       0.1554132       42.3021
2009    25      1       0.1778204       47.23346
2009    25      2       0.1675542       44.90473
2009    25      3       0.199514        51.49088
2009    25      4       0.3172985       74.96813
2009    25      5       0.2567014       63.17895
2009    25      6       0.2507859       62.16277
2009    25      7       0.3010076       72.16126
2009    26      0       0.2901077       70.38797
2009    26      1       0.2415308       61.05875
2009    26      2       0.21106         54.87385
2009    26      3       0.19374         51.18867
2009    26      4       0.1535656       42.4057
2009    26      5       0.1194715       34.59141
2009    26      6       0.1153478       33.66217
2009    26      7       0.1385025       39.04069
2009    27      0       0.1163541       33.76257
2009    27      1       0.08043083      25.07343
2009    27      2       0.05821757      19.58107
2009    27      3       0.05217978      18.12146
2009    27      4       0.0535375       18.43048
2009    27      5       0.05873749      19.75479
2009    27      6       0.05448767      18.64337
2009    27      7       0.0682587       22.25484
2009    28      0       0.08175708      25.5659
2009    28      1       0.09421528      28.43146
2009    28      2       0.09505448      28.48772
2009    28      3       0.1043099       30.50982
2009    28      4       0.1226729       34.60281
2009    28      5       0.1464406       39.99566
2009    28      6       0.1995232       51.41701
2009    28      7       0.2807076       67.57795
2009    29      0       0.3216092       75.37343
2009    29      1       0.31221         73.60487
2009    29      2       0.3593849       81.89691
2009    29      3       0.3795551       85.31442
2009    29      4       0.2683693       65.37833
2009    29      5       0.1909321       49.67071
2009    29      6       0.1626585       43.37989
2009    29      7       0.1632239       43.49362
2009    30      0       0.1638331       43.6779
2009    30      1       0.1649269       43.95043
2009    30      2       0.158492        42.65331
2009    30      3       0.1584393       42.71095
2009    30      4       0.1666143       44.44274
2009    30      5       0.1590068       42.85297
2009    30      6       0.1484238       40.58016
2009    30      7       0.1510668       41.32453
2010    1       0       0.4138084       91.9242
2010    1       1       0.5089247       107.1878
2010    1       2       0.4944109       105.1303
2010    1       3       0.5192798       108.6004
2010    1       4       0.5620826       114.887
2010    1       5       0.4031094       89.76975
2010    1       6       0.3845467       87.60094
2010    1       7       0.304095        73.33232
2010    2       0       0.2249136       57.79288
2010    2       1       0.2228902       57.26041
2010    2       2       0.2189137       56.04962
2010    2       3       0.2405944       60.44451
2010    2       4       0.29353         71.17921
2010    2       5       0.4289715       96.61193
2010    2       6       0.4462669       100.0348
2010    2       7       0.4588082       102.5214
2010    3       0       0.4578471       102.5998
2010    3       1       0.4254461       97.20321
2010    3       2       0.3897568       90.87045
2010    3       3       0.3507134       83.74578
2010    3       4       0.3209131       78.03666
2010    3       5       0.2817415       69.89282
2010    3       6       0.2358001       60.59167
2010    3       7       0.2465904       62.99433
2010    4       0       0.2691175       67.54421
2010    4       1       0.2512163       63.59795
2010    4       2       0.2425211       61.57933
2010    4       3       0.2203186       56.97247
2010    4       4       0.2090616       54.52978
2010    4       5       0.1995119       52.39818
2010    4       6       0.2100394       54.57932
2010    4       7       0.2398385       60.96681
2010    5       0       0.2378583       60.626
2010    5       1       0.2166722       56.18433
2010    5       2       0.2025191       53.2781
2010    5       3       0.2037335       53.64006
2010    5       4       0.2148487       56.07276
2010    5       5       0.225476        58.27458
2010    5       6       0.255329        64.61378
2010    5       7       0.2797632       69.84727
2010    6       0       0.2634022       66.69474
2010    6       1       0.2259566       58.95991
2010    6       2       0.1898794       51.09622
2010    6       3       0.1743085       47.54587
2010    6       4       0.1882893       50.49222
2010    6       5       0.2166173       56.36414
2010    6       6       0.2362562       60.7037
2010    6       7       0.2568131       65.23656
2010    7       0       0.2602255       66.1584
2010    7       1       0.2306188       60.13595
2010    7       2       0.2053621       54.5292
2010    7       3       0.2308414       59.95675
2010    7       4       0.2608553       66.14126
2010    7       5       0.2738141       68.44626
2010    7       6       0.3839628       88.87733
2010    7       7       0.4576151       100.612
2010    8       0       0.228117        58.94226
2010    8       1       0.2226786       57.64369
2010    8       2       0.2373855       60.66765
2010    8       3       0.2993555       73.3511
2010    8       4       0.2716123       67.84832
2010    8       5       0.2905673       71.51667
2010    8       6       0.3320263       79.5549
2010    8       7       0.4114333       94.0976
2010    9       0       0.4137052       94.40893
2010    9       1       0.3873778       89.65163
2010    9       2       0.3232479       77.61818
2010    9       3       0.3723133       86.79271
2010    9       4       0.3456297       81.62073
2010    9       5       0.4097753       92.76238
2010    9       6       0.5001335       106.7763
2010    9       7       0.5005382       106.2108
2010    10      0       0.4422812       95.7718
2010    10      1       0.2769928       66.29713
2010    10      2       0.23001         57.10457
2010    10      3       0.2043124       51.84492
2010    10      4       0.1612177       42.88025
2010    10      5       0.1443634       39.08389
2010    10      6       0.1676102       43.94425
2010    10      7       0.1907205       48.80462
2010    11      0       0.2116204       53.02846
2010    11      1       0.3084228       71.43974
2010    11      2       0.3318691       75.86222
2010    11      3       0.2745059       65.34851
2010    11      4       0.2463373       59.97304
2010    11      5       0.2623124       63.04893
2010    11      6       0.2514696       61.27486
2010    11      7       0.2801727       66.79023
2010    12      0       0.2542873       61.7991
2010    12      1       0.1891636       48.75869
2010    12      2       0.1551477       41.52681
2010    12      3       0.1060747       30.53208
2010    12      4       0.05640229      18.73464
2010    12      5       0.04318354      15.46096
2010    12      6       0.07206044      22.53266
2010    12      7       0.09920655      28.9331
2010    13      0       0.1360618       37.12557
2010    13      1       0.1570282       41.6316
2010    13      2       0.157218        41.71972
2010    13      3       0.1592445       42.16625
2010    13      4       0.1643246       43.22681
2010    13      5       0.1928499       49.00966
2010    13      6       0.2199775       54.62211
2010    13      7       0.2641723       62.94191
2010    14      0       0.229964        56.37462
2010    14      1       0.1908894       48.55964
2010    14      2       0.1498807       39.91924
2010    14      3       0.1193149       33.36934
2010    14      4       0.0898754       26.56068
2010    14      5       0.1370482       37.12851
2010    14      6       0.2878532       67.87401
2010    14      7       0.2634565       63.41646
2010    15      0       0.2381581       58.51224
2010    15      1       0.2029922       51.28671
2010    15      2       0.2296071       56.62078
2010    15      3       0.335224        76.92567
2010    15      4       0.3280206       75.59225
2010    15      5       0.300065        70.27062
2010    15      6       0.3351269       76.57601
2010    15      7       0.3269653       74.90773
2010    16      0       0.3469611       78.44519
2010    16      1       0.3049124       71.25872
2010    16      2       0.221226        55.10766
2010    16      3       0.1886355       48.65786
2010    16      4       0.2663371       64.3464
2010    16      5       0.3082836       73.22247
2010    16      6       0.2247734       57.29633
2010    16      7       0.3433127       79.4978
2010    17      0       0.3231926       75.25221
2010    17      1       0.2751725       65.49999
2010    17      2       0.2605739       62.70501
2010    17      3       0.1763826       45.74065
2010    17      4       0.1343638       36.68121
2010    17      5       0.09937015      28.77573
2010    17      6       0.1364858       37.04154
2010    17      7       0.1927826       49.18554
2010    18      0       0.2123488       53.5992
2010    18      1       0.201974        51.69866
2010    18      2       0.2019223       51.76442
2010    18      3       0.1852127       48.43725
2010    18      4       0.1629591       43.73111
2010    18      5       0.17042         45.64161
2010    18      6       0.1402066       38.8658
2010    18      7       0.1462933       40.21008
2010    19      0       0.1282835       36.13656
2010    19      1       0.1050828       30.76663
2010    19      2       0.1097594       31.79022
2010    19      3       0.1201625       34.15836
2010    19      4       0.124614        35.23236
2010    19      5       0.1249248       35.27094
2010    19      6       0.1379222       38.1405
2010    19      7       0.1621092       43.60678
2010    20      0       0.1548461       42.09959
2010    20      1       0.1350586       37.48902
2010    20      2       0.1406689       38.68386
2010    20      3       0.1656764       44.46626
2010    20      4       0.2010132       51.76258
2010    20      5       0.2693069       65.91856
2010    20      6       0.1681579       45.27685
2010    20      7       0.1703735       45.87568
2010    21      0       0.1693575       45.46823
2010    21      1       0.1805258       47.6644
2010    21      2       0.2071295       53.25272
2010    21      3       0.2586195       63.96084
2010    21      4       0.2621163       64.57803
2010    21      5       0.2560249       63.28895
2010    21      6       0.2957414       71.07736
2010    21      7       0.2832399       68.4316
2010    22      0       0.3818861       85.95347
2010    22      1       0.3285347       76.51143
2010    22      2       0.3864157       85.38457
2010    22      3       0.165586        43.16244
2010    22      4       0.1595059       41.7528
2010    22      5       0.135055        36.58664
2010    22      6       0.1674998       43.36552
2010    22      7       0.175072        44.95435
2010    23      0       0.1823502       46.44894
2010    23      1       0.1547808       40.88408
2010    23      2       0.1058852       30.23434
2010    23      3       0.09425336      27.4916
2010    23      4       0.1304535       35.65641
2010    23      5       0.1108485       31.37304
2010    23      6       0.1009232       29.16782
2010    23      7       0.1305949       36.34975
2010    24      0       0.132259        36.77041
2010    24      1       0.1338207       36.93678
2010    24      2       0.1573696       42.06218
2010    24      3       0.1853351       47.94182
2010    24      4       0.2848496       67.10413
2010    24      5       0.1610592       42.09215
2010    24      6       0.130834        35.36089
2010    24      7       0.1239019       33.74149
2010    25      0       0.08791714      25.61953
2010    25      1       0.06202168      19.54778
2010    25      2       0.04508531      15.52242
2010    25      3       0.03875541      14.02023
2010    25      4       0.04832311      16.40481
2010    25      5       0.06431994      20.34602
2010    25      6       0.06528471      20.61157
2010    25      7       0.04060311      14.57947
2010    26      0       0.0429475       15.12609
2010    26      1       0.09842115      28.33689
2010    26      2       0.1770144       45.9544
2010    26      3       0.2176453       54.85325
2010    26      4       0.1918235       49.76026
2010    26      5       0.2126655       53.95656
2010    26      6       0.2083517       53.29079
2010    26      7       0.1754691       46.58575
2010    27      0       0.130118        36.48303
2010    27      1       0.1047996       30.45761
2010    27      2       0.1119362       31.92591
2010    27      3       0.1141926       32.45556
2010    27      4       0.09284881      27.56724
2010    27      5       0.07678965      23.70955
2010    27      6       0.07832596      24.14329
2010    27      7       0.09572165      28.37806
2010    28      0       0.08702522      26.49294
2010    28      1       0.09126253      27.45971
2010    28      2       0.101905        29.61083
2010    28      3       0.09878153      28.84773
2010    28      4       0.08896444      26.53777
2010    28      5       0.09977759      28.93505
2010    28      6       0.1170657       32.84834
2010    28      7       0.1547046       41.05708
2010    29      0       0.2070326       52.05108
2010    29      1       0.2629628       63.12403
2010    29      2       0.2100285       52.49948
2010    29      3       0.2086213       52.14393
2010    29      4       0.1875779       47.41555
2010    29      5       0.1864831       46.89854
2010    29      6       0.1799375       45.54889
2010    29      7       0.1849057       46.53013
2010    30      0       0.1783102       45.1699
2010    30      1       0.1267846       34.23427
2010    30      2       0.1023609       28.86968
2010    30      3       0.07993673      23.90009
2010    30      4       0.04963015      16.76355
2010    30      5       0.05087526      17.05312
2010    30      6       0.08156119      24.26082
2010    30      7       0.147794        39.38083
2011    1       0       0.2749946       68.6901
2011    1       1       0.260322        65.59661
2011    1       2       0.2641457       66.08768
2011    1       3       0.26974         67.01651
2011    1       4       0.2935972       71.35737
2011    1       5       0.3299651       78.53143
2011    1       6       0.3119846       74.99072
2011    1       7       0.3467484       81.12112
2011    2       0       0.5214915       109.6302
2011    2       1       0.5915306       120.2121
2011    2       2       0.4705966       100.5862
2011    2       3       0.4811063       100.2435
2011    2       4       0.4317554       92.27624
2011    2       5       0.3202399       73.43054
2011    2       6       0.317754        73.3219
2011    2       7       0.2249658       56.07024
2011    3       0       0.1285899       36.00479
2011    3       1       0.08846954      26.78577
2011    3       2       0.06417091      21.00226
2011    3       3       0.0567436       19.10422
2011    3       4       0.06348007      20.76482
2011    3       5       0.06915437      22.18387
2011    3       6       0.06755795      21.7738
2011    3       7       0.09750525      29.22194
2011    4       0       0.1098147       32.286
2011    4       1       0.09951623      29.82377
2011    4       2       0.09776206      29.14526
2011    4       3       0.09228105      27.7976
2011    4       4       0.09691764      28.85992
2011    4       5       0.215941        56.07736
2011    4       6       0.2996502       72.96147
2011    4       7       0.3694236       85.76386
2011    5       0       0.2845617       70.11992
2011    5       1       0.2582586       64.49355
2011    5       2       0.3024316       73.71493
2011    5       3       0.2367691       60.86396
2011    5       4       0.2845316       70.27628
2011    5       5       0.3293375       79.38413
2011    5       6       0.4997263       107.862
2011    5       7       0.4950657       105.306
2011    6       0       0.3924997       88.80892
2011    6       1       0.2731514       66.60001
2011    6       2       0.1199633       33.93669
2011    6       3       0.1251345       35.10359
2011    6       4       0.1523506       40.97031
2011    6       5       0.1352662       37.16695
2011    6       6       0.1188637       33.58466
2011    6       7       0.1395311       38.304
2011    7       0       0.1442407       39.33512
2011    7       1       0.1594416       42.49948
2011    7       2       0.1904662       48.95045
2011    7       3       0.2290055       56.87305
2011    7       4       0.2313534       57.37108
2011    7       5       0.246169        60.44533
2011    7       6       0.2551154       61.91957
2011    7       7       0.3050889       71.41747
2011    8       0       0.292971        69.1811
2011    8       1       0.248452        60.8391
2011    8       2       0.2530479       61.46918
2011    8       3       0.2275667       56.44509
2011    8       4       0.2145714       53.83338
2011    8       5       0.2047842       51.91325
2011    8       6       0.2117025       53.40113
2011    8       7       0.1888746       48.59414
2011    9       0       0.1725223       45.0605
2011    9       1       0.1665944       43.76256
2011    9       2       0.1210361       33.87502
2011    9       3       0.1109252       31.39295
2011    9       4       0.1215041       33.72671
2011    9       5       0.1248547       34.61326
2011    9       6       0.1119094       31.83327
2011    9       7       0.1219089       34.02593
2011    10      0       0.1258779       34.91815
2011    10      1       0.1165839       32.86707
2011    10      2       0.1085089       31.05111
2011    10      3       0.09982736      29.25391
2011    10      4       0.09666085      28.62741
2011    10      5       0.09391019      28.01814
2011    10      6       0.104981        30.59948
2011    10      7       0.1254875       35.38326
2011    11      0       0.1233861       34.59744
2011    11      1       0.09436494      28.00411
2011    11      2       0.05899543      19.50029
2011    11      3       0.04721922      16.39979
2011    11      4       0.04974723      16.86156
2011    11      5       0.05726493      18.64774
2011    11      6       0.07916418      24.04543
2011    11      7       0.132715        36.73122
2011    12      0       0.1452765       39.35667
2011    12      1       0.1329055       36.18644
2011    12      2       0.2300237       56.8404
2011    12      3       0.2815525       67.58826
2011    12      4       0.2810289       68.33598
2011    12      5       0.2343245       59.83201
2011    12      6       0.1995589       52.40691
2011    12      7       0.2550521       63.96457
2011    13      0       0.3167449       75.51219
2011    13      1       0.3610287       83.18281
2011    13      2       0.3352881       78.84678
2011    13      3       0.3787718       86.90082
2011    13      4       0.3364773       79.25042
2011    13      5       0.3584097       82.88177
2011    13      6       0.3770405       85.75926
2011    13      7       0.4132959       92.20419
2011    14      0       0.3601182       83.1118
2011    14      1       0.3098864       73.54072
2011    14      2       0.1773088       46.70963
2011    14      3       0.09702299      28.25096
2011    14      4       0.1247582       34.60222
2011    14      5       0.1681613       44.45319
2011    14      6       0.2193034       55.14639
2011    14      7       0.240356        59.33368
2011    15      0       0.2022838       51.94394
2011    15      1       0.1752876       46.28428
2011    15      2       0.1586701       42.57035
2011    15      3       0.1846479       48.18455
2011    15      4       0.1897237       49.33203
2011    15      5       0.1962357       50.53238
2011    15      6       0.222557        56.02792
2011    15      7       0.2947251       70.10789
2011    16      0       0.2565402       62.67741
2011    16      1       0.2090676       53.21762
2011    16      2       0.2222279       55.8586
2011    16      3       0.1558545       41.69361
2011    16      4       0.08499185      25.30742
2011    16      5       0.07817155      23.74119
2011    16      6       0.08635927      25.58366
2011    16      7       0.09475851      27.5494
2011    17      0       0.09478341      27.58893
2011    17      1       0.1092415       30.81026
2011    17      2       0.152601        40.32911
2011    17      3       0.17621         45.74517
2011    17      4       0.1921008       49.56484
2011    17      5       0.2023518       52.33523
2011    17      6       0.2274284       57.80135
2011    17      7       0.1996992       51.91194
2011    18      0       0.1711578       45.69979
2011    18      1       0.142305        39.29824
2011    18      2       0.1467565       40.20741
2011    18      3       0.1664275       44.6845
2011    18      4       0.1578763       43.32075
2011    18      5       0.1189873       34.41534
2011    18      6       0.1553521       42.49469
2011    18      7       0.1831566       48.75526
2011    19      0       0.1638234       44.61535
2011    19      1       0.1512878       41.58993
2011    19      2       0.204993        53.46607
2011    19      3       0.2801933       68.30795
2011    19      4       0.3255331       76.94448
2011    19      5       0.3477997       80.30475
2011    19      6       0.2828258       68.32814
2011    19      7       0.3195828       75.44101
2011    20      0       0.3683634       84.14346
2011    20      1       0.3935441       88.34577
2011    20      2       0.3801902       86.18581
2011    20      3       0.3438625       80.21172
2011    20      4       0.3032542       72.81789
2011    20      5       0.2310823       58.43793
2011    20      6       0.2352184       59.3468
2011    20      7       0.425419        94.161
2011    21      0       0.4347065       96.11649
2011    21      1       0.2608382       64.48243
2011    21      2       0.2121162       54.46103
2011    21      3       0.2304576       58.09493
2011    21      4       0.2766165       67.29633
2011    21      5       0.2880581       69.26274
2011    21      6       0.3380335       78.16482
2011    21      7       0.401354        89.14906
2011    22      0       0.3982886       88.55715
2011    22      1       0.3713023       84.46153
2011    22      2       0.2234319       56.48168
2011    22      3       0.2210549       55.87502
2011    22      4       0.1880736       49.06123
2011    22      5       0.1595415       42.91395
2011    22      6       0.1684602       44.9244
2011    22      7       0.2356282       59.17153
2011    23      0       0.2373376       59.89943
2011    23      1       0.2004062       52.24425
2011    23      2       0.1514845       41.66297
2011    23      3       0.1100386       32.05891
2011    23      4       0.09977171      29.58471
2011    23      5       0.1111032       32.31659
2011    23      6       0.1070191       31.40565
2011    23      7       0.1143373       33.14871
2011    24      0       0.09078249      27.61011
2011    24      1       0.08343869      25.80162
2011    24      2       0.07638266      24.10288
2011    24      3       0.06444612      21.22404
2011    24      4       0.05530223      18.90752
2011    24      5       0.05934793      19.70128
2011    24      6       0.0743024       23.30546
2011    24      7       0.1296858       36.49584
2011    25      0       0.1756988       46.7288
2011    25      1       0.1828116       47.90616
2011    25      2       0.1874575       49.14523
2011    25      3       0.1698261       45.54689
2011    25      4       0.1947986       51.0934
2011    25      5       0.195517        50.49901
2011    25      6       0.237237        59.18029
2011    25      7       0.2351703       59.15124
2011    26      0       0.2995071       71.25355
2011    26      1       0.2543751       62.32858
2011    26      2       0.2254088       55.98683
2011    26      3       0.1401457       37.86077
2011    26      4       0.08983108      26.47258
2011    26      5       0.0722713       22.38412
2011    26      6       0.08432431      25.34671
2011    26      7       0.08553105      25.8122
2011    27      0       0.09060514      27.11684
2011    27      1       0.104571        30.5522
2011    27      2       0.1267518       35.78399
2011    27      3       0.1539628       42.08581
2011    27      4       0.1822002       48.39764
2011    27      5       0.2043148       53.24232
2011    27      6       0.2239313       57.25329
2011    27      7       0.2472729       62.1176
2011    28      0       0.2340925       59.5692
2011    28      1       0.2411842       61.09224
2011    28      2       0.2334176       59.63284
2011    28      3       0.1929483       50.85635
2011    28      4       0.1194986       34.17472
2011    28      5       0.108771        31.63534
2011    28      6       0.1283624       35.94552
2011    28      7       0.2125377       54.23085
2011    29      0       0.2777744       67.01319
2011    29      1       0.3069056       72.77148
2011    29      2       0.3068513       72.55397
2011    29      3       0.3433465       78.82038
2011    29      4       0.2528209       62.55608
2011    29      5       0.1885107       49.47556
2011    29      6       0.1495468       41.14895
2011    29      7       0.1416766       39.45684
2011    30      0       0.1410926       39.27065
2011    30      1       0.1345753       37.64461
2011    30      2       0.1441201       39.52012
2011    30      3       0.1673254       44.30312
2011    30      4       0.2691517       65.45786
2011    30      5       0.2105675       53.77989
2011    30      6       0.09191685      27.73191
2011    30      7       0.1986849       51.50324
2012    1       0       0.328634        78.82919
2012    1       1       0.3261837       78.32195
2012    1       2       0.2934349       72.09359
2012    1       3       0.2347943       60.26937
2012    1       4       0.1986018       52.66407
2012    1       5       0.1669741       45.76685
2012    1       6       0.1319666       37.80828
2012    1       7       0.1660771       45.63668
2012    2       0       0.1947941       51.77087
2012    2       1       0.2296714       58.6277
2012    2       2       0.2540344       63.18437
2012    2       3       0.2831709       68.64004
2012    2       4       0.2266345       57.77341
2012    2       5       0.2224202       56.95168
2012    2       6       0.2640237       65.29591
2012    2       7       0.3208505       76.29434
2012    3       0       0.3278683       77.83639
2012    3       1       0.326476        77.74913
2012    3       2       0.2988151       72.56385
2012    3       3       0.2734877       67.60356
2012    3       4       0.2294831       58.6432
2012    3       5       0.2321262       58.90305
2012    3       6       0.2513176       62.71995
2012    3       7       0.2635662       65.15475
2012    4       0       0.2698164       66.33577
2012    4       1       0.2655521       65.4958
2012    4       2       0.2339999       59.01342
2012    4       3       0.2333832       58.94021
2012    4       4       0.27119         66.37153
2012    4       5       0.3788175       86.34568
2012    4       6       0.4271568       95.50787
2012    4       7       0.5161669       109.3603
2012    5       0       0.4601803       101.2496
2012    5       1       0.4562693       100.6593
2012    5       2       0.4300205       96.3485
2012    5       3       0.4383914       98.00247
2012    5       4       0.4086512       92.98249
2012    5       5       0.4192913       94.92015
2012    5       6       0.4228998       95.65723
2012    5       7       0.3786924       88.31746
2012    6       0       0.3554374       84.00072
2012    6       1       0.3604002       84.99406
2012    6       2       0.4269661       96.78179
2012    6       3       0.3931894       90.84657
2012    6       4       0.406183        92.74155
2012    6       5       0.3500286       82.46664
2012    6       6       0.3246033       77.87807
2012    6       7       0.3541234       83.49288
2012    7       0       0.3108917       75.43625
2012    7       1       0.2404432       61.37414
2012    7       2       0.1971537       52.38606
2012    7       3       0.1585282       43.8599
2012    7       4       0.1302731       37.32662
2012    7       5       0.1197962       34.88331
2012    7       6       0.131926        37.80098
2012    7       7       0.1717159       46.88166
2012    8       0       0.2086028       55.0739
2012    8       1       0.1976437       52.56252
2012    8       2       0.1699933       46.52249
2012    8       3       0.1375293       39.02088
2012    8       4       0.1489769       41.48849
2012    8       5       0.1985863       52.30469
2012    8       6       0.2393805       60.65417
2012    8       7       0.2631744       65.85986
2012    9       0       0.2535646       64.21513
2012    9       1       0.225982        58.28065
2012    9       2       0.2201928       56.61456
2012    9       3       0.3164441       76.58463
2012    9       4       0.4460951       98.87403
2012    9       5       0.4266297       95.35354
2012    9       6       0.2926304       72.19776
2012    9       7       0.3498815       82.82285
2012    10      0       0.3773015       87.62641
2012    10      1       0.4073588       93.14856
2012    10      2       0.3107204       75.41954
2012    10      3       0.3350306       79.76454
2012    10      4       0.3756999       86.57114
2012    10      5       0.4103282       92.47399
2012    10      6       0.4617889       99.11218
2012    10      7       0.3745762       84.09083
2012    11      0       0.3283327       75.36392
2012    11      1       0.253374        61.19772
2012    11      2       0.2472169       59.65556
2012    11      3       0.1483389       39.22695
2012    11      4       0.125355        34.1512
2012    11      5       0.1121175       31.1629
2012    11      6       0.1176166       32.26712
2012    11      7       0.1112352       30.8163
2012    12      0       0.1128256       31.25612
2012    12      1       0.08856195      25.90931
2012    12      2       0.08508754      25.25172
2012    12      3       0.05254859      17.62142
2012    12      4       0.05313911      17.76967
2012    12      5       0.1179418       33.35966
2012    12      6       0.1439385       39.23526
2012    12      7       0.17127         45.39193
2012    13      0       0.183438        48.06541
2012    13      1       0.1950518       50.47714
2012    13      2       0.2132914       53.96557
2012    13      3       0.2570091       62.11038
2012    13      4       0.2613474       62.95863
2012    13      5       0.2646049       64.38811
2012    13      6       0.2459548       60.76175
2012    13      7       0.251495        62.06594
2012    14      0       0.2188105       55.52774
2012    14      1       0.1858847       48.55095
2012    14      2       0.1683714       44.77988
2012    14      3       0.1624104       43.35293
2012    14      4       0.1770543       46.30971
2012    14      5       0.2494972       61.06108
2012    14      6       0.2008008       51.64265
2012    14      7       0.2349926       59.17931
2012    15      0       0.2558163       63.29177
2012    15      1       0.2849301       68.6419
2012    15      2       0.3223888       75.56583
2012    15      3       0.359398        82.20674
2012    15      4       0.3093118       73.29292
2012    15      5       0.2852913       68.8205
2012    15      6       0.2643575       64.94544
2012    15      7       0.242888        60.86589
2012    16      0       0.2060715       53.51966
2012    16      1       0.1623013       44.21116
2012    16      2       0.1152837       33.54108
2012    16      3       0.09482277      28.65262
2012    16      4       0.1022598       30.21651
2012    16      5       0.1253492       35.34866
2012    16      6       0.1882069       49.21287
2012    16      7       0.2618654       64.65017
2012    17      0       0.2648362       65.24114
2012    17      1       0.2942635       71.22816
2012    17      2       0.3242723       77.3348
2012    17      3       0.2978085       72.39399
2012    17      4       0.2681423       66.53838
2012    17      5       0.2774375       68.14538
2012    17      6       0.3168302       75.62861
2012    17      7       0.3609044       83.74634
2012    18      0       0.3554413       82.85466
2012    18      1       0.3419056       80.66727
2012    18      2       0.2634409       65.56525
2012    18      3       0.2396412       60.56565
2012    18      4       0.3112404       74.78645
2012    18      5       0.3108597       74.69117
2012    18      6       0.3633511       84.51483
2012    18      7       0.4438849       98.3952
2012    19      0       0.321883        76.99872
2012    19      1       0.242449        61.35217
2012    19      2       0.242444        60.95822
2012    19      3       0.2551632       63.25724
2012    19      4       0.1972051       51.49297
2012    19      5       0.2084743       53.93326
2012    19      6       0.2266344       57.45999
2012    19      7       0.2616695       64.5875
2012    20      0       0.2694091       66.29921
2012    20      1       0.2616507       64.81268
2012    20      2       0.2445013       61.49206
2012    20      3       0.243006        61.49678
2012    20      4       0.2196578       56.8248
2012    20      5       0.1995157       52.63829
2012    20      6       0.2174579       56.48642
2012    20      7       0.2281982       58.91358
2012    21      0       0.2258966       58.51379
2012    21      1       0.212438        55.65653
2012    21      2       0.2089381       54.83092
2012    21      3       0.1989177       52.5899
2012    21      4       0.1820224       48.65184
2012    21      5       0.1847957       49.07947
2012    21      6       0.1719085       46.2015
2012    21      7       0.1846396       49.16173
2012    22      0       0.171068        46.20626
2012    22      1       0.1729902       46.58785
2012    22      2       0.2087878       54.23403
2012    22      3       0.237721        60.48407
2012    22      4       0.1681048       46.02355
2012    22      5       0.2131541       55.63852
2012    22      6       0.1932209       50.93549
2012    22      7       0.1787996       47.44527
2012    23      0       0.1774083       46.60342
2012    23      1       0.1643999       43.69685
2012    23      2       0.1634197       43.38853
2012    23      3       0.1770261       46.45392
2012    23      4       0.1759817       46.65239
2012    23      5       0.1380828       38.66935
2012    23      6       0.1280729       36.29604
2012    23      7       0.1527511       41.74727
2012    24      0       0.1623126       43.97495
2012    24      1       0.170677        45.87253
2012    24      2       0.1136862       32.90471
2012    24      3       0.08876171      26.85549
2012    24      4       0.09627105      28.62748
2012    24      5       0.1208146       34.35182
2012    24      6       0.1323412       36.88403
2012    24      7       0.1343273       37.67519
2012    25      0       0.1152717       33.3635
2012    25      1       0.08598996      26.44629
2012    25      2       0.08274402      25.62957
2012    25      3       0.08560221      26.32826
2012    25      4       0.07389852      23.40747
2012    25      5       0.0988985       29.54348
2012    25      6       0.1222319       35.13781
2012    25      7       0.1671993       45.25376
2012    26      0       0.2128046       54.46192
2012    26      1       0.2824126       68.03138
2012    26      2       0.2730492       66.59294
2012    26      3       0.2607816       64.47651
2012    26      4       0.2060729       53.25803
2012    26      5       0.1204283       34.04069
2012    26      6       0.1237208       34.66825
2012    26      7       0.1158165       32.97918
2012    27      0       0.1064465       30.75582
2012    27      1       0.09264551      27.36929
2012    27      2       0.09418997      27.80349
2012    27      3       0.09289161      27.46159
2012    27      4       0.05209552      17.54383
2012    27      5       0.06532097      20.79394
2012    27      6       0.05797397      19.11586
2012    27      7       0.09356007      27.86758
2012    28      0       0.1158794       33.10287
2012    28      1       0.1194484       33.84269
2012    28      2       0.1079294       31.39578
2012    28      3       0.06333231      20.80776
2012    28      4       0.06238465      20.49196
2012    28      5       0.06718504      21.71877
2012    28      6       0.07681068      24.01828
2012    28      7       0.1094127       31.8466
2012    29      0       0.1641242       43.90799
2012    29      1       0.1661825       44.53295
2012    29      2       0.1492573       40.66106
2012    29      3       0.1672196       44.70362
2012    29      4       0.2684266       66.44082
2012    29      5       0.2678797       66.72742
2012    29      6       0.1966013       51.59494
2012    29      7       0.2205077       56.2387
2012    30      0       0.211377        54.58677
2012    30      1       0.22714         57.35505
2012    30      2       0.2311276       58.27685
2012    30      3       0.2433724       60.93588
2012    30      4       0.3124755       74.65497
2012    30      5       0.3429122       80.60252
2012    30      6       0.3090487       74.69811
2012    30      7       0.3413081       81.11195
2013    1       0       0.2574977       64.14405
2013    1       1       0.2213543       56.67503
2013    1       2       0.2352004       59.20377
2013    1       3       0.3290782       77.12476
2013    1       4       0.2920043       70.13992
2013    1       5       0.2244544       56.69021
2013    1       6       0.2312197       57.97628
2013    1       7       0.1963123       50.95726
2013    2       0       0.1825451       48.13665
2013    2       1       0.1695495       45.41989
2013    2       2       0.1609615       43.72989
2013    2       3       0.1473345       40.86302
2013    2       4       0.1594068       43.49427
2013    2       5       0.1688688       45.59567
2013    2       6       0.1175282       33.9949
2013    2       7       0.09909443      29.74226
2013    3       0       0.09579851      28.87269
2013    3       1       0.08705264      26.5813
2013    3       2       0.09382509      28.15187
2013    3       3       0.1324393       37.40724
2013    3       4       0.1302692       36.97025
2013    3       5       0.1111795       32.30318
2013    3       6       0.1622786       44.09896
2013    3       7       0.2894671       70.35729
2013    4       0       0.3439439       80.35843
2013    4       1       0.3450077       80.32614
2013    4       2       0.3352892       77.95646
2013    4       3       0.09217271      27.3332
2013    4       4       0.104488        29.85495
2013    4       5       0.1423056       38.30067
2013    4       6       0.1650311       43.21763
2013    4       7       0.1838117       47.37228
2013    5       0       0.2294255       57.08263
2013    5       1       0.3198323       74.6932
2013    5       2       0.3530767       80.91638
2013    5       3       0.3153458       73.71934
2013    5       4       0.2478685       60.65557
2013    5       5       0.207742        52.23867
2013    5       6       0.1569646       41.55156
2013    5       7       0.1137579       32.08105
2013    6       0       0.08801569      26.23921
2013    6       1       0.06373701      20.44833
2013    6       2       0.06953742      21.73716
2013    6       3       0.1130661       31.87389
2013    6       4       0.1730875       45.13126
2013    6       5       0.1835413       47.25329
2013    6       6       0.1659443       43.76557
2013    6       7       0.1868149       48.46256
2013    7       0       0.1845883       48.17299
2013    7       1       0.1852722       48.37253
2013    7       2       0.2125323       54.20137
2013    7       3       0.2313442       58.11517
2013    7       4       0.2334679       58.70461
2013    7       5       0.2347865       58.9479
2013    7       6       0.2773959       67.49056
2013    7       7       0.3305886       77.79732
2013    8       0       0.3421527       80.15354
2013    8       1       0.3095119       74.25189
2013    8       2       0.2841918       69.57362
2013    8       3       0.3058864       74.13117
2013    8       4       0.2169113       56.40749
2013    8       5       0.1742941       47.08098
2013    8       6       0.1940937       51.02824
2013    8       7       0.2879186       70.25918
2013    9       0       0.3022349       73.48762
2013    9       1       0.3873761       88.8091
2013    9       2       0.3703152       85.76268
2013    9       3       0.3744806       86.16365
2013    9       4       0.3866459       88.48472
2013    9       5       0.4124504       93.07129
2013    9       6       0.3571462       83.598
2013    9       7       0.34393         81.24042
2013    10      0       0.3235926       77.27953
2013    10      1       0.2803433       68.82802
2013    10      2       0.2654733       65.50382
2013    10      3       0.264885        64.87747
2013    10      4       0.2258361       57.3078
2013    10      5       0.2202832       56.45151
2013    10      6       0.2442734       61.59193
2013    10      7       0.2848082       69.74549
2013    11      0       0.2813752       69.12332
2013    11      1       0.2415286       61.14741
2013    11      2       0.2077046       54.0664
2013    11      3       0.184227        48.98016
2013    11      4       0.1799243       48.03818
2013    11      5       0.1834564       48.80009
2013    11      6       0.2213114       56.76682
2013    11      7       0.2957318       71.61248
2013    12      0       0.322676        76.73828
2013    12      1       0.3007122       72.47629
2013    12      2       0.2730243       66.88233
2013    12      3       0.261697        64.50245
2013    12      4       0.1868138       49.53141
2013    12      5       0.1135521       33.22126
2013    12      6       0.1132369       33.1884
2013    12      7       0.1180631       34.41136
2013    13      0       0.1176547       34.44666
2013    13      1       0.107661        32.09576
2013    13      2       0.08981188      27.68576
2013    13      3       0.08140485      25.62581
2013    13      4       0.08707539      26.99329
2013    13      5       0.09523373      28.90948
2013    13      6       0.1202607       34.82918
2013    13      7       0.1887021       50.02166
2013    14      0       0.2553894       63.17685
2013    14      1       0.289604        69.5149
2013    14      2       0.342344        79.32503
2013    14      3       0.406772        90.70042
2013    14      4       0.4696411       101.3847
2013    14      5       0.2546267       63.55635
2013    14      6       0.2129413       54.91926
2013    14      7       0.2029315       52.70795
2013    15      0       0.1563017       42.51407
2013    15      1       0.1274748       35.70506
2013    15      2       0.1096999       31.78873
2013    15      3       0.08873516      26.79195
2013    15      4       0.1569305       42.59223
2013    15      5       0.1641804       44.15039
2013    15      6       0.1938354       50.4626
2013    15      7       0.2974614       71.27034
2013    16      0       0.3107058       73.80454
2013    16      1       0.2956436       71.08931
2013    16      2       0.3545634       82.04758
2013    16      3       0.2906419       70.19974
2013    16      4       0.1720431       45.96593
2013    16      5       0.1602394       42.91107
2013    16      6       0.3410798       79.66925
2013    16      7       0.3331909       77.78402
2013    17      0       0.3372756       78.61446
2013    17      1       0.33072         76.70485
2013    17      2       0.342379        78.12748
2013    17      3       0.2651955       63.88018
2013    17      4       0.2363601       58.32354
2013    17      5       0.1468943       39.96188
2013    17      6       0.1155164       33.18153
2013    17      7       0.1402822       39.14452
2013    18      0       0.1811786       48.25933
2013    18      1       0.1682613       45.36404
2013    18      2       0.1374275       38.53675
2013    18      3       0.1142372       33.24893
2013    18      4       0.09639192      28.95969
2013    18      5       0.1174327       33.93899
2013    18      6       0.150637        41.65485
2013    18      7       0.1672338       45.49771
2013    19      0       0.1669686       45.34691
2013    19      1       0.1646537       44.64571
2013    19      2       0.160028        43.32039
2013    19      3       0.155889        42.43049
2013    19      4       0.1378342       38.21064
2013    19      5       0.1493683       40.48343
2013    19      6       0.2497962       61.46064
2013    19      7       0.4329439       95.54948
2013    20      0       0.5410581       112.414
2013    20      1       0.4580177       99.50539
2013    20      2       0.4396221       96.57902
2013    20      3       0.4078742       91.43055
2013    20      4       0.2804962       68.33566
2013    20      5       0.2181837       55.84185
2013    20      6       0.2426039       60.86191
2013    20      7       0.3315646       77.81315
2013    21      0       0.3944887       88.90553
2013    21      1       0.6025887       120.8696
2013    21      2       0.6274795       124.3201
2013    21      3       0.5908694       119.1112
2013    21      4       0.5353107       110.6732
2013    21      5       0.5119154       107.1941
2013    21      6       0.431796        94.58489
2013    21      7       0.4365706       94.6591
2013    22      0       0.3461895       79.56892
2013    22      1       0.3614774       81.93974
2013    22      2       0.3237824       75.17336
2013    22      3       0.2650701       63.84312
2013    22      4       0.2277638       56.21624
2013    22      5       0.1820934       46.87917
2013    22      6       0.1544447       40.83618
2013    22      7       0.1484838       39.4811
2013    23      0       0.2245379       55.11174
2013    23      1       0.3564271       79.85087
2013    23      2       0.3861178       85.68745
2013    23      3       0.426869        92.84933
2013    23      4       0.3893064       86.87041
2013    23      5       0.3875754       86.68206
2013    23      6       0.3470268       79.73281
2013    23      7       0.3020562       71.87236
2013    24      0       0.2881911       69.74681
2013    24      1       0.5004097       106.1684
2013    24      2       0.4702012       102.1065
2013    24      3       0.5045855       107.2164
2013    24      4       0.4339027       96.14725
2013    24      5       0.3948772       89.86517
2013    24      6       0.4141294       93.03041
2013    24      7       0.4271364       94.97097
2013    25      0       0.4047376       90.94899
2013    25      1       0.4208122       93.64505
2013    25      2       0.3109634       73.47437
2013    25      3       0.185098        47.76842
2013    25      4       0.1829188       47.70485
2013    25      5       0.4255005       94.01356
2013    25      6       0.4106128       91.47086
2013    25      7       0.4273967       94.23427
2013    26      0       0.3633424       83.11799
2013    26      1       0.3002682       71.48222
2013    26      2       0.2308916       57.69824
2013    26      3       0.2501226       61.57173
2013    26      4       0.2673333       64.76889
2013    26      5       0.2327494       57.82269
2013    26      6       0.2179445       54.95042
2013    26      7       0.2499582       61.67101
2013    27      0       0.2281744       57.50011
2013    27      1       0.1999213       51.75607
2013    27      2       0.186609        48.93849
2013    27      3       0.1942009       50.62323
2013    27      4       0.205932        53.1254
2013    27      5       0.213773        54.81729
2013    27      6       0.2324987       58.60722
2013    27      7       0.2250222       57.03977
2013    28      0       0.2385262       59.78464
2013    28      1       0.2636481       64.90509
2013    28      2       0.2862065       69.46642
2013    28      3       0.2661385       65.63569
2013    28      4       0.2317912       58.54392
2013    28      5       0.226054        57.18519
2013    28      6       0.2174617       55.27647
2013    28      7       0.2197149       55.88619
2013    29      0       0.2203155       56.17373
2013    29      1       0.1986627       51.7018
2013    29      2       0.1863285       48.88456
2013    29      3       0.1980981       50.84465
2013    29      4       0.208009        52.79625
2013    29      5       0.1891925       49.12509
2013    29      6       0.1972638       51.14814
2013    29      7       0.2399146       60.12183
2013    30      0       0.268004        65.71939
2013    30      1       0.2469912       61.54429
2013    30      2       0.2101553       53.98802
2013    30      3       0.1814636       47.80035
2013    30      4       0.1774643       46.82311
2013    30      5       0.1754661       46.4301
2013    30      6       0.1811116       47.68549
2013    30      7       0.2058159       53.04285
2014    1       0       0.2617293       65.99597
2014    1       1       0.3030809       73.73898
2014    1       2       0.3257011       78.40118
2014    1       3       0.3947735       91.30506
2014    1       4       0.4187473       95.38656
2014    1       5       0.3884353       89.23102
2014    1       6       0.6494098       130.6402
2014    1       7       0.559163        118.9388
2014    2       0       0.3844161       90.54091
2014    2       1       0.3564404       84.61165
2014    2       2       0.3723665       87.68404
2014    2       3       0.3574579       84.68582
2014    2       4       0.3266688       78.43426
2014    2       5       0.3679509       85.01974
2014    2       6       0.6345036       126.2075
2014    2       7       0.6640465       130.542
2014    3       0       0.6447492       128.4591
2014    3       1       0.5292119       112.3951
2014    3       2       0.4589015       101.2944
2014    3       3       0.535984        112.9605
2014    3       4       0.4867469       103.8471
2014    3       5       0.4172949       91.60658
2014    3       6       0.4689005       100.3135
2014    3       7       0.4622431       99.3485
2014    4       0       0.3486078       80.24129
2014    4       1       0.2795325       67.5271
2014    4       2       0.2121862       53.99232
2014    4       3       0.131809        36.68736
2014    4       4       0.1084545       31.46729
2014    4       5       0.08590948      26.16177
2014    4       6       0.0846708       25.91522
2014    4       7       0.1062698       31.19041
2014    5       0       0.1073582       31.5174
2014    5       1       0.09867427      29.23985
2014    5       2       0.1006969       29.68735
2014    5       3       0.2989029       72.15932
2014    5       4       0.2923296       71.7104
2014    5       5       0.2701596       67.16926
2014    5       6       0.2708591       67.06153
2014    5       7       0.3104727       74.9219
2014    6       0       0.3085495       74.70051
2014    6       1       0.2901174       71.15948
2014    6       2       0.2970159       72.56715
2014    6       3       0.2899775       71.13166
2014    6       4       0.2707818       67.4768
2014    6       5       0.2462713       62.41287
2014    6       6       0.2615497       65.56075
2014    6       7       0.2901763       71.47508
2014    7       0       0.2754473       68.67275
2014    7       1       0.2189058       56.89227
2014    7       2       0.1667535       45.19718
2014    7       3       0.1786388       48.34998
2014    7       4       0.1869737       50.59895
2014    7       5       0.1983205       52.63974
2014    7       6       0.3164185       76.06735
2014    7       7       0.453819        100.5027
2014    8       0       0.4317563       96.92033
2014    8       1       0.5128793       109.9494
2014    8       2       0.4869094       105.078
2014    8       3       0.1747715       47.08276
2014    8       4       0.1051022       31.18633
2014    8       5       0.1207979       34.26266
2014    8       6       0.1478783       40.20862
2014    8       7       0.1336196       37.43137
2014    9       0       0.1295079       36.44019
2014    9       1       0.177505        47.26602
2014    9       2       0.2462921       62.35665
2014    9       3       0.295095        72.5597
2014    9       4       0.3011836       74.22218
2014    9       5       0.2749478       68.8409
2014    9       6       0.2457715       62.52075
2014    9       7       0.3068348       74.98322
2014    10      0       0.3330829       79.86155
2014    10      1       0.252783        64.10126
2014    10      2       0.258896        65.3717
2014    10      3       0.3273469       78.89149
2014    10      4       0.2477774       63.70074
2014    10      5       0.2897735       71.30805
2014    10      6       0.4238608       94.25017
2014    10      7       0.3328481       77.16063
2014    11      0       0.2387239       58.93133
2014    11      1       0.1785917       46.49373
2014    11      2       0.1504432       40.40883
2014    11      3       0.1419071       38.36638
2014    11      4       0.1481956       39.7395
2014    11      5       0.1773181       46.16441
2014    11      6       0.189548        48.68099
2014    11      7       0.2197045       54.87679
2014    12      0       0.233774        57.59522
2014    12      1       0.2114962       53.07921
2014    12      2       0.2310758       56.85408
2014    12      3       0.2857966       67.16701
2014    12      4       0.3215774       73.70657
2014    12      5       0.3314823       75.31833
2014    12      6       0.2780661       65.3343
2014    12      7       0.2419331       58.40176
2014    13      0       0.1927134       48.60352
2014    13      1       0.1533789       40.44302
2014    13      2       0.1130242       31.65333
2014    13      3       0.08626026      25.61253
2014    13      4       0.06503646      20.47277
2014    13      5       0.08550531      25.11654
2014    13      6       0.1922726       48.62747
2014    13      7       0.3148777       73.2029
2014    14      0       0.3367419       77.72522
2014    14      1       0.2976975       71.41694
2014    14      2       0.2217235       56.3028
2014    14      3       0.1914014       49.83737
2014    14      4       0.1593156       42.90832
2014    14      5       0.1675976       44.44554
2014    14      6       0.2221587       55.87379
2014    14      7       0.2525552       61.93255
2014    15      0       0.2230373       56.05194
2014    15      1       0.2269252       56.72422
2014    15      2       0.2848598       68.23277
2014    15      3       0.2867359       68.7355
2014    15      4       0.2288594       57.6008
2014    15      5       0.212633        54.04074
2014    15      6       0.2978011       70.12273
2014    15      7       0.3177494       73.41288
2014    16      0       0.2459407       59.53157
2014    16      1       0.1796032       45.72935
2014    16      2       0.128086        34.60931
2014    16      3       0.08095806      24.10986
2014    16      4       0.05811927      18.83707
2014    16      5       0.05045628      16.91746
2014    16      6       0.09371642      27.02172
2014    16      7       0.1460611       38.95597
2014    17      0       0.1096195       30.85923
2014    17      1       0.07775534      23.54472
2014    17      2       0.07578061      23.08386
2014    17      3       0.06973006      21.58275
2014    17      4       0.05355887      17.6672
2014    17      5       0.05180294      17.23166
2014    17      6       0.06678364      20.77788
2014    17      7       0.1018225       29.05425
2014    18      0       0.08585137      25.36711
2014    18      1       0.07833661      23.62143
2014    18      2       0.08613018      25.4251
2014    18      3       0.08740314      25.73563
2014    18      4       0.1017247       29.17772
2014    18      5       0.09711252      28.24519
2014    18      6       0.09868814      28.63171
2014    18      7       0.1263433       34.82266
2014    19      0       0.1720577       44.88367
2014    19      1       0.1694335       44.1754
2014    19      2       0.1719927       44.88629
2014    19      3       0.1555686       41.41348
2014    19      4       0.149241        39.99725
2014    19      5       0.1602324       42.38153
2014    19      6       0.1831272       47.39994
2014    19      7       0.2061537       52.46869
2014    20      0       0.2006674       51.48211
2014    20      1       0.1711247       45.26115
2014    20      2       0.1822577       47.83617
2014    20      3       0.2144246       54.62053
2014    20      4       0.2498685       61.48344
2014    20      5       0.260495        63.27166
2014    20      6       0.2396202       59.26977
2014    20      7       0.2595337       63.24549
2014    21      0       0.3282253       76.18916
2014    21      1       0.3665864       83.2015
2014    21      2       0.3593963       82.035
2014    21      3       0.3294717       76.85516
2014    21      4       0.2969804       70.68478
2014    21      5       0.2657679       64.67905
2014    21      6       0.234942        58.82179
2014    21      7       0.1876698       49.17472
2014    22      0       0.1770034       46.79754
2014    22      1       0.1806985       47.46541
2014    22      2       0.1596828       43.01023
2014    22      3       0.1240296       35.16859
2014    22      4       0.1234639       34.91548
2014    22      5       0.1643149       43.75959
2014    22      6       0.219812        56.09128
2014    22      7       0.3307623       78.17896
2014    23      0       0.3121336       75.10218
2014    23      1       0.3240494       76.34492
2014    23      2       0.2048127       53.20954
2014    23      3       0.3797662       85.61058
2014    23      4       0.3515228       79.33983
2014    23      5       0.1455663       39.14314
2014    23      6       0.1864732       47.71044
2014    23      7       0.3128506       72.04732
2014    24      0       0.1884585       47.74886
2014    24      1       0.1632317       42.36286
2014    24      2       0.1117374       31.38484
2014    24      3       0.1320578       35.83774
2014    24      4       0.1447935       38.55141
2014    24      5       0.1620516       42.09044
2014    24      6       0.1944646       48.73077
2014    24      7       0.1742586       44.43711
2014    25      0       0.2274426       55.1702
2014    25      1       0.1599966       41.69875
2014    25      2       0.1122724       31.40167
2014    25      3       0.09488364      27.36106
2014    25      4       0.1695213       44.12317
2014    25      5       0.2508072       61.30554
2014    25      6       0.2995635       71.03498
2014    25      7       0.2974008       70.9028
2014    26      0       0.3150136       74.58945
2014    26      1       0.40406         90.20443
2014    26      2       0.4587957       99.24265
2014    26      3       0.4489871       97.7212
2014    26      4       0.3671715       84.02245
2014    26      5       0.3190378       75.47077
2014    26      6       0.2904088       70.23889
2014    26      7       0.2947965       71.40356
2014    27      0       0.2858759       69.70145
2014    27      1       0.2234563       56.90886
2014    27      2       0.1902678       49.79033
2014    27      3       0.1614433       43.44056
2014    27      4       0.1798651       47.48799
2014    27      5       0.2403245       60.33131
2014    27      6       0.2609372       64.53046
2014    27      7       0.2665043       65.84541
2014    28      0       0.2487102       62.25355
2014    28      1       0.2407461       60.76623
2014    28      2       0.2372971       60.26331
2014    28      3       0.2008563       52.33148
2014    28      4       0.1773824       47.12867
2014    28      5       0.1346137       37.8406
2014    28      6       0.1326528       37.46366
2014    28      7       0.144822        40.44034
2014    29      0       0.1338742       38.11869
2014    29      1       0.1108168       32.73293
2014    29      2       0.09195673      28.13557
2014    29      3       0.09333438      28.44331
2014    29      4       0.08352933      25.97479
2014    29      5       0.08809408      27.0093
2014    29      6       0.09407569      28.50189
2014    29      7       0.1187379       34.39414
2014    30      0       0.1213257       34.73661
2014    30      1       0.1027657       30.5183
2014    30      2       0.1140303       33.18128
2014    30      3       0.1167841       33.63166
2014    30      4       0.1393323       38.69127
2014    30      5       0.1704874       45.25855
2014    30      6       0.207812        53.21091
2014    30      7       0.2268945       57.10806
2015    1       0       0.3784026       87.65881
2015    1       1       0.3082827       74.69507
2015    1       2       0.2560058       64.40598
2015    1       3       0.2038736       53.58098
2015    1       4       0.172378        46.19691
2015    1       5       0.2062439       53.14958
2015    1       6       0.2628335       65.20861
2015    1       7       0.3173712       76.35372
2015    2       0       0.282403        69.82623
2015    2       1       0.2751949       68.53063
2015    2       2       0.2849991       70.23078
2015    2       3       0.2688787       66.84203
2015    2       4       0.2886652       70.81427
2015    2       5       0.2809529       69.36793
2015    2       6       0.2510494       63.44697
2015    2       7       0.2167193       56.66601
2015    3       0       0.2025126       53.64623
2015    3       1       0.1844109       49.68307
2015    3       2       0.128782        36.94448
2015    3       3       0.1081907       31.9279
2015    3       4       0.1089087       32.08826
2015    3       5       0.1044945       30.94544
2015    3       6       0.1244643       35.83743
2015    3       7       0.1924764       51.16949
2015    4       0       0.2387244       60.8182
2015    4       1       0.218454        56.67839
2015    4       2       0.2060665       54.36744
2015    4       3       0.191933        51.3012
2015    4       4       0.2700029       67.77017
2015    4       5       0.2539495       63.87348
2015    4       6       0.4204975       94.56053
2015    4       7       0.595781        121.2078
2015    5       0       0.6630151       130.8009
2015    5       1       0.5144807       108.2109
2015    5       2       0.4631995       100.1585
2015    5       3       0.4633129       99.44491
2015    5       4       0.3943586       87.58241
2015    5       5       0.2968347       69.98913
2015    5       6       0.3852833       85.71937
2015    5       7       0.2675159       64.39821
2015    6       0       0.205813        52.19957
2015    6       1       0.1852638       47.8283
2015    6       2       0.2044845       51.64195
2015    6       3       0.268001        63.98286
2015    6       4       0.2346016       57.712
2015    6       5       0.1892968       48.54234
2015    6       6       0.21618         53.78073
2015    6       7       0.2069903       51.92889
2015    7       0       0.1717876       44.91837
2015    7       1       0.1533599       41.1452
2015    7       2       0.111809        32.02432
2015    7       3       0.08661949      26.16294
2015    7       4       0.06922715      22.06251
2015    7       5       0.05486306      18.45693
2015    7       6       0.06094979      19.99061
2015    7       7       0.0750588       23.55616
2015    8       0       0.09105423      27.54899
2015    8       1       0.0908127       27.55
2015    8       2       0.0879463       26.87149
2015    8       3       0.0767368       24.01114
2015    8       4       0.07304335      23.10378
2015    8       5       0.07259147      23.00149
2015    8       6       0.07040199      22.47321
2015    8       7       0.1014704       30.27355
2015    9       0       0.1155441       33.70331
2015    9       1       0.1098948       32.45796
2015    9       2       0.09475172      28.82737
2015    9       3       0.08880115      27.32934
2015    9       4       0.07929507      24.82462
2015    9       5       0.07549057      23.69193
2015    9       6       0.09078572      27.5686
2015    9       7       0.1312117       37.13268
2015    10      0       0.1598451       43.50312
2015    10      1       0.144786        40.30505
2015    10      2       0.1513946       42.02378
2015    10      3       0.1510317       41.93204
2015    10      4       0.1495608       41.58693
2015    10      5       0.1487818       41.24937
2015    10      6       0.1952124       51.28999
2015    10      7       0.2476757       62.03028
2015    11      0       0.3646991       83.43432
2015    11      1       0.4027932       90.12482
2015    11      2       0.4867337       103.8108
2015    11      3       0.4310305       93.52986
2015    11      4       0.3621893       81.38052
2015    11      5       0.3453575       78.5979
2015    11      6       0.1502017       40.63939
2015    11      7       0.08956509      27.04607
2015    12      0       0.08408692      25.50575
2015    12      1       0.1579871       42.38707
2015    12      2       0.1758276       46.27186
2015    12      3       0.1912748       49.34032
2015    12      4       0.1198164       33.93809
2015    12      5       0.1257072       35.18105
2015    12      6       0.1650099       43.82702
2015    12      7       0.2098398       53.3853
2015    13      0       0.2556944       62.43312
2015    13      1       0.1733374       45.98741
2015    13      2       0.1140749       32.9164
2015    13      3       0.08206322      25.29977
2015    13      4       0.08671602      26.20317
2015    13      5       0.09565791      28.46659
2015    13      6       0.1109134       32.14415
2015    13      7       0.1351565       37.94683
2015    14      0       0.1257421       35.89958
2015    14      1       0.1062853       31.3662
2015    14      2       0.09489313      28.59843
2015    14      3       0.09498298      28.63764
2015    14      4       0.09371088      28.304
2015    14      5       0.09468035      28.52072
2015    14      6       0.08984863      27.43797
2015    14      7       0.09251737      28.17497
2015    15      0       0.09537171      28.94125
2015    15      1       0.09433489      28.74935
2015    15      2       0.08705988      26.96342
2015    15      3       0.07997646      24.97146
2015    15      4       0.08575074      26.41397
2015    15      5       0.1187966       34.36746
2015    15      6       0.1432752       40.03586
2015    15      7       0.1438916       40.25498
2015    16      0       0.1438862       39.90058
2015    16      1       0.1199441       34.29447
2015    16      2       0.11158         32.16342
2015    16      3       0.3120762       74.60241
2015    16      4       0.3215595       77.53757
2015    16      5       0.3643205       84.77141
2015    16      6       0.391564        88.88055
2015    16      7       0.5560799       114.4625
2015    17      0       0.5838297       118.0163
2015    17      1       0.5315924       109.6919
2015    17      2       0.5382496       110.7037
2015    17      3       0.5073669       105.5499
2015    17      4       0.4444984       95.31253
2015    17      5       0.3190119       73.64728
2015    17      6       0.2214728       54.81945
2015    17      7       0.1171402       33.10652
2015    18      0       0.2227819       56.3016
2015    18      1       0.2436829       60.90185
2015    18      2       0.2351976       59.24879
2015    18      3       0.2368426       59.66697
2015    18      4       0.2327875       58.04677
2015    18      5       0.1624981       44.43107
2015    18      6       0.1606686       43.47978
2015    18      7       0.2159458       54.89538
2015    19      0       0.1957343       50.38846
2015    19      1       0.1403625       38.26885
2015    19      2       0.1390631       37.62498
2015    19      3       0.156063        41.40528
2015    19      4       0.1995961       50.84291
2015    19      5       0.2205987       55.52575
2015    19      6       0.239898        59.65458
2015    19      7       0.2731521       66.61351
2015    20      0       0.2835731       68.99207
2015    20      1       0.277421        68.08916
2015    20      2       0.2737806       67.433
2015    20      3       0.2669573       66.15318
2015    20      4       0.2346807       59.54895
2015    20      5       0.2909211       70.51299
2015    20      6       0.3737367       84.58077
2015    20      7       0.3184471       74.24213
2015    21      0       0.2983134       69.67637
2015    21      1       0.1715547       44.18915
2015    21      2       0.1210368       33.42228
2015    21      3       0.0650629       20.61983
2015    21      4       0.04234042      15.12655
2015    21      5       0.05138109      17.35972
2015    21      6       0.06275714      19.99026
2015    21      7       0.07091713      21.88777
2015    22      0       0.08542068      25.33867
2015    22      1       0.1303105       35.79331
2015    22      2       0.1528887       41.18861
2015    22      3       0.1550307       42.04826
2015    22      4       0.1621567       43.90991
2015    22      5       0.1818928       48.31011
2015    22      6       0.1799577       47.94658
2015    22      7       0.1790706       47.81564
2015    23      0       0.1914898       50.42524
2015    23      1       0.2054942       53.30123
2015    23      2       0.1988034       51.92682
2015    23      3       0.1783723       47.67711
2015    23      4       0.1519695       41.95804
2015    23      5       0.1275292       36.24961
2015    23      6       0.1077957       31.3047
2015    23      7       0.149282        40.7734
2015    24      0       0.1590578       42.95287
2015    24      1       0.1502178       41.07611
2015    24      2       0.1346851       37.65764
2015    24      3       0.1328915       37.08335
2015    24      4       0.1811985       47.67468
2015    24      5       0.210001        53.97962
2015    24      6       0.1683643       45.37219
2015    24      7       0.1956423       51.0746
2015    25      0       0.2037776       52.73082
2015    25      1       0.1485207       40.99149
2015    25      2       0.1283311       36.30144
2015    25      3       0.1351895       37.84082
2015    25      4       0.1722799       45.71175
2015    25      5       0.2537029       61.99088
2015    25      6       0.2585255       63.22933
2015    25      7       0.3398634       78.83654
2015    26      0       0.3363067       78.43842
2015    26      1       0.520951        109.4136
2015    26      2       0.5532074       114.3786
2015    26      3       0.4826456       103.3376
2015    26      4       0.3670977       83.86028
2015    26      5       0.2550747       62.87082
2015    26      6       0.2613616       63.75708
2015    26      7       0.338379        77.83497
2015    27      0       0.3497833       79.60346
2015    27      1       0.3026081       70.88031
2015    27      2       0.2544958       61.73192
2015    27      3       0.243851        59.70959
2015    27      4       0.1651574       43.82226
2015    27      5       0.116559        33.12811
2015    27      6       0.1164825       33.18655
2015    27      7       0.2525339       62.0503
2015    28      0       0.2622236       63.89202
2015    28      1       0.3659794       82.90688
2015    28      2       0.2257229       57.28422
2015    28      3       0.1967506       50.94668
2015    28      4       0.1805251       47.19559
2015    28      5       0.1507851       40.5744
2015    28      6       0.1231236       34.48282
2015    28      7       0.1478429       39.98561
2015    29      0       0.1596111       42.54534
2015    29      1       0.1836099       47.53269
2015    29      2       0.2023474       51.30499
2015    29      3       0.2194872       54.8143
2015    29      4       0.2018395       51.46034
2015    29      5       0.1693438       44.49463
2015    29      6       0.1614999       42.54704
2015    29      7       0.2333826       57.16313
2015    30      0       0.3140472       72.13755
2015    30      1       0.2701884       63.86916
2015    30      2       0.2619016       62.259
2015    30      3       0.2391024       57.71805
2015    30      4       0.2180926       53.46594
2015    30      5       0.1538128       40.21931
2015    30      6       0.1104121       30.76606
2015    30      7       0.1250251       33.93549
2016    1       0       0.3286194       79.83284
2016    1       1       0.3129447       76.68068
2016    1       2       0.3685091       87.06746
2016    1       3       0.3495761       83.3233
2016    1       4       0.4788477       105.5969
2016    1       5       0.5968918       123.1136
2016    1       6       0.6157604       125.9941
2016    1       7       0.5852162       121.4348
2016    2       0       0.5583119       117.3917
2016    2       1       0.5425564       114.8035
2016    2       2       0.4722773       103.579
2016    2       3       0.4568957       100.9301
2016    2       4       0.4544593       100.1128
2016    2       5       0.3911745       89.73023
2016    2       6       0.4204637       94.78474
2016    2       7       0.3891558       89.5626
2016    3       0       0.3271          78.59425
2016    3       1       0.2753686       68.84861
2016    3       2       0.21949         57.41375
2016    3       3       0.1728729       47.20721
2016    3       4       0.138034        39.26753
2016    3       5       0.117391        34.37921
2016    3       6       0.1177493       34.43597
2016    3       7       0.1166502       34.1994
2016    4       0       0.1102136       32.63017
2016    4       1       0.114603        33.63363
2016    4       2       0.1508816       42.08047
2016    4       3       0.2126672       55.83148
2016    4       4       0.2405591       61.7572
2016    4       5       0.2542324       64.50099
2016    4       6       0.3066965       74.57346
2016    4       7       0.3344497       79.89982
2016    5       0       0.3176743       76.962
2016    5       1       0.3010699       73.86771
2016    5       2       0.318939        77.49217
2016    5       3       0.3322109       80.05213
2016    5       4       0.3432806       82.00771
2016    5       5       0.4457265       99.64439
2016    5       6       0.5769185       120.3056
2016    5       7       0.6277404       128.1274
2016    6       0       0.7318293       142.3062
2016    6       1       0.6337962       129.3385
2016    6       2       0.5289428       113.794
2016    6       3       0.4922017       107.6652
2016    6       4       0.5142367       111.0978
2016    6       5       0.4466258       99.40371
2016    6       6       0.4707697       103.4463
2016    6       7       0.4869736       106.5626
2016    7       0       0.4339751       97.65828
2016    7       1       0.3182678       76.68224
2016    7       2       0.2651873       66.19742
2016    7       3       0.2904218       71.18568
2016    7       4       0.330779        78.61687
2016    7       5       0.3188802       76.298
2016    7       6       0.2900931       70.89177
2016    7       7       0.2868277       70.43734
2016    8       0       0.2765898       68.57429
2016    8       1       0.2409519       61.50267
2016    8       2       0.2192972       57.00736
2016    8       3       0.199244        52.72084
2016    8       4       0.1846205       49.47799
2016    8       5       0.1752925       47.37148
2016    8       6       0.2035738       53.31306
2016    8       7       0.238006        60.45333
2016    9       0       0.2492296       62.82154
2016    9       1       0.2577065       64.66011
2016    9       2       0.2497159       63.19837
2016    9       3       0.229401        59.12588
2016    9       4       0.2037008       53.83164
2016    9       5       0.1912024       51.13854
2016    9       6       0.1921143       51.42825
2016    9       7       0.1970797       52.60598
2016    10      0       0.2091295       55.30756
2016    10      1       0.2132161       56.26044
2016    10      2       0.2135906       56.31716
2016    10      3       0.2113248       55.7731
2016    10      4       0.2208924       57.72242
2016    10      5       0.2484367       63.44821
2016    10      6       0.3024371       74.34899
2016    10      7       0.3270572       79.03192
2016    11      0       0.3145204       76.18294
2016    11      1       0.3074781       74.61929
2016    11      2       0.3402889       80.91787
2016    11      3       0.35264         83.51936
2016    11      4       0.3438058       81.62493
2016    11      5       0.349449        82.35377
2016    11      6       0.3852013       88.48511
2016    11      7       0.4273536       95.65605
2016    12      0       0.4120839       93.22813
2016    12      1       0.3670452       85.65832
2016    12      2       0.3757001       87.20188
2016    12      3       0.3635081       85.08279
2016    12      4       0.312174        75.41218
2016    12      5       0.2698231       67.18574
2016    12      6       0.2739483       68.26853
2016    12      7       0.3086927       75.30276
2016    13      0       0.333205        79.85365
2016    13      1       0.3249368       78.16157
2016    13      2       0.304942        74.1822
2016    13      3       0.3293598       78.52694
2016    13      4       0.3546555       82.93643
2016    13      5       0.3974944       90.08199
2016    13      6       0.4360409       96.67269
2016    13      7       0.4318631       96.31664
2016    14      0       0.3543034       82.97163
2016    14      1       0.2398945       61.08636
2016    14      2       0.200422        52.55108
2016    14      3       0.2136378       55.18206
2016    14      4       0.2854259       69.48253
2016    14      5       0.4527297       100.6524
2016    14      6       0.4228006       96.19266
2016    14      7       0.413522        94.46295
2016    15      0       0.4121875       94.28546
2016    15      1       0.368544        86.77887
2016    15      2       0.3210854       77.72167
2016    15      3       0.2882029       71.39958
2016    15      4       0.2256021       58.67186
2016    15      5       0.1771449       48.12524
2016    15      6       0.1866208       50.23182
2016    15      7       0.2018768       53.60761
2016    16      0       0.2076113       54.82855
2016    16      1       0.191964        51.48496
2016    16      2       0.2287834       59.16325
2016    16      3       0.2542141       64.49225
2016    16      4       0.2737209       68.47998
2016    16      5       0.2882869       71.23662
2016    16      6       0.348353        82.98499
2016    16      7       0.3032711       74.24682
2016    17      0       0.2037531       53.56255
2016    17      1       0.2113839       54.91144
2016    17      2       0.2807174       68.90833
2016    17      3       0.4620977       101.9825
2016    17      4       0.3980218       90.49939
2016    17      5       0.3330352       79.08047
2016    17      6       0.4660705       100.7035
2016    17      7       0.5310817       110.2388
2016    18      0       0.4710837       100.1115
2016    18      1       0.3383779       76.88693
2016    18      2       0.2196795       54.37762
2016    18      3       0.1642367       43.02634
2016    18      4       0.1409957       38.01607
2016    18      5       0.110385        31.28083
2016    18      6       0.09648321      28.19457
2016    18      7       0.1018846       29.57983
2016    19      0       0.09724529      28.50137
2016    19      1       0.1007543       29.10971
2016    19      2       0.1057066       30.41907
2016    19      3       0.199879        51.8059
2016    19      4       0.2651331       65.88465
2016    19      5       0.2441231       61.83966
2016    19      6       0.2519744       63.7381
2016    19      7       0.2310131       59.59929
2016    20      0       0.2016804       53.46206
2016    20      1       0.1698176       46.41143
2016    20      2       0.1541014       42.18621
2016    20      3       0.2172637       55.92557
2016    20      4       0.2506354       63.20072
2016    20      5       0.3258223       77.7773
2016    20      6       0.3616996       84.31055
2016    20      7       0.4227571       95.17858
2016    21      0       0.3873177       89.11411
2016    21      1       0.3747762       86.32082
2016    21      2       0.3804321       86.97321
2016    21      3       0.4359644       96.6318
2016    21      4       0.4748087       103.0497
2016    21      5       0.5508921       114.8228
2016    21      6       0.5761212       119.0368
2016    21      7       0.5257834       112.1187
2016    22      0       0.422272        95.2915
2016    22      1       0.5221624       110.5628
2016    22      2       0.5949854       121.2453
2016    22      3       0.52734         110.6357
2016    22      4       0.5065697       107.3029
2016    22      5       0.4927597       105.0663
2016    22      6       0.4124719       91.49928
2016    22      7       0.3254433       76.23105
2016    23      0       0.2676091       65.47416
2016    23      1       0.2148892       54.97932
2016    23      2       0.1677783       44.86958
2016    23      3       0.1401417       38.56921
2016    23      4       0.1156397       32.86851
2016    23      5       0.1315447       36.21381
2016    23      6       0.1463497       39.60895
2016    23      7       0.1475085       40.36526
2016    24      0       0.1754465       46.66812
2016    24      1       0.1669282       44.87024
2016    24      2       0.1652264       44.49186
2016    24      3       0.2448454       60.76944
2016    24      4       0.2170808       54.63663
2016    24      5       0.1086003       31.17469
2016    24      6       0.1020414       29.7547
2016    24      7       0.1056703       30.68396
2016    25      0       0.09735797      28.72496
2016    25      1       0.08747692      26.45144
2016    25      2       0.09493106      28.23867
2016    25      3       0.103579        30.27722
2016    25      4       0.07983485      24.74043
2016    25      5       0.06074929      20.02425
2016    25      6       0.05612434      18.87307
2016    25      7       0.07067271      22.53794
2016    26      0       0.07626698      23.95047
2016    26      1       0.06562647      21.32607
2016    26      2       0.04853193      16.97216
2016    26      3       0.04167085      15.18791
2016    26      4       0.04253819      15.43172
2016    26      5       0.04496396      15.98359
2016    26      6       0.04423017      15.86726
2016    26      7       0.05550625      18.86222
2016    27      0       0.06522866      21.35415
2016    27      1       0.0894752       26.93023
2016    27      2       0.206214        52.63557
2016    27      3       0.4011002       89.76682
2016    27      4       0.3400503       79.84531
2016    27      5       0.5003322       105.342
2016    27      6       0.3121001       73.02379
2016    27      7       0.2677268       64.33119
2016    28      0       0.2811513       67.00107
2016    28      1       0.254204        62.01132
2016    28      2       0.1859666       48.00312
2016    28      3       0.1978595       50.41011
2016    28      4       0.2310424       57.10185
2016    28      5       0.1659377       43.67984
2016    28      6       0.1562146       41.27509
2016    28      7       0.217097        53.85606
2016    29      0       0.2237396       55.13419
2016    29      1       0.2240193       55.10275
2016    29      2       0.1774221       45.59342
2016    29      3       0.1586595       41.58978
2016    29      4       0.1603601       41.7254
2016    29      5       0.1775138       45.32069
2016    29      6       0.1932057       48.41757
2016    29      7       0.2015697       50.19502
2016    30      0       0.2202999       54.06859
2016    30      1       0.1898691       47.84036
2016    30      2       0.144053        38.24748
2016    30      3       0.1193963       33.01064
2016    30      4       0.09407664      27.43323
2016    30      5       0.07403235      22.82332
2016    30      6       0.0738817       22.86573
2016    30      7       0.08985849      26.71333
2017    1       0       0.2185758       55.25347
2017    1       1       0.2857449       68.73504
2017    1       2       0.2971286       71.81319
2017    1       3       0.260461        65.51653
2017    1       4       0.3226356       77.95827
2017    1       5       0.2905784       72.17144
2017    1       6       0.2567599       64.97054
2017    1       7       0.2790553       69.40296
2017    2       0       0.2803835       69.59359
2017    2       1       0.2897449       71.63134
2017    2       2       0.3048481       74.56665
2017    2       3       0.3704379       86.65181
2017    2       4       0.3785215       88.13974
2017    2       5       0.2849503       70.61798
2017    2       6       0.2783262       69.29267
2017    2       7       0.3582062       84.58902
2017    3       0       0.3513878       83.58033
2017    3       1       0.3514661       83.52667
2017    3       2       0.3225869       77.94658
2017    3       3       0.2701745       67.64707
2017    3       4       0.2148804       55.9715
2017    3       5       0.1430319       39.8708
2017    3       6       0.1389224       38.83581
2017    3       7       0.2230541       57.88293
2017    4       0       0.2656796       66.68906
2017    4       1       0.2511525       63.88715
2017    4       2       0.2641068       66.45661
2017    4       3       0.211338        55.2175
2017    4       4       0.2507589       63.40932
2017    4       5       0.3621455       85.15341
2017    4       6       0.3947444       91.04826
2017    4       7       0.3903086       90.00356
2017    5       0       0.3358464       79.86387
2017    5       1       0.2678576       66.63346
2017    5       2       0.2688641       66.72653
2017    5       3       0.3198323       76.31269
2017    5       4       0.2904362       70.93431
2017    5       5       0.356944        83.34454
2017    5       6       0.4343376       96.38784
2017    5       7       0.4438318       97.89588
2017    6       0       0.4159217       93.38338
2017    6       1       0.3295882       78.25735
2017    6       2       0.2798753       68.85311
2017    6       3       0.302893        73.2686
2017    6       4       0.2597005       64.82082
2017    6       5       0.1972453       51.93883
2017    6       6       0.265501        65.91295
2017    6       7       0.4476111       97.80163
2017    7       0       0.4320098       95.1391
2017    7       1       0.3602048       83.09183
2017    7       2       0.4854858       104.3923
2017    7       3       0.392887        88.23691
2017    7       4       0.2751655       66.63881
2017    7       5       0.2783423       67.22809
2017    7       6       0.2962473       70.5525
2017    7       7       0.3622007       82.41975
2017    8       0       0.3353283       77.5998
2017    8       1       0.2733423       66.07822
2017    8       2       0.2527632       62.11978
2017    8       3       0.2214322       56.07342
2017    8       4       0.1510418       41.33239
2017    8       5       0.08360132      25.64349
2017    8       6       0.06807804      21.53274
2017    8       7       0.0973336       28.51955
2017    9       0       0.133525        36.78822
2017    9       1       0.1153966       32.82151
2017    9       2       0.08513037      25.76017
2017    9       3       0.07081975      22.47402
2017    9       4       0.08167069      25.12005
2017    9       5       0.1248702       34.65702
2017    9       6       0.1269139       35.42643
2017    9       7       0.1635633       44.56711
2017    10      0       0.193643        51.50391
2017    10      1       0.1623526       44.78287
2017    10      2       0.1434633       40.22359
2017    10      3       0.1586178       43.70023
2017    10      4       0.1680316       45.86327
2017    10      5       0.15881         43.68374
2017    10      6       0.1270617       36.38225
2017    10      7       0.1663084       45.46819
2017    11      0       0.1914911       50.90775
2017    11      1       0.201087        52.83873
2017    11      2       0.1970161       51.92761
2017    11      3       0.2029521       53.12577
2017    11      4       0.2052283       53.41191
2017    11      5       0.1948656       51.23824
2017    11      6       0.2102          54.50063
2017    11      7       0.2725039       66.93209
2017    12      0       0.2312617       58.68167
2017    12      1       0.1853625       48.92681
2017    12      2       0.1917893       50.19057
2017    12      3       0.1734995       46.3072
2017    12      4       0.1285632       36.40821
2017    12      5       0.1213803       34.58228
2017    12      6       0.1240375       35.07784
2017    12      7       0.1528913       41.63367
2017    13      0       0.1557182       42.25746
2017    13      1       0.1668662       44.3558
2017    13      2       0.2290358       56.93251
2017    13      3       0.3926241       87.94453
2017    13      4       0.3922132       89.35121
2017    13      5       0.301922        73.18198
2017    13      6       0.1828196       48.78908
2017    13      7       0.2057995       53.98267
2017    14      0       0.2226984       57.42047
2017    14      1       0.2390384       60.70047
2017    14      2       0.2326056       59.15732
2017    14      3       0.2266138       57.97112
2017    14      4       0.2146506       55.36208
2017    14      5       0.1897377       49.95865
2017    14      6       0.190792        50.20228
2017    14      7       0.2293656       58.59798
2017    15      0       0.2202706       56.77165
2017    15      1       0.1120908       33.05028
2017    15      2       0.09559814      28.88708
2017    15      3       0.09173364      27.74502
2017    15      4       0.1039978       30.24352
2017    15      5       0.1043575       30.03176
2017    15      6       0.1414127       38.53603
2017    15      7       0.2090941       53.32353
2017    16      0       0.2833808       68.16098
2017    16      1       0.2562224       63.09412
2017    16      2       0.2406186       60.61038
2017    16      3       0.2585993       64.71876
2017    16      4       0.2459824       62.29173
2017    16      5       0.2517838       63.67951
2017    16      6       0.2325594       59.94488
2017    16      7       0.2971076       73.10077
2017    17      0       0.3433628       82.03035
2017    17      1       0.2968476       73.13033
2017    17      2       0.2642158       66.23766
2017    17      3       0.3088441       75.19677
2017    17      4       0.3604326       84.7879
2017    17      5       0.3886527       89.75421
2017    17      6       0.3681642       85.86069
2017    17      7       0.4281931       95.4831
2017    18      0       0.4423839       97.56648
2017    18      1       0.4694884       100.2665
2017    18      2       0.3154667       73.22715
2017    18      3       0.2208825       54.73785
2017    18      4       0.1399834       38.05726
2017    18      5       0.07198724      22.46645
2017    18      6       0.09617184      28.08923
2017    18      7       0.1355322       37.2274
2017    19      0       0.135568        37.38855
2017    19      1       0.1418478       38.64015
2017    19      2       0.1564668       41.97903
2017    19      3       0.1639144       43.73788
2017    19      4       0.1348194       37.5077
2017    19      5       0.1138999       32.84393
2017    19      6       0.1026429       30.13588
2017    19      7       0.124373        34.75906
2017    20      0       0.0942295       27.61191
2017    20      1       0.08891444      26.39984
2017    20      2       0.09152868      27.58078
2017    20      3       0.08327343      25.52224
2017    20      4       0.05887423      19.38573
2017    20      5       0.139452        38.65193
2017    20      6       0.2298882       58.37397
2017    20      7       0.2797328       68.266
2017    21      0       0.2797411       68.10739
2017    21      1       0.3291158       77.68737
2017    21      2       0.2909216       70.98129
2017    21      3       0.2628552       64.97166
2017    21      4       0.4518373       98.37802
2017    21      5       0.4734233       102.2592
2017    21      6       0.3773418       86.43323
2017    21      7       0.265597        65.73121
2017    22      0       0.2057431       53.65496
2017    22      1       0.1785252       47.27919
2017    22      2       0.2178078       55.22845
2017    22      3       0.323575        76.32918
2017    22      4       0.4648887       102.5113
2017    22      5       0.4105812       93.74423
2017    22      6       0.4893591       107.0018
2017    22      7       0.627089        128.1174
2017    23      0       0.5752471       120.8346
2017    23      1       0.4960664       108.5799
2017    23      2       0.4158473       95.13245
2017    23      3       0.3745309       87.64907
2017    23      4       0.2927993       71.81873
2017    23      5       0.2617928       65.53873
2017    23      6       0.2448509       61.85905
2017    23      7       0.2937423       71.65738
2017    24      0       0.4090091       93.17195
2017    24      1       0.3295571       79.20573
2017    24      2       0.3325238       79.36952
2017    24      3       0.2967737       73.50584
2017    24      4       0.3061828       75.25486
2017    24      5       0.262978        66.7529
2017    24      6       0.2319141       60.18457
2017    24      7       0.4040178       91.94789
2017    25      0       0.363082        84.64366
2017    25      1       0.3069611       74.38628
2017    25      2       0.2234189       57.81084
2017    25      3       0.1952926       51.39275
2017    25      4       0.1956915       50.42982
2017    25      5       0.1049829       30.67876
2017    25      6       0.09359392      28.19485
2017    25      7       0.1313605       37.15026
2017    26      0       0.159833        43.3342
2017    26      1       0.2164106       54.97497
2017    26      2       0.3095898       74.18715
2017    26      3       0.3578011       84.45227
2017    26      4       0.2950963       72.44608
2017    26      5       0.2317186       59.37123
2017    26      6       0.2118409       55.03977
2017    26      7       0.2395756       61.10989
2017    27      0       0.2330692       59.91025
2017    27      1       0.175555        47.74947
2017    27      2       0.1122156       33.45319
2017    27      3       0.08110205      25.78192
2017    27      4       0.07231176      23.54993
2017    27      5       0.09161746      28.06033
2017    27      6       0.1052624       31.36867
2017    27      7       0.1526609       42.81295
2017    28      0       0.1839194       49.49064
2017    28      1       0.225593        57.88488
2017    28      2       0.2713284       67.37138
2017    28      3       0.3517967       82.11533
2017    28      4       0.3402863       79.71834
2017    28      5       0.3017768       72.28888
2017    28      6       0.2514851       62.75088
2017    28      7       0.1906687       50.34494
2017    29      0       0.1901839       50.47512
2017    29      1       0.182521        49.03087
2017    29      2       0.1544229       42.83501
2017    29      3       0.1059894       31.52533
2017    29      4       0.1212968       34.91425
2017    29      5       0.1281717       36.50726
2017    29      6       0.1779784       47.62819
2017    29      7       0.2570491       63.58334
2017    30      0       0.2289908       58.33015
2017    30      1       0.1914077       50.59931
2017    30      2       0.1569618       42.75806
2017    30      3       0.1723922       45.85963
2017    30      4       0.1702263       45.6259
2017    30      5       0.1438537       40.03978
2017    30      6       0.1328834       37.49194
2017    30      7       0.1855669       49.28943
2018    1       0       0.1477219       40.2697
2018    1       1       0.162968        43.06487
2018    1       2       0.2613816       62.72582
2018    1       3       0.3938922       86.87659
2018    1       4       0.2853685       68.13958
2018    1       5       0.1780766       46.74061
2018    1       6       0.2016302       51.6885
2018    1       7       0.3074455       72.55842
2018    2       0       0.3761165       85.0398
2018    2       1       0.3710359       84.14917
2018    2       2       0.3677606       83.9432
2018    2       3       0.3520929       81.6319
2018    2       4       0.3734287       85.86181
2018    2       5       0.3979612       90.32935
2018    2       6       0.4233329       95.05161
2018    2       7       0.2945927       72.12639
2018    3       0       0.2667634       66.26875
2018    3       1       0.2976785       72.28729
2018    3       2       0.2872308       68.82638
2018    3       3       0.3206374       74.77562
2018    3       4       0.3732764       83.52833
2018    3       5       0.3399894       78.29011
2018    3       6       0.3045027       71.72513
2018    3       7       0.3169909       74.07201
2018    4       0       0.350084        79.56019
2018    4       1       0.3275094       75.26668
2018    4       2       0.2494797       60.96447
2018    4       3       0.1978307       50.83587
2018    4       4       0.2144966       54.49516
2018    4       5       0.2766504       67.22198
2018    4       6       0.5084002       107.7171
2018    4       7       0.5699595       116.865
2018    5       0       0.4687321       101.5815
2018    5       1       0.3613871       83.02852
2018    5       2       0.3500657       80.63119
2018    5       3       0.3393377       78.69691
2018    5       4       0.3712971       84.24109
2018    5       5       0.2394537       59.4844
2018    5       6       0.2950446       70.2166
2018    5       7       0.2760407       66.88694
2018    6       0       0.2691413       65.68462
2018    6       1       0.1522909       41.29913
2018    6       2       0.2041347       52.29366
2018    6       3       0.1951022       50.34898
2018    6       4       0.2028582       51.77177
2018    6       5       0.1672856       44.14973
2018    6       6       0.2147395       54.01971
2018    6       7       0.2280444       56.79543
2018    7       0       0.2165028       54.49433
2018    7       1       0.1665151       44.07304
2018    7       2       0.2146876       53.80543
2018    7       3       0.2298616       56.93918
2018    7       4       0.1826291       47.42195
2018    7       5       0.1308092       36.14779
2018    7       6       0.1239467       34.58009
2018    7       7       0.1752106       45.76834
2018    8       0       0.1880768       48.47587
2018    8       1       0.1814708       47.01744
2018    8       2       0.1694869       44.3424
2018    8       3       0.1796232       46.35462
2018    8       4       0.1794974       46.23456
2018    8       5       0.1645517       42.97952
2018    8       6       0.1264978       34.81892
2018    8       7       0.1132289       31.94933
2018    9       0       0.1330711       36.52166
2018    9       1       0.1036646       29.75233
2018    9       2       0.1034436       29.65085
2018    9       3       0.1024646       29.53072
2018    9       4       0.09692004      28.25841
2018    9       5       0.0916251       27.03957
2018    9       6       0.08179089      24.81486
2018    9       7       0.09348781      27.63673
2018    10      0       0.09426809      27.90686
2018    10      1       0.1037497       29.99757
2018    10      2       0.09126422      26.95473
2018    10      3       0.09289987      27.35807
2018    10      4       0.1649224       43.22201
2018    10      5       0.1313654       36.06072
2018    10      6       0.1317202       36.10821
2018    10      7       0.1790926       46.31057
2018    11      0       0.2465521       59.68738
2018    11      1       0.288265        67.81
2018    11      2       0.3336014       76.32765
2018    11      3       0.351009        79.51935
2018    11      4       0.3911912       86.20369
2018    11      5       0.3570658       80.00331
2018    11      6       0.3747805       82.97382
2018    11      7       0.4064701       87.7451
2018    12      0       0.2741872       64.199
2018    12      1       0.2577543       60.90443
2018    12      2       0.1917704       47.77618
2018    12      3       0.2321713       55.67042
2018    12      4       0.1618759       41.62062
2018    12      5       0.1235487       33.50153
2018    12      6       0.1283558       34.73939
2018    12      7       0.09811012      28.12031
2018    13      0       0.08701615      25.56629
2018    13      1       0.08720238      25.59278
2018    13      2       0.1363675       36.7562
2018    13      3       0.1787418       46.24965
2018    13      4       0.1998628       51.1697
2018    13      5       0.2123286       53.99855
2018    13      6       0.219145        55.47496
2018    13      7       0.2242123       56.59497
2018    14      0       0.2206701       55.96099
2018    14      1       0.2562143       63.12384
2018    14      2       0.2491331       61.75751
2018    14      3       0.2390221       59.77953
2018    14      4       0.2057006       52.94944
2018    14      5       0.1669081       44.81832
2018    14      6       0.149875        41.17815
2018    14      7       0.1561791       42.64965
2018    15      0       0.1475685       40.66723
2018    15      1       0.144824        39.9474
2018    15      2       0.186304        48.83121
2018    15      3       0.183774        48.34315
2018    15      4       0.193509        50.52249
2018    15      5       0.1728906       45.83334
2018    15      6       0.1679309       44.6773
2018    15      7       0.2091819       53.6928
2018    16      0       0.2131782       54.59023
2018    16      1       0.1825585       48.26045
2018    16      2       0.1494385       40.95302
2018    16      3       0.147786        40.53435
2018    16      4       0.1736588       46.28501
2018    16      5       0.20328         52.43373
2018    16      6       0.2619473       64.17749
2018    16      7       0.274474        66.94152
2018    17      0       0.309324        73.3739
2018    17      1       0.3858327       86.73627
2018    17      2       0.3371954       78.46325
2018    17      3       0.3563299       81.87427
2018    17      4       0.3217108       75.27895
2018    17      5       0.3117464       73.4794
2018    17      6       0.3120397       73.27358
2018    17      7       0.2972985       70.29269
2018    18      0       0.3108617       72.90534
2018    18      1       0.3112287       72.96773
2018    18      2       0.2433523       59.90513
2018    18      3       0.1638491       43.61294
2018    18      4       0.09666565      28.56592
2018    18      5       0.0485188       16.82843
2018    18      6       0.03718279      13.80028
2018    18      7       0.06060906      19.60814
2018    19      0       0.07536692      22.97048
2018    19      1       0.07526825      23.09847
2018    19      2       0.1081604       30.73263
2018    19      3       0.153274        40.62675
2018    19      4       0.1704873       44.56809
2018    19      5       0.1892539       48.89207
2018    19      6       0.1944712       50.14608
2018    19      7       0.1957864       50.52446
2018    20      0       0.1938191       50.29059
2018    20      1       0.1730641       45.90203
2018    20      2       0.1509338       41.14439
2018    20      3       0.134536        37.50357
2018    20      4       0.1338377       37.33605
2018    20      5       0.1337063       37.26144
2018    20      6       0.144436        39.66825
2018    20      7       0.1621753       43.69793
2018    21      0       0.161872        43.69648
2018    21      1       0.1564859       42.50843
2018    21      2       0.1497101       41.01703
2018    21      3       0.1319947       37.05111
2018    21      4       0.1189975       34.02467
2018    21      5       0.1159516       33.27255
2018    21      6       0.1148666       33.0769
2018    21      7       0.1144359       33.09807
2018    22      0       0.1103566       32.16885
2018    22      1       0.1052323       30.99799
2018    22      2       0.09357256      28.20352
2018    22      3       0.08934647      27.05872
2018    22      4       0.08100294      24.8649
2018    22      5       0.09614993      28.24217
2018    22      6       0.1347429       37.41429
2018    22      7       0.2992927       70.99133
2018    23      0       0.4335936       95.02179
2018    23      1       0.433721        94.98524
2018    23      2       0.2557143       62.63158
2018    23      3       0.1888233       49.01446
2018    23      4       0.05975355      19.63437
2018    23      5       0.1481956       40.3321
2018    23      6       0.1823025       47.90081
2018    23      7       0.2052807       52.84554
2018    24      0       0.1909133       49.97598
2018    24      1       0.2070373       53.21609
2018    24      2       0.2723056       66.6475
2018    24      3       0.2963094       71.69897
2018    24      4       0.3053513       73.46201
2018    24      5       0.2936706       71.15395
2018    24      6       0.2832887       69.61611
2018    24      7       0.4218899       92.25215
2018    25      0       0.1508963       40.36853
2018    25      1       0.2130859       53.2897
2018    25      2       0.3058995       70.75473
2018    25      3       0.2324102       56.70562
2018    25      4       0.113277        31.83156
2018    25      5       0.09434407      27.48576
2018    25      6       0.1184827       33.08096
2018    25      7       0.1132372       32.07569
2018    26      0       0.09564779      27.99462
2018    26      1       0.08780603      26.06483
2018    26      2       0.09732024      28.17421
2018    26      3       0.1197689       33.4237
2018    26      4       0.1148758       32.54109
2018    26      5       0.1448187       39.11093
2018    26      6       0.1928078       49.44203
2018    26      7       0.2023263       51.99486
2018    27      0       0.2099725       53.54658
2018    27      1       0.3205871       74.86136
2018    27      2       0.2503918       61.80027
2018    27      3       0.2235332       56.67631
2018    27      4       0.2118654       54.36606
2018    27      5       0.2087193       53.49346
2018    27      6       0.3477281       79.92284
2018    27      7       0.4541025       98.28535
2018    28      0       0.4696934       101.0858
2018    28      1       0.3625409       83.28343
2018    28      2       0.3668728       84.16392
2018    28      3       0.3379105       79.64633
2018    28      4       0.1135955       33.09269
2018    28      5       0.1587369       43.19278
2018    28      6       0.2065663       53.46454
2018    28      7       0.3055377       73.24408
2018    29      0       0.3454654       80.59179
2018    29      1       0.4754045       101.8032
2018    29      2       0.4465516       97.27067
2018    29      3       0.3552521       82.06814
2018    29      4       0.2601009       64.39969
2018    29      5       0.1818644       48.31727
2018    29      6       0.1299609       36.62553
2018    29      7       0.206582        53.29965
2018    30      0       0.3430038       79.81256
2018    30      1       0.2454982       61.42774
2018    30      2       0.1985432       51.39519
2018    30      3       0.2092725       53.91126
2018    30      4       0.2272003       57.356
2018    30      5       0.2968724       70.43533
2018    30      6       0.2480736       61.44913
2018    30      7       0.3801608       85.57258
