####################################################################################################
# Month: 11Nov                                                                                     #
# Station: HAN                                                                                     #
# Frequency: 345 GHz                                                                               #
# Columns are: year    day     tau     Tb (K)                                                      #
####################################################################################################
2009    1       0.21360682      54.01129375
2009    2       0.22275121      56.2528925
2009    3       0.26779392      64.362035
2009    4       0.36341611      81.82253625
2009    5       0.29573379      70.249425
2009    6       0.33095474      76.329965
2009    7       0.25302586      62.11486125
2009    8       0.22950662      57.5097925
2009    9       0.48010554      100.0183125
2009    10      0.2887275       68.18128875
2009    11      0.11320998      33.18801625
2009    12      0.12532589      36.2687575
2009    13      0.6925456       131.2516
2009    14      0.61671475      121.6705
2009    15      0.52019662      106.5575225
2009    16      0.23796585      58.9515675
2009    17      0.2365664       58.125765
2009    18      0.11744109      33.53048625
2009    19      0.09804054      29.7397
2009    20      0.10021813      30.2621775
2009    21      0.12776812      36.6657475
2009    22      0.11698585      33.9657475
2009    23      0.10524845      31.38678
2009    24      0.11134706      32.6308775
2009    25      0.12892729      36.72877375
2009    26      0.10360296      30.94123875
2009    27      0.33822416      77.1994175
2009    28      0.45567895      97.56669375
2009    29      0.38401794      85.82610625
2009    30      0.40452742      88.96620375
2010    1       0.26520005      63.97127375
2010    2       0.15227785      41.86791375
2010    3       0.14764279      41.0447325
2010    4       0.24823846      61.46411
2010    5       0.23858988      59.7428275
2010    6       0.2037992       52.70779125
2010    7       0.17198802      46.47301375
2010    8       0.1684431       46.19783
2010    9       0.13345468      38.56821125
2010    10      0.11868761      34.94482625
2010    11      0.1526468       42.29554625
2010    12      0.14264289      40.0601675
2010    13      0.17031275      45.7510975
2010    14      0.13896492      39.17008625
2010    15      0.15982074      43.53816875
2010    16      0.24423598      60.48856875
2010    17      0.17574132      47.08878
2010    18      0.48552134      101.29835875
2010    19      0.32515674      75.2497125
2010    20      0.21495338      54.17988875
2010    21      0.22406209      55.607655
2010    22      0.22371921      56.110605
2010    23      0.21957102      55.700235
2010    24      0.17446016      46.25187875
2010    25      0.36982429      83.8752225
2010    26      0.14023688      39.3332925
2010    27      0.09517148      28.99529875
2010    28      0.09946795      29.895105
2010    29      0.09985253      29.958065
2010    30      0.11436591      33.4015425
2011    1       0.26523171      64.8963175
2011    2       0.24751516      60.99677875
2011    3       0.24893311      61.20880375
2011    4       0.30375761      71.33720125
2011    5       0.25883742      63.38887625
2011    6       0.1956907       50.67647
2011    7       0.18111266      47.90022625
2011    8       0.26928199      66.18350375
2011    9       0.50592286      105.46135125
2011    10      0.7012305       133.72055
2011    11      0.52708166      106.24235875
2011    12      0.1960578       51.27012
2011    13      0.21979822      55.55993
2011    14      0.24264381      59.9843
2011    15      0.25571436      62.50650375
2011    16      0.17061488      45.48131
2011    17      0.30126901      70.55345875
2011    18      0.2991019       71.0499925
2011    19      0.27716145      67.06895125
2011    20      0.21657385      55.25070375
2011    21      0.18816864      49.51190375
2011    22      0.18907909      49.64807
2011    23      0.16035227      43.50684125
2011    24      0.18004001      47.04056125
2011    25      0.1395505       38.93808375
2011    26      0.15158181      41.6865675
2011    27      0.12437191      35.9928075
2011    28      0.10174841      30.94648875
2011    29      0.11753341      34.4352075
2011    30      0.17428375      47.07560875
2012    1       0.27762521      68.03625
2012    2       0.2478923       62.35707
2012    3       0.21150808      54.9035
2012    4       0.18641762      49.31492
2012    5       0.26530885      63.8443575
2012    6       0.21942502      55.369305
2012    7       0.19416468      50.17572375
2012    8       0.20942546      53.30687125
2012    9       0.25878086      61.81545125
2012    10      0.31501876      72.59732875
2012    11      0.17533481      45.58634375
2012    12      0.13306452      37.612335
2012    13      0.16395745      43.90895125
2012    14      0.19459596      49.71243125
2012    15      0.09981844      30.07946375
2012    16      0.18529276      48.68033125
2012    17      0.21177441      53.96601375
2012    18      0.31934962      73.89470125
2012    19      0.2098767       53.0609475
2012    20      0.20747556      52.17357
2012    21      0.39246155      86.30685375
2012    22      0.34005849      77.63702625
2012    23      0.33273133      75.7866675
2012    24      0.24788019      59.85389625
2012    25      0.1861877       48.33790875
2012    26      0.24902208      60.8395575
2012    27      0.22718992      56.30483
2012    28      0.39040608      86.451505
2012    29      0.34473765      77.6599025
2012    30      0.1303167       36.65946875
2013    1       0.287375        68.12520625
2013    2       0.23408507      58.28223125
2013    3       0.17477649      46.23977375
2013    4       0.25968996      62.78065875
2013    5       0.43533869      93.6354375
2013    6       0.45585728      96.8321925
2013    7       0.41571924      90.054855
2013    8       0.35725988      79.661055
2013    9       0.262028        62.73563625
2013    10      0.1463477       39.99237375
2013    11      0.2779319       65.605235
2013    12      0.18727559      48.016975
2013    13      0.1270821       35.73647625
2013    14      0.11583736      33.518265
2013    15      0.14738165      40.51952125
2013    16      0.16602036      44.5504125
2013    17      0.15428766      42.53417
2013    18      0.13075698      37.26265375
2013    19      0.23728059      58.8185875
2013    20      0.1444184       40.310005
2013    21      0.15430291      42.2012775
2013    22      0.32234401      74.81844
2013    23      0.3419774       78.98556125
2013    24      0.30266065      72.21361
2013    25      0.24898461      61.57548875
2013    26      0.17690526      47.3926475
2013    27      0.20404659      52.82751625
2013    28      0.18142788      48.23248
2013    29      0.12501032      35.9190275
2013    30      0.09165818      28.29962375
2014    1       0.26674749      64.8389
2014    2       0.16549956      44.5154825
2014    3       0.30576256      71.94164875
2014    4       0.49461226      103.70329875
2014    5       0.24765579      60.3698125
2014    6       0.31204908      73.3671525
2014    7       0.5329859       109.4544525
2014    8       0.53961785      109.60194875
2014    9       0.33899635      77.81621
2014    10      0.27039691      65.35376125
2014    11      0.25816564      63.1386875
2014    12      0.18699351      49.3041375
2014    13      0.12896018      36.9444775
2014    14      0.11930932      34.5488375
2014    15      0.13930754      38.88378875
2014    16      0.16152435      43.69742
2014    17      0.14251605      39.6703925
2014    18      0.18199232      47.7164475
2014    19      0.18937291      49.6505
2014    20      0.19259894      50.2704325
2014    21      0.14325101      39.43613875
2014    22      0.16299812      43.4396
2014    23      0.10625695      31.41298625
2014    24      0.17172968      45.335515
2014    25      0.28471062      68.06941125
2014    26      0.28054405      67.3002125
2014    27      0.31649479      73.65992375
2014    28      0.20164543      51.2294675
2014    29      0.19394209      50.21817
2014    30      0.21439323      53.9451625
2015    1       0.28412629      68.170675
2015    2       0.34817352      79.716765
2015    3       0.32722312      75.939915
2015    4       0.40220882      88.14219875
2015    5       0.37434696      83.25174125
2015    6       0.26205654      63.30932375
2015    7       0.271216        64.98280375
2015    8       0.37547599      83.93139
2015    9       0.42729204      92.4006625
2015    10      0.4436025       94.89581125
2015    11      0.35161641      80.571505
2015    12      0.47706182      101.3944525
2015    13      0.51682444      107.94989
2015    14      0.3039767       72.31366875
2015    15      0.31583809      73.46744
2015    16      0.16672778      44.22908625
2015    17      0.13163619      37.22540125
2015    18      0.21839742      55.7851625
2015    19      0.22306445      56.69702
2015    20      0.2007467       52.22369375
2015    21      0.16950066      45.6449425
2015    22      0.2172179       54.9111775
2015    23      0.43357904      93.28659625
2015    24      0.35585849      81.0202175
2015    25      0.35725832      81.1224825
2015    26      0.41006058      89.21789125
2015    27      0.34473624      77.8223925
2015    28      0.28771302      69.003555
2015    29      0.21210972      54.21108875
2015    30      0.24241844      59.9893025
2016    1       0.3450265       78.88197
2016    2       0.28894405      69.42447125
2016    3       0.23965926      60.350645
2016    4       0.3426724       78.80186125
2016    5       0.26297999      64.15303625
2016    6       0.2921809       69.44092375
2016    7       0.2000764       51.7583675
2016    8       0.16734455      45.07907125
2016    9       0.1542448       42.1460025
2016    10      0.1590038       42.95415875
2016    11      0.16752455      45.09210375
2016    12      0.22040428      55.3546125
2016    13      0.21163465      53.89589375
2016    14      0.21025471      53.812475
2016    15      0.26610332      64.15761875
2016    16      0.2487499       61.00384125
2016    17      0.22829039      58.027105
2016    18      0.27258222      66.56556125
2016    19      0.23067944      58.32417
2016    20      0.30658994      72.02790375
2016    21      0.36043182      81.17742
2016    22      0.35372685      80.30586375
2016    23      0.32230429      74.35128625
2016    24      0.35162971      79.5059625
2016    25      0.35313242      80.08666625
2016    26      0.45910021      97.8070925
2016    27      0.32683621      75.13593875
2016    28      0.2262439       56.8325525
2016    29      0.37969455      84.334235
2016    30      0.40668111      89.622305
2017    1       0.18290234      48.51896
2017    2       0.22389181      56.65565125
2017    3       0.2153296       55.3295075
2017    4       0.16297004      44.604925
2017    5       0.28038389      67.99135375
2017    6       0.18759359      50.058395
2017    7       0.19680425      51.300475
2017    8       0.26152841      63.796105
2017    9       0.2557306       62.70422125
2017    10      0.26446181      64.07591125
2017    11      0.30787034      72.446405
2017    12      0.23497404      58.5252425
2017    13      0.25398429      61.8569675
2017    14      0.25708934      62.5722525
2017    15      0.27517886      65.56449875
2017    16      0.22649601      56.7561875
2017    17      0.26058111      63.03704125
2017    18      0.3573856       80.01475875
2017    19      0.29235117      69.10275375
2017    20      0.2131965       53.970845
2017    21      0.13545479      37.91784125
2017    22      0.10868214      31.99529125
2017    23      0.13441985      37.180025
2017    24      0.22058224      55.66578125
2017    25      0.27856771      67.4116675
2017    26      0.19660045      50.75809
2017    27      0.27547502      65.3871225
2017    28      0.28834946      67.722645
2017    29      0.2270062       56.79280375
2017    30      0.12617302      35.98701375
2018    1       0.37191274      83.65392125
2018    2       0.46457469      98.24637875
2018    3       0.48691608      100.98102125
2018    4       0.31234558      72.65278125
2018    5       0.19452094      49.91301625
2018    6       0.11672252      33.863425
2018    7       0.20570328      53.0794425
2018    8       0.3397352       78.41628625
2018    9       0.3996114       88.0374375
2018    10      0.38875279      86.42121625
2018    11      0.39355241      86.854405
2018    12      0.39138596      86.51412125
2018    13      0.40375712      88.4656675
2018    14      0.3957571       86.2240925
2018    15      0.21515661      54.14042
2018    16      0.22910244      56.91594875
2018    17      0.21188584      52.90977875
2018    18      0.31437355      73.600325
2018    19      0.2866337       68.18292
2018    20      0.13678678      38.18348375
2018    21      0.20696852      52.75345
2018    22      0.19202945      49.98569625
2018    23      0.17191522      46.0886375
2018    24      0.22095552      56.34796375
2018    25      0.30353888      71.88379625
2018    26      0.17575495      47.0720225
2018    27      0.34221985      77.93944875
2018    28      0.33401037      76.70217875
2018    29      0.24165588      59.40609125
2018    30      0.16018586      43.33623625
