####################################################################################################
# Month: 11Nov                                                                                     #
# Station: HAN                                                                                     #
# Frequency: 345 GHz                                                                               #
# Columns are: year    day     segment         tau     Tb (K)                                      #
####################################################################################################
2009    1       0       0.174056        46.32848
2009    1       1       0.161371        43.72368
2009    1       2       0.1715886       45.73316
2009    1       3       0.1992543       51.23427
2009    1       4       0.2408439       59.37483
2009    1       5       0.2860453       67.9096
2009    1       6       0.2422821       59.73922
2009    1       7       0.2334134       58.04711
2009    2       0       0.2444563       60.30012
2009    2       1       0.2405008       59.69905
2009    2       2       0.2206896       55.91404
2009    2       3       0.2233886       56.24581
2009    2       4       0.2251719       56.55044
2009    2       5       0.2215054       56.10513
2009    2       6       0.2136885       54.80701
2009    2       7       0.1926086       50.40154
2009    3       0       0.187192        49.27172
2009    3       1       0.1802674       47.84751
2009    3       2       0.190792        49.93831
2009    3       3       0.22924         57.42177
2009    3       4       0.2756777       66.25131
2009    3       5       0.3328736       76.85912
2009    3       6       0.3616432       81.76655
2009    3       7       0.3846655       85.53999
2009    4       0       0.3744892       83.77975
2009    4       1       0.369252        82.86358
2009    4       2       0.3716055       83.1215
2009    4       3       0.4215675       91.18908
2009    4       4       0.3904984       86.41047
2009    4       5       0.3447841       78.91622
2009    4       6       0.3222687       75.02848
2009    4       7       0.3128635       73.27121
2009    5       0       0.278404        67.13099
2009    5       1       0.2565858       63.17437
2009    5       2       0.2399549       60.0339
2009    5       3       0.2522691       62.28819
2009    5       4       0.2663892       64.9576
2009    5       5       0.315397        74.11943
2009    5       6       0.3788621       85.22541
2009    5       7       0.3780082       85.06551
2009    6       0       0.3496155       80.14334
2009    6       1       0.3207634       74.74546
2009    6       2       0.2753139       65.79268
2009    6       3       0.3012877       70.67084
2009    6       4       0.3646126       82.04666
2009    6       5       0.3690652       83.10667
2009    6       6       0.3536202       80.58614
2009    6       7       0.3133594       73.54793
2009    7       0       0.2780979       67.20682
2009    7       1       0.2326717       58.66154
2009    7       2       0.2071501       53.34028
2009    7       3       0.2255612       56.69508
2009    7       4       0.2664509       64.69595
2009    7       5       0.2978037       70.61677
2009    7       6       0.2951951       70.09587
2009    7       7       0.2212763       55.60658
2009    8       0       0.1815133       47.79721
2009    8       1       0.2163695       55.29059
2009    8       2       0.191544        50.02861
2009    8       3       0.2282813       57.36558
2009    8       4       0.2697384       65.41189
2009    8       5       0.2577204       63.16953
2009    8       6       0.2301731       57.60576
2009    8       7       0.260713        63.40917
2009    9       0       0.329121        75.76111
2009    9       1       0.3938271       86.57063
2009    9       2       0.5284227       107.3464
2009    9       3       0.5196957       106.8464
2009    9       4       0.5077409       105.2251
2009    9       5       0.6441061       124.2386
2009    9       6       0.4975405       103.3496
2009    9       7       0.4203903       90.80866
2009    10      0       0.362471        81.50452
2009    10      1       0.2519316       61.62125
2009    10      2       0.1997133       51.47724
2009    10      3       0.2937565       69.51924
2009    10      4       0.3526505       79.93337
2009    10      5       0.3385738       77.36217
2009    10      6       0.2895132       68.52731
2009    10      7       0.2212101       55.50521
2009    11      0       0.1581247       42.7605
2009    11      1       0.1148226       33.48893
2009    11      2       0.1213863       35.03879
2009    11      3       0.1182854       34.48451
2009    11      4       0.1228608       35.58012
2009    11      5       0.1184642       34.67916
2009    11      6       0.08238976      26.3487
2009    11      7       0.06934605      23.12342
2009    12      0       0.0775476       25.00808
2009    12      1       0.1088414       32.54054
2009    12      2       0.103638        31.31377
2009    12      3       0.1188216       34.923
2009    12      4       0.1455369       40.89942
2009    12      5       0.1349681       38.71214
2009    12      6       0.1418614       40.14486
2009    12      7       0.1713921       46.60825
2009    13      0       0.3455329       80.2338
2009    13      1       0.5725774       116.7862
2009    13      2       0.8900741       157.3895
2009    13      3       0.8988051       157.4509
2009    13      4       0.8317874       150.2146
2009    13      5       0.7844486       145.5868
2009    13      6       0.6938481       133.1645
2009    13      7       0.5232912       109.1865
2009    14      0       0.5420016       111.566
2009    14      1       0.5524809       112.8988
2009    14      2       0.6080572       121.1131
2009    14      3       0.5473493       113.0128
2009    14      4       0.5764943       117.0627
2009    14      5       0.5498944       113.13
2009    14      6       0.7588239       140.197
2009    14      7       0.7986164       144.3836
2009    15      0       0.7019636       132.6059
2009    15      1       0.7573892       139.1436
2009    15      2       0.5296453       109.0215
2009    15      3       0.4772025       100.89
2009    15      4       0.4250911       92.74856
2009    15      5       0.3903166       87.01021
2009    15      6       0.4450414       96.46808
2009    15      7       0.4349233       94.57233
2009    16      0       0.2822483       67.80275
2009    16      1       0.1839687       48.47214
2009    16      2       0.1652571       44.54183
2009    16      3       0.2274023       57.1542
2009    16      4       0.3323525       76.73543
2009    16      5       0.3085568       72.75528
2009    16      6       0.2083637       53.49733
2009    16      7       0.1955774       50.65358
2009    17      0       0.2994002       70.44523
2009    17      1       0.3102588       72.24921
2009    17      2       0.2502529       61.14902
2009    17      3       0.2457766       60.39755
2009    17      4       0.2407712       59.38027
2009    17      5       0.2694749       65.06663
2009    17      6       0.1884628       49.06408
2009    17      7       0.08813379      27.25413
2009    18      0       0.06556807      22.00346
2009    18      1       0.05534283      19.54197
2009    18      2       0.09514174      28.81401
2009    18      3       0.132292        36.98292
2009    18      4       0.1761108       46.08784
2009    18      5       0.1615712       43.11831
2009    18      6       0.1365259       37.95771
2009    18      7       0.1169762       33.73767
2009    19      0       0.09579865      29.08571
2009    19      1       0.1040226       31.03403
2009    19      2       0.1050617       31.28745
2009    19      3       0.1042612       31.2421
2009    19      4       0.1167595       34.13811
2009    19      5       0.09627115      29.37633
2009    19      6       0.08421034      26.58464
2009    19      7       0.07793914      25.16923
2009    20      0       0.07373456      24.17557
2009    20      1       0.07933155      25.34561
2009    20      2       0.08550864      26.64223
2009    20      3       0.09975008      30.03922
2009    20      4       0.1136254       33.37272
2009    20      5       0.1178509       34.40135
2009    20      6       0.117286        34.35944
2009    20      7       0.1146579       33.76128
2009    21      0       0.1195701       34.79124
2009    21      1       0.1147918       33.66846
2009    21      2       0.1279599       36.69465
2009    21      3       0.1333446       37.88522
2009    21      4       0.1516095       41.91685
2009    21      5       0.1441141       40.38841
2009    21      6       0.1187617       34.79896
2009    21      7       0.1119933       33.18219
2009    22      0       0.1120853       33.06845
2009    22      1       0.11592         33.74666
2009    22      2       0.1132552       32.9392
2009    22      3       0.1287568       36.37471
2009    22      4       0.1398446       38.99363
2009    22      5       0.1155739       33.75899
2009    22      6       0.107336        31.93367
2009    22      7       0.103115        30.91067
2009    23      0       0.09410738      28.74681
2009    23      1       0.08423142      26.54963
2009    23      2       0.1004195       30.2484
2009    23      3       0.1217326       35.01599
2009    23      4       0.1183065       34.40931
2009    23      5       0.1068989       31.89774
2009    23      6       0.1031957       31.07217
2009    23      7       0.1130956       33.15419
2009    24      0       0.1067298       31.62956
2009    24      1       0.09409168      28.77249
2009    24      2       0.09069999      27.99098
2009    24      3       0.1001767       30.25384
2009    24      4       0.1292048       36.78489
2009    24      5       0.1240874       35.19553
2009    24      6       0.1297408       36.55966
2009    24      7       0.1160453       33.86007
2009    25      0       0.1082687       32.04305
2009    25      1       0.123826        35.58188
2009    25      2       0.1379201       38.74293
2009    25      3       0.1350803       38.11768
2009    25      4       0.1476663       40.85411
2009    25      5       0.1293184       36.93851
2009    25      6       0.1194921       34.67029
2009    25      7       0.1298464       36.88174
2009    26      0       0.107171        31.76726
2009    26      1       0.07815276      25.11447
2009    26      2       0.08760111      27.45432
2009    26      3       0.09591289      29.31371
2009    26      4       0.1171577       34.17195
2009    26      5       0.1156264       33.72389
2009    26      6       0.1158871       33.52542
2009    26      7       0.1113147       32.45889
2009    27      0       0.1632457       43.4407
2009    27      1       0.2293964       57.28901
2009    27      2       0.3176556       74.09879
2009    27      3       0.4109066       90.43725
2009    27      4       0.4108407       90.4461
2009    27      5       0.4000477       89.01778
2009    27      6       0.3921617       87.35512
2009    27      7       0.3815389       85.51059
2009    28      0       0.4067231       89.46203
2009    28      1       0.4197462       91.69192
2009    28      2       0.5076452       105.4741
2009    28      3       0.5227071       107.9668
2009    28      4       0.4513478       97.12544
2009    28      5       0.4104862       90.79875
2009    28      6       0.4356339       94.86111
2009    28      7       0.4911421       103.1534
2009    29      0       0.5015631       104.6949
2009    29      1       0.4526941       97.18129
2009    29      2       0.428553        93.27535
2009    29      3       0.3662727       82.97954
2009    29      4       0.3278957       76.35304
2009    29      5       0.3070759       72.80069
2009    29      6       0.3271311       76.72946
2009    29      7       0.3609579       82.59458
2009    30      0       0.4190248       92.01061
2009    30      1       0.5063243       105.1791
2009    30      2       0.4611938       98.19657
2009    30      3       0.4360573       94.06642
2009    30      4       0.4004436       88.38284
2009    30      5       0.338412        78.00655
2009    30      6       0.3319804       76.91725
2009    30      7       0.3427832       78.97029
2010    1       0       0.2205427       55.59214
2010    1       1       0.2207578       55.55202
2010    1       2       0.2431895       59.57223
2010    1       3       0.2639277       63.73497
2010    1       4       0.3316547       76.07752
2010    1       5       0.3243254       75.05718
2010    1       6       0.287964        68.60983
2010    1       7       0.2292386       57.5743
2010    2       0       0.189847        49.78999
2010    2       1       0.1738815       46.55006
2010    2       2       0.1674357       45.08935
2010    2       3       0.1650746       44.60714
2010    2       4       0.1544813       42.51614
2010    2       5       0.1333986       37.97245
2010    2       6       0.1201496       34.95849
2010    2       7       0.1139545       33.45969
2010    3       0       0.1179737       34.31265
2010    3       1       0.1145313       33.64254
2010    3       2       0.1261762       36.38326
2010    3       3       0.1536526       42.40103
2010    3       4       0.1718466       46.33434
2010    3       5       0.1641699       44.84689
2010    3       6       0.1599089       43.87179
2010    3       7       0.1728831       46.56536
2010    4       0       0.1914592       50.37433
2010    4       1       0.2133527       54.60411
2010    4       2       0.215818        55.35264
2010    4       3       0.2424516       60.70663
2010    4       4       0.2787089       67.43852
2010    4       5       0.3075894       72.58397
2010    4       6       0.2774138       66.99467
2010    4       7       0.2591141       63.65801
2010    5       0       0.2474664       61.35339
2010    5       1       0.2244693       56.86927
2010    5       2       0.2089274       53.54346
2010    5       3       0.2350859       59.00238
2010    5       4       0.2530136       62.6806
2010    5       5       0.2493066       62.06814
2010    5       6       0.2466989       61.54105
2010    5       7       0.2437509       60.88433
2010    6       0       0.2298892       57.99187
2010    6       1       0.2103427       53.92702
2010    6       2       0.2068339       53.12098
2010    6       3       0.2396531       59.86693
2010    6       4       0.2375136       59.64014
2010    6       5       0.2016936       52.63433
2010    6       6       0.1563515       43.14231
2010    6       7       0.148116        41.33875
2010    7       0       0.1524426       42.23224
2010    7       1       0.1499918       41.64795
2010    7       2       0.1421128       39.9704
2010    7       3       0.1676459       45.55666
2010    7       4       0.1952893       51.40161
2010    7       5       0.1974454       51.95205
2010    7       6       0.189918        50.43887
2010    7       7       0.1810584       48.58433
2010    8       0       0.1729828       46.94114
2010    8       1       0.1638819       45.07056
2010    8       2       0.1537868       42.96861
2010    8       3       0.1696604       46.41464
2010    8       4       0.179781        48.69761
2010    8       5       0.1783867       48.52399
2010    8       6       0.1726761       47.27661
2010    8       7       0.1563891       43.68948
2010    9       0       0.1354625       39.0264
2010    9       1       0.1214135       35.81163
2010    9       2       0.1017107       31.24013
2010    9       3       0.1224718       36.11188
2010    9       4       0.1449652       41.21582
2010    9       5       0.1533156       43.08657
2010    9       6       0.1494723       42.23557
2010    9       7       0.1388258       39.81769
2010    10      0       0.1181255       35.09238
2010    10      1       0.1025687       31.45097
2010    10      2       0.1018116       31.25471
2010    10      3       0.1146444       34.21707
2010    10      4       0.1228752       35.98872
2010    10      5       0.1285768       37.03839
2010    10      6       0.1290188       36.96331
2010    10      7       0.1318799       37.55306
2010    11      0       0.137152        38.66103
2010    11      1       0.1365891       38.48402
2010    11      2       0.1315125       37.47271
2010    11      3       0.1649273       44.91504
2010    11      4       0.185218        49.41718
2010    11      5       0.1760294       47.56164
2010    11      6       0.149799        41.97323
2010    11      7       0.1399471       39.87952
2010    12      0       0.09664563      29.69083
2010    12      1       0.1182862       34.69116
2010    12      2       0.1311481       37.55695
2010    12      3       0.1612965       44.28364
2010    12      4       0.1820371       48.74912
2010    12      5       0.1745227       47.1552
2010    12      6       0.1408623       39.72315
2010    12      7       0.1363446       38.63129
2010    13      0       0.1370199       38.74735
2010    13      1       0.1282193       36.77354
2010    13      2       0.1396719       39.22779
2010    13      3       0.1745831       46.70639
2010    13      4       0.2043056       52.89211
2010    13      5       0.2083371       53.7993
2010    13      6       0.1907385       50.08102
2010    13      7       0.1796266       47.78128
2010    14      0       0.1581174       43.28693
2010    14      1       0.1306448       37.3059
2010    14      2       0.132417        37.62599
2010    14      3       0.1416903       39.75723
2010    14      4       0.156037        42.99614
2010    14      5       0.1423258       40.02037
2010    14      6       0.1281759       36.85639
2010    14      7       0.1223112       35.51174
2010    15      0       0.1162779       34.09537
2010    15      1       0.1162913       34.06047
2010    15      2       0.1385224       38.93055
2010    15      3       0.1897402       49.92611
2010    15      4       0.2017309       52.51607
2010    15      5       0.1726119       46.53979
2010    15      6       0.164635        44.71825
2010    15      7       0.1787563       47.51874
2010    16      0       0.1784023       47.42314
2010    16      1       0.186568        49.07112
2010    16      2       0.2314335       57.95255
2010    16      3       0.29804         70.71241
2010    16      4       0.3181125       74.48715
2010    16      5       0.2847945       68.63057
2010    16      6       0.2501161       62.1426
2010    16      7       0.2064209       53.48901
2010    17      0       0.1705015       46.01338
2010    17      1       0.1491075       41.43095
2010    17      2       0.1498088       41.43733
2010    17      3       0.1703637       45.92481
2010    17      4       0.1731997       46.66123
2010    17      5       0.1615488       44.36574
2010    17      6       0.1917499       50.72675
2010    17      7       0.2396507       60.15005
2010    18      0       0.2674229       65.66433
2010    18      1       0.3304908       77.40414
2010    18      2       0.500326        104.4533
2010    18      3       0.5052979       105.2927
2010    18      4       0.6094578       120.2007
2010    18      5       0.6241918       122.2345
2010    18      6       0.5688181       114.1867
2010    18      7       0.4781654       100.9505
2010    19      0       0.3376881       77.8949
2010    19      1       0.2593365       63.33806
2010    19      2       0.2971062       70.11713
2010    19      3       0.3125543       72.90441
2010    19      4       0.3522517       80.00635
2010    19      5       0.3637271       82.00805
2010    19      6       0.3487015       79.48936
2010    19      7       0.3298885       76.23944
2010    20      0       0.3057021       72.01555
2010    20      1       0.2801595       67.42171
2010    20      2       0.2758915       66.71107
2010    20      3       0.2523302       62.10962
2010    20      4       0.2101365       53.68946
2010    20      5       0.1789014       47.52139
2010    20      6       0.1402297       39.44072
2010    20      7       0.07627618      24.52959
2010    21      0       0.09760891      29.1995
2010    21      1       0.1434583       39.50614
2010    21      2       0.1818254       47.65708
2010    21      3       0.2443744       60.06692
2010    21      4       0.2887359       68.49731
2010    21      5       0.3075234       72.01299
2010    21      6       0.2741606       65.81711
2010    21      7       0.2548098       62.10419
2010    22      0       0.29258         69.18791
2010    22      1       0.2075027       52.77315
2010    22      2       0.2067104       52.69944
2010    22      3       0.2025339       51.998
2010    22      4       0.2277964       57.1924
2010    22      5       0.2294492       57.24536
2010    22      6       0.2059258       52.66172
2010    22      7       0.2172553       55.12686
2010    23      0       0.2198138       55.75495
2010    23      1       0.2167879       55.11888
2010    23      2       0.2280656       57.3778
2010    23      3       0.2498045       61.96131
2010    23      4       0.2655215       65.29735
2010    23      5       0.2735189       66.71893
2010    23      6       0.1901963       50.06171
2010    23      7       0.1128597       33.31095
2010    24      0       0.06773047      22.72731
2010    24      1       0.1028046       31.24308
2010    24      2       0.1024348       30.98123
2010    24      3       0.1408283       39.7033
2010    24      4       0.1887936       50.01356
2010    24      5       0.217978        56.10567
2010    24      6       0.2818611       68.62659
2010    24      7       0.2932504       70.61429
2010    25      0       0.2895376       69.94863
2010    25      1       0.2658503       65.44263
2010    25      2       0.452636        98.16749
2010    25      3       0.476155        102.0191
2010    25      4       0.421666        93.24245
2010    25      5       0.3969175       88.87938
2010    25      6       0.3732145       84.90693
2010    25      7       0.2826174       68.39517
2010    26      0       0.1361791       38.57075
2010    26      1       0.1224164       35.6288
2010    26      2       0.1595978       43.83657
2010    26      3       0.1721285       46.53809
2010    26      4       0.2022151       52.94144
2010    26      5       0.1715385       46.33487
2010    26      6       0.1009736       30.68216
2010    26      7       0.05684608      20.13366
2010    27      0       0.05051317      18.51764
2010    27      1       0.04883018      18.06322
2010    27      2       0.09729771      29.72543
2010    27      3       0.1174252       34.20296
2010    27      4       0.1387164       38.94838
2010    27      5       0.1436793       40.13865
2010    27      6       0.08782806      27.46831
2010    27      7       0.07708186      24.8978
2010    28      0       0.06712313      22.51809
2010    28      1       0.06077678      20.99482
2010    28      2       0.09338191      28.65322
2010    28      3       0.1061292       31.451
2010    28      4       0.1234227       35.26983
2010    28      5       0.1284701       36.42692
2010    28      6       0.1159432       33.64274
2010    28      7       0.1004966       30.20422
2010    29      0       0.09391805      28.71723
2010    29      1       0.09232784      28.35749
2010    29      2       0.09229497      28.23977
2010    29      3       0.104654        30.96996
2010    29      4       0.1128276       32.76639
2010    29      5       0.107955        31.73233
2010    29      6       0.09945583      29.89474
2010    29      7       0.09538692      28.98661
2010    30      0       0.09198719      28.22514
2010    30      1       0.08876494      27.48485
2010    30      2       0.09055236      27.96431
2010    30      3       0.1066788       31.65202
2010    30      4       0.1228708       35.31031
2010    30      5       0.129526        36.92202
2010    30      6       0.1436987       40.12235
2010    30      7       0.1408485       39.53134
2011    1       0       0.2831609       68.41446
2011    1       1       0.291214        69.95796
2011    1       2       0.2833521       68.51154
2011    1       3       0.2575143       63.44679
2011    1       4       0.2783464       67.43968
2011    1       5       0.3095514       73.77191
2011    1       6       0.2425333       60.73245
2011    1       7       0.1761813       46.89575
2011    2       0       0.1974498       51.26569
2011    2       1       0.1869418       48.97337
2011    2       2       0.2403819       59.91186
2011    2       3       0.3131108       73.05721
2011    2       4       0.3119917       73.15
2011    2       5       0.2697865       65.89036
2011    2       6       0.2635739       64.69798
2011    2       7       0.1968849       51.02776
2011    3       0       0.1687139       45.15306
2011    3       1       0.2340802       58.94571
2011    3       2       0.2012417       51.91524
2011    3       3       0.2268826       57.16002
2011    3       4       0.293915        70.02234
2011    3       5       0.3432681       78.92601
2011    3       6       0.2996619       71.07477
2011    3       7       0.2237015       56.47328
2011    4       0       0.2055349       52.76676
2011    4       1       0.3070178       72.78393
2011    4       2       0.227991        57.20359
2011    4       3       0.2837015       67.98188
2011    4       4       0.3782177       84.77988
2011    4       5       0.3913462       86.97542
2011    4       6       0.3495679       79.75518
2011    4       7       0.2866839       68.45097
2011    5       0       0.2528052       62.12934
2011    5       1       0.2625522       64.42681
2011    5       2       0.200683        52.15657
2011    5       3       0.2106336       54.08064
2011    5       4       0.2446559       60.83707
2011    5       5       0.2863545       68.96554
2011    5       6       0.3144167       73.99043
2011    5       7       0.2985983       70.52461
2011    6       0       0.2571762       62.75759
2011    6       1       0.2983951       70.89731
2011    6       2       0.2235579       56.63294
2011    6       3       0.2000604       51.62708
2011    6       4       0.1722995       46.27686
2011    6       5       0.1501849       41.71447
2011    6       6       0.1384098       39.19123
2011    6       7       0.1254418       36.31428
2011    7       0       0.1198416       34.96654
2011    7       1       0.1405883       39.21551
2011    7       2       0.1647894       44.09439
2011    7       3       0.2053306       52.51709
2011    7       4       0.2103749       54.11498
2011    7       5       0.2112811       54.41246
2011    7       6       0.2083143       53.96928
2011    7       7       0.1883811       49.91156
2011    8       0       0.1803813       48.28569
2011    8       1       0.1839125       49.13317
2011    8       2       0.1792544       48.18531
2011    8       3       0.246643        62.33079
2011    8       4       0.3535074       82.47177
2011    8       5       0.366129        85.15287
2011    8       6       0.3144485       75.70209
2011    8       7       0.3299798       78.20634
2011    9       0       0.3313313       78.51749
2011    9       1       0.3404459       79.67441
2011    9       2       0.371772        84.65521
2011    9       3       0.5302265       110.095
2011    9       4       0.4972238       105.3964
2011    9       5       0.6291072       124.4485
2011    9       6       0.7369747       138.4504
2011    9       7       0.6103015       122.4534
2011    10      0       0.5323949       111.557
2011    10      1       0.577016        117.5396
2011    10      2       0.6731223       130.2668
2011    10      3       0.7729884       142.9102
2011    10      4       0.7839125       144.644
2011    10      5       0.7363203       138.923
2011    10      6       0.752232        140.3532
2011    10      7       0.7818576       143.5706
2011    11      0       0.7767527       143.1846
2011    11      1       0.8759598       153.7162
2011    11      2       0.5722966       116.9179
2011    11      3       0.6088967       121.1024
2011    11      4       0.5802295       117.3855
2011    11      5       0.3396642       79.5034
2011    11      6       0.2393694       60.71483
2011    11      7       0.2234844       57.41404
2011    12      0       0.2112513       54.89959
2011    12      1       0.2054725       53.67114
2011    12      2       0.143405        39.92192
2011    12      3       0.1738725       46.69904
2011    12      4       0.2143281       55.21619
2011    12      5       0.2322008       58.75129
2011    12      6       0.2325831       58.77255
2011    12      7       0.1553491       42.22924
2011    13      0       0.1516225       41.42316
2011    13      1       0.2581313       63.35014
2011    13      2       0.1790902       47.20767
2011    13      3       0.2057322       52.57648
2011    13      4       0.2262428       56.85121
2011    13      5       0.2378238       59.57174
2011    13      6       0.2464346       61.23028
2011    13      7       0.2533084       62.26876
2011    14      0       0.2598174       63.34159
2011    14      1       0.2681849       64.67748
2011    14      2       0.231109        57.38892
2011    14      3       0.242992        60.03854
2011    14      4       0.2570729       62.89424
2011    14      5       0.2529274       62.42394
2011    14      6       0.2367723       59.2473
2011    14      7       0.1922746       49.86239
2011    15      0       0.2546864       62.30259
2011    15      1       0.2244582       56.55557
2011    15      2       0.2160591       54.69353
2011    15      3       0.2473878       60.95293
2011    15      4       0.2959755       70.11978
2011    15      5       0.3052085       71.82396
2011    15      6       0.2684159       65.02225
2011    15      7       0.2335235       58.58142
2011    16      0       0.1505971       41.49095
2011    16      1       0.1218407       35.27383
2011    16      2       0.1326417       37.72477
2011    16      3       0.1343668       37.82522
2011    16      4       0.1782711       47.02582
2011    16      5       0.2165952       54.82588
2011    16      6       0.224489        56.66502
2011    16      7       0.2061174       53.01899
2011    17      0       0.2048556       52.51566
2011    17      1       0.2035851       52.24537
2011    17      2       0.2067758       53.04211
2011    17      3       0.242505        60.27777
2011    17      4       0.327454        76.12099
2011    17      5       0.3965127       88.09672
2011    17      6       0.4047245       89.47804
2011    17      7       0.4237394       92.65101
2011    18      0       0.3826717       86.01296
2011    18      1       0.359675        82.33337
2011    18      2       0.3445099       79.46087
2011    18      3       0.2661936       65.08811
2011    18      4       0.2734931       66.30226
2011    18      5       0.2655656       64.89856
2011    18      6       0.248876        61.90269
2011    18      7       0.2518303       62.40112
2011    19      0       0.2353933       58.975
2011    19      1       0.2373077       59.1847
2011    19      2       0.2468754       61.23727
2011    19      3       0.2588671       63.82217
2011    19      4       0.2671279       65.44991
2011    19      5       0.3004301       71.62526
2011    19      6       0.3339146       77.73178
2011    19      7       0.3373755       78.52552
2011    20      0       0.3064778       72.89243
2011    20      1       0.2806287       67.96802
2011    20      2       0.2524637       62.53897
2011    20      3       0.2370748       59.44833
2011    20      4       0.1795086       48.2046
2011    20      5       0.1526041       42.55664
2011    20      6       0.153583        42.56237
2011    20      7       0.1702501       45.83427
2011    21      0       0.1774922       47.30684
2011    21      1       0.1622107       44.0428
2011    21      2       0.1628935       44.22621
2011    21      3       0.1840646       48.78279
2011    21      4       0.201046        52.25739
2011    21      5       0.2091946       53.86165
2011    21      6       0.2081939       53.63077
2011    21      7       0.2002536       51.98678
2011    22      0       0.1905447       49.98613
2011    22      1       0.1834085       48.47855
2011    22      2       0.1711458       45.89433
2011    22      3       0.1855455       48.80551
2011    22      4       0.2023182       52.30068
2011    22      5       0.1961703       51.26113
2011    22      6       0.1955818       51.05264
2011    22      7       0.1879179       49.40559
2011    23      0       0.1706309       45.87752
2011    23      1       0.1604235       43.57944
2011    23      2       0.1428181       39.61367
2011    23      3       0.151534        41.64592
2011    23      4       0.1689911       45.5761
2011    23      5       0.1522937       41.94133
2011    23      6       0.1621262       43.75161
2011    23      7       0.1740007       46.06914
2011    24      0       0.195435        50.23725
2011    24      1       0.1793074       46.88043
2011    24      2       0.1812055       46.99658
2011    24      3       0.2066749       52.32958
2011    24      4       0.193334        49.88841
2011    24      5       0.1623535       43.5289
2011    24      6       0.1573911       42.4767
2011    24      7       0.1646187       43.98664
2011    25      0       0.160018        43.07398
2011    25      1       0.1500188       40.9238
2011    25      2       0.1389664       38.41541
2011    25      3       0.1444933       39.97466
2011    25      4       0.1534907       42.15383
2011    25      5       0.1321163       37.5377
2011    25      6       0.1209412       35.17445
2011    25      7       0.1163593       34.25084
2011    26      0       0.1205195       35.0253
2011    26      1       0.1224258       35.35359
2011    26      2       0.1232921       35.48013
2011    26      3       0.1582828       43.21807
2011    26      4       0.1900126       49.91524
2011    26      5       0.1799629       47.81435
2011    26      6       0.1735271       46.44139
2011    26      7       0.1446317       40.24447
2011    27      0       0.1278827       36.53656
2011    27      1       0.1162382       34.01455
2011    27      2       0.09854081      29.95136
2011    27      3       0.1281203       36.84273
2011    27      4       0.1478949       41.40685
2011    27      5       0.1261355       36.57808
2011    27      6       0.1307225       37.59151
2011    27      7       0.1194404       35.02082
2011    28      0       0.105823        31.92632
2011    28      1       0.09792411      30.04072
2011    28      2       0.1056802       31.89384
2011    28      3       0.1251717       36.40103
2011    28      4       0.1463808       41.19616
2011    28      5       0.0917885       28.75735
2011    28      6       0.07481077      24.69273
2011    28      7       0.06640823      22.66376
2011    29      0       0.06283457      21.71297
2011    29      1       0.07350279      24.33489
2011    29      2       0.0884385       27.86533
2011    29      3       0.116898        34.45759
2011    29      4       0.14654         41.05982
2011    29      5       0.1481533       41.48114
2011    29      6       0.1569618       43.37735
2011    29      7       0.1469383       41.19257
2011    30      0       0.1554477       42.836
2011    30      1       0.164542        44.81489
2011    30      2       0.1761405       47.43242
2011    30      3       0.191236        50.76575
2011    30      4       0.1899558       50.59418
2011    30      5       0.1763356       47.71022
2011    30      6       0.1661227       45.48979
2011    30      7       0.1744897       46.96162
2012    1       0       0.3662499       84.5854
2012    1       1       0.321692        76.65234
2012    1       2       0.2371879       60.12462
2012    1       3       0.1992227       52.3422
2012    1       4       0.2471409       62.23037
2012    1       5       0.2637713       65.64279
2012    1       6       0.2876759       70.31788
2012    1       7       0.2980611       72.3944
2012    2       0       0.2858858       70.15322
2012    2       1       0.2547577       64.26976
2012    2       2       0.2117605       55.06315
2012    2       3       0.2070969       54.00531
2012    2       4       0.2838309       69.16827
2012    2       5       0.2862782       69.82606
2012    2       6       0.2480843       62.49734
2012    2       7       0.2054441       53.87345
2012    3       0       0.2099843       54.68335
2012    3       1       0.2178331       56.18914
2012    3       2       0.1524595       42.32309
2012    3       3       0.1767056       47.53522
2012    3       4       0.21216         54.93355
2012    3       5       0.2234531       57.67371
2012    3       6       0.2318813       59.44097
2012    3       7       0.2675877       66.44897
2012    4       0       0.1204488       35.18485
2012    4       1       0.2448072       61.86036
2012    4       2       0.1234423       35.93012
2012    4       3       0.1543822       42.78088
2012    4       4       0.2061186       53.82047
2012    4       5       0.3079669       73.98046
2012    4       6       0.1870647       49.89485
2012    4       7       0.1471103       41.06737
2012    5       0       0.1493604       41.28452
2012    5       1       0.150667        41.19301
2012    5       2       0.2321129       57.63542
2012    5       3       0.3095505       72.34806
2012    5       4       0.3864621       85.85552
2012    5       5       0.3219045       75.22937
2012    5       6       0.3026094       71.77062
2012    5       7       0.269804        65.43834
2012    6       0       0.2411468       59.83645
2012    6       1       0.2462237       60.77634
2012    6       2       0.229889        57.339
2012    6       3       0.2219439       55.84253
2012    6       4       0.2245276       56.36774
2012    6       5       0.219253        55.24781
2012    6       6       0.1946333       50.4175
2012    6       7       0.1777829       47.12707
2012    7       0       0.1762577       46.87747
2012    7       1       0.1787824       47.47259
2012    7       2       0.1600513       43.2707
2012    7       3       0.1719019       45.48402
2012    7       4       0.1975425       50.64945
2012    7       5       0.2291251       57.047
2012    7       6       0.217589        54.79825
2012    7       7       0.2220675       55.80631
2012    8       0       0.234769        58.54688
2012    8       1       0.2412261       59.85706
2012    8       2       0.2042907       52.28683
2012    8       3       0.2085005       53.04782
2012    8       4       0.2238699       56.05509
2012    8       5       0.2172874       54.87361
2012    8       6       0.1852296       48.53145
2012    8       7       0.1602305       43.25623
2012    9       0       0.1532862       41.77401
2012    9       1       0.1476464       40.51853
2012    9       2       0.1521189       41.44835
2012    9       3       0.1803429       47.28731
2012    9       4       0.2609655       63.31014
2012    9       5       0.3889034       86.3605
2012    9       6       0.4254832       92.30867
2012    9       7       0.3615004       81.5161
2012    10      0       0.2948695       69.57268
2012    10      1       0.2620818       63.60775
2012    10      2       0.2343484       58.16622
2012    10      3       0.2133943       53.97198
2012    10      4       0.2487901       60.92452
2012    10      5       0.3388636       77.73147
2012    10      6       0.4573605       97.48941
2012    10      7       0.4704419       99.3146
2012    11      0       0.3674711       82.68383
2012    11      1       0.2710254       65.38689
2012    11      2       0.2006593       51.60197
2012    11      3       0.1637461       44.08138
2012    11      4       0.1228663       35.32275
2012    11      5       0.0958886       29.40666
2012    11      6       0.09024053      28.04777
2012    11      7       0.09078116      28.1595
2012    12      0       0.09198459      28.43159
2012    12      1       0.09411801      28.90844
2012    12      2       0.097708        29.73283
2012    12      3       0.1133736       33.2287
2012    12      4       0.1571932       42.8929
2012    12      5       0.2054861       53.70072
2012    12      6       0.2073283       54.31535
2012    12      7       0.09732437      29.68815
2012    13      0       0.09187178      28.12373
2012    13      1       0.2414993       60.4217
2012    13      2       0.1451659       39.71247
2012    13      3       0.1501836       41.12059
2012    13      4       0.207258        52.69921
2012    13      5       0.199329        52.08521
2012    13      6       0.1448909       40.23589
2012    13      7       0.1314611       36.87281
2012    14      0       0.1522704       41.21418
2012    14      1       0.1795567       46.82214
2012    14      2       0.2098775       52.99104
2012    14      3       0.22548         56.00411
2012    14      4       0.2536544       61.40839
2012    14      5       0.2441143       59.5448
2012    14      6       0.1703804       45.01774
2012    14      7       0.121434        34.69705
2012    15      0       0.102536        30.68325
2012    15      1       0.09804498      29.78524
2012    15      2       0.09603742      29.34305
2012    15      3       0.08976898      27.88364
2012    15      4       0.09084486      28.0575
2012    15      5       0.09802779      29.61393
2012    15      6       0.1069955       31.60797
2012    15      7       0.116292        33.66113
2012    16      0       0.1351162       37.8472
2012    16      1       0.1598192       43.08271
2012    16      2       0.1882445       49.24184
2012    16      3       0.1986263       51.59736
2012    16      4       0.2183136       55.58539
2012    16      5       0.2038611       52.63854
2012    16      6       0.1948503       50.86043
2012    16      7       0.1835109       48.58918
2012    17      0       0.1741415       46.62497
2012    17      1       0.1758333       46.90325
2012    17      2       0.1797563       47.51661
2012    17      3       0.1989669       51.42721
2012    17      4       0.2275211       57.23964
2012    17      5       0.2327974       58.33041
2012    17      6       0.2360855       58.80247
2012    17      7       0.2690933       64.88355
2012    18      0       0.2742462       65.795
2012    18      1       0.2956625       69.90252
2012    18      2       0.2749775       65.63217
2012    18      3       0.2869737       67.91461
2012    18      4       0.3284137       75.51738
2012    18      5       0.3851997       85.65646
2012    18      6       0.3791999       84.46405
2012    18      7       0.3301238       76.27542
2012    19      0       0.2839065       67.64223
2012    19      1       0.1451022       39.96931
2012    19      2       0.1684301       44.89916
2012    19      3       0.1963088       50.64979
2012    19      4       0.2689059       65.16779
2012    19      5       0.3192994       74.71305
2012    19      6       0.1752585       46.5103
2012    19      7       0.1218022       34.93595
2012    20      0       0.09576613      28.98723
2012    20      1       0.09872998      29.44686
2012    20      2       0.153918        41.58834
2012    20      3       0.2271438       56.88596
2012    20      4       0.2821391       67.71096
2012    20      5       0.2735392       65.77675
2012    20      6       0.2680397       64.27381
2012    20      7       0.2605286       62.71865
2012    21      0       0.2816279       66.58869
2012    21      1       0.3428344       77.74444
2012    21      2       0.429382        92.5315
2012    21      3       0.4465166       95.38892
2012    21      4       0.4292074       92.79745
2012    21      5       0.4378706       94.11845
2012    21      6       0.4370263       94.46368
2012    21      7       0.3352272       76.8217
2012    22      0       0.3043517       71.34924
2012    22      1       0.2693856       64.89079
2012    22      2       0.2966983       69.89782
2012    22      3       0.2966663       70.0675
2012    22      4       0.3360398       77.07756
2012    22      5       0.3816592       85.42903
2012    22      6       0.4212471       91.90725
2012    22      7       0.4144199       90.47702
2012    23      0       0.3706904       82.95769
2012    23      1       0.3568907       80.30129
2012    23      2       0.3323194       75.70277
2012    23      3       0.3229523       74.27654
2012    23      4       0.3423039       77.53651
2012    23      5       0.3450073       77.85951
2012    23      6       0.3257146       74.27638
2012    23      7       0.265972        63.38265
2012    24      0       0.2266952       55.71821
2012    24      1       0.2089954       52.27128
2012    24      2       0.223782        55.08116
2012    24      3       0.2302976       56.48943
2012    24      4       0.2531604       60.98213
2012    24      5       0.2879641       67.58577
2012    24      6       0.2877017       67.47175
2012    24      7       0.2644451       63.23144
2012    25      0       0.2108388       53.1639
2012    25      1       0.1773855       46.70375
2012    25      2       0.1389941       38.67581
2012    25      3       0.1319873       36.97644
2012    25      4       0.1501253       40.94479
2012    25      5       0.1918726       49.79192
2012    25      6       0.2413233       59.79212
2012    25      7       0.2469747       60.65454
2012    26      0       0.2815234       66.79889
2012    26      1       0.2928053       68.94703
2012    26      2       0.276227        66.10609
2012    26      3       0.2720777       65.38375
2012    26      4       0.2601278       63.15058
2012    26      5       0.2376637       59.06693
2012    26      6       0.1872629       48.93509
2012    26      7       0.1844888       48.3281
2012    27      0       0.1974689       50.80739
2012    27      1       0.1523084       41.50043
2012    27      2       0.1724852       45.80151
2012    27      3       0.1756977       46.69988
2012    27      4       0.2105884       53.93113
2012    27      5       0.2326351       58.14691
2012    27      6       0.2655639       63.8265
2012    27      7       0.4107718       89.72489
2012    28      0       0.4241052       92.14458
2012    28      1       0.4294096       92.95622
2012    28      2       0.3599068       81.58718
2012    28      3       0.3074239       72.29616
2012    28      4       0.3336037       76.71562
2012    28      5       0.4479683       95.95962
2012    28      6       0.4180742       91.22079
2012    28      7       0.4027569       88.73187
2012    29      0       0.3495604       79.35263
2012    29      1       0.3319149       75.93957
2012    29      2       0.349711        78.93728
2012    29      3       0.3216941       74.0083
2012    29      4       0.4741318       99.26217
2012    29      5       0.4249277       91.76681
2012    29      6       0.2852786       67.11096
2012    29      7       0.2206827       54.9015
2012    30      0       0.1737678       45.88882
2012    30      1       0.1299731       36.5915
2012    30      2       0.1108998       32.31543
2012    30      3       0.1046203       30.97056
2012    30      4       0.1151454       33.38814
2012    30      5       0.1284953       36.40795
2012    30      6       0.1381757       38.50416
2012    30      7       0.1414562       39.20919
2013    1       0       0.3180547       74.00659
2013    1       1       0.3800583       84.35755
2013    1       2       0.2583527       63.03217
2013    1       3       0.2546682       62.28339
2013    1       4       0.3161951       73.65331
2013    1       5       0.316346        73.82946
2013    1       6       0.2736097       66.05517
2013    1       7       0.1817153       47.78401
2013    2       0       0.205005        52.33522
2013    2       1       0.2580916       62.72745
2013    2       2       0.2388071       59.1917
2013    2       3       0.2279733       57.19213
2013    2       4       0.2223118       56.10374
2013    2       5       0.2295645       57.59027
2013    2       6       0.2494484       61.43732
2013    2       7       0.2414789       59.68002
2013    3       0       0.2099655       53.39542
2013    3       1       0.2053996       52.47413
2013    3       2       0.1693158       44.97003
2013    3       3       0.1604103       43.27275
2013    3       4       0.1860602       48.63516
2013    3       5       0.1754142       46.55348
2013    3       6       0.149923        41.19326
2013    3       7       0.1417233       39.42396
2013    4       0       0.1756252       46.09711
2013    4       1       0.1707056       45.2399
2013    4       2       0.2018524       51.82143
2013    4       3       0.2686047       64.56579
2013    4       4       0.3037402       71.52654
2013    4       5       0.2941961       70.15226
2013    4       6       0.3091115       72.61708
2013    4       7       0.353684        80.22516
2013    5       0       0.3267743       75.94622
2013    5       1       0.3139209       73.68181
2013    5       2       0.3596541       81.58234
2013    5       3       0.5047072       104.6395
2013    5       4       0.5314498       108.8105
2013    5       5       0.4626809       98.72035
2013    5       6       0.4584032       98.02978
2013    5       7       0.5251191       107.673
2013    6       0       0.4836633       101.2958
2013    6       1       0.4686727       99.07916
2013    6       2       0.4272737       92.25772
2013    6       3       0.4440835       94.90955
2013    6       4       0.4968135       103.374
2013    6       5       0.4970598       103.404
2013    6       6       0.4305095       92.89423
2013    6       7       0.3987822       87.44308
2013    7       0       0.4470952       95.34469
2013    7       1       0.3702946       82.63363
2013    7       2       0.3555766       79.76698
2013    7       3       0.376654        83.70128
2013    7       4       0.3834582       85.12763
2013    7       5       0.4167442       90.50885
2013    7       6       0.5287677       107.9171
2013    7       7       0.4471634       95.43868
2013    8       0       0.5242356       107.2554
2013    8       1       0.4583358       96.85661
2013    8       2       0.3176863       73.09793
2013    8       3       0.2828883       66.77816
2013    8       4       0.3022607       70.35088
2013    8       5       0.339904        77.12213
2013    8       6       0.3379464       76.74993
2013    8       7       0.2948219       69.0774
2013    9       0       0.2901629       68.07497
2013    9       1       0.3178321       73.09379
2013    9       2       0.2528276       61.18126
2013    9       3       0.2076565       52.4465
2013    9       4       0.2527296       61.12139
2013    9       5       0.2859773       67.29789
2013    9       6       0.2743163       64.9983
2013    9       7       0.2147217       53.67099
2013    10      0       0.1650428       43.90472
2013    10      1       0.1414549       39.14619
2013    10      2       0.1141352       33.15107
2013    10      3       0.1206389       34.5169
2013    10      4       0.1414838       39.02884
2013    10      5       0.1788485       47.02555
2013    10      6       0.1693869       44.80912
2013    10      7       0.1397906       38.3566
2013    11      0       0.1655324       43.9289
2013    11      1       0.1734183       45.53116
2013    11      2       0.2371456       58.46984
2013    11      3       0.3264391       75.20758
2013    11      4       0.3757955       83.72558
2013    11      5       0.3399974       77.33541
2013    11      6       0.3195544       73.41548
2013    11      7       0.2855725       67.22793
2013    12      0       0.2429969       59.2015
2013    12      1       0.1974343       50.31107
2013    12      2       0.1974745       50.30245
2013    12      3       0.2012996       50.99884
2013    12      4       0.2297728       56.59007
2013    12      5       0.2125377       53.37088
2013    12      6       0.1341506       37.43815
2013    12      7       0.08253835      25.92284
2013    13      0       0.06843052      22.65058
2013    13      1       0.06815764      22.61676
2013    13      2       0.1050002       31.05764
2013    13      3       0.1263314       35.88005
2013    13      4       0.17917         47.22512
2013    13      5       0.2221473       56.08512
2013    13      6       0.1641947       44.14979
2013    13      7       0.083225        26.22675
2013    14      0       0.06171137      21.07533
2013    14      1       0.06671917      22.23908
2013    14      2       0.1202424       34.64457
2013    14      3       0.144013        39.85543
2013    14      4       0.1583575       42.95725
2013    14      5       0.1675473       45.13597
2013    14      6       0.1256236       36.06595
2013    14      7       0.08248456      26.17254
2013    15      0       0.09630679      29.42457
2013    15      1       0.09713079      29.59832
2013    15      2       0.103386        30.85137
2013    15      3       0.1553412       42.3161
2013    15      4       0.2072808       53.14491
2013    15      5       0.1962728       51.12546
2013    15      6       0.1689168       45.44799
2013    15      7       0.154418        42.24745
2013    16      0       0.1491445       41.02662
2013    16      1       0.1404665       39.1163
2013    16      2       0.1361252       38.00676
2013    16      3       0.1734855       45.95727
2013    16      4       0.203355        52.30909
2013    16      5       0.2040481       52.65864
2013    16      6       0.1722346       46.10586
2013    16      7       0.1493035       41.22276
2013    17      0       0.143817        40.09128
2013    17      1       0.1377908       38.83355
2013    17      2       0.1385133       39.00767
2013    17      3       0.1617447       44.15875
2013    17      4       0.1767062       47.4078
2013    17      5       0.1714004       46.3526
2013    17      6       0.1519992       42.21424
2013    17      7       0.1523297       42.20747
2013    18      0       0.1534714       42.43211
2013    18      1       0.1421486       40.01721
2013    18      2       0.1211037       35.27491
2013    18      3       0.1244251       35.91537
2013    18      4       0.1170515       34.28618
2013    18      5       0.1111573       32.86455
2013    18      6       0.1305982       37.00137
2013    18      7       0.1461          40.30953
2013    19      0       0.1597186       43.12
2013    19      1       0.2082736       52.93651
2013    19      2       0.2262508       56.57017
2013    19      3       0.2825597       67.4799
2013    19      4       0.3039293       71.49726
2013    19      5       0.2790018       67.19269
2013    19      6       0.2323657       58.38995
2013    19      7       0.2061452       53.36222
2013    20      0       0.1660485       45.11887
2013    20      1       0.1382438       39.0067
2013    20      2       0.1443231       40.23454
2013    20      3       0.1571559       43.20529
2013    20      4       0.1883708       49.86263
2013    20      5       0.1411484       39.59998
2013    20      6       0.1128536       33.35334
2013    20      7       0.1072031       32.09869
2013    21      0       0.1368054       38.77552
2013    21      1       0.1717609       46.39518
2013    21      2       0.1584095       43.45247
2013    21      3       0.1628925       44.44988
2013    21      4       0.2252022       57.44298
2013    21      5       0.1223194       35.08102
2013    21      6       0.1222516       34.57519
2013    21      7       0.1347818       37.43798
2013    22      0       0.1691006       44.66819
2013    22      1       0.2349131       58.12624
2013    22      2       0.3127256       73.26476
2013    22      3       0.385135        86.63751
2013    22      4       0.3725627       84.53629
2013    22      5       0.3633535       82.934
2013    22      6       0.3771711       85.38871
2013    22      7       0.3637905       82.99182
2013    23      0       0.3503811       80.55176
2013    23      1       0.3396192       78.64146
2013    23      2       0.3266937       76.29437
2013    23      3       0.3241464       75.7588
2013    23      4       0.3318202       77.27585
2013    23      5       0.3179122       74.92979
2013    23      6       0.3588184       81.91594
2013    23      7       0.386428        86.51652
2013    24      0       0.3628642       82.79616
2013    24      1       0.3027195       72.28223
2013    24      2       0.2887191       69.80995
2013    24      3       0.2888452       69.81733
2013    24      4       0.280404        68.30735
2013    24      5       0.2757802       67.40015
2013    24      6       0.2919586       70.25065
2013    24      7       0.3299944       77.04506
2013    25      0       0.3327808       77.26166
2013    25      1       0.2810238       67.75927
2013    25      2       0.2576819       63.46308
2013    25      3       0.2650362       64.98497
2013    25      4       0.2780801       67.72086
2013    25      5       0.2299027       58.23934
2013    25      6       0.1721294       46.20637
2013    25      7       0.175242        46.96836
2013    26      0       0.1817457       48.39896
2013    26      1       0.1710388       46.20644
2013    26      2       0.1657815       44.90395
2013    26      3       0.1735143       46.56921
2013    26      4       0.1851226       49.07929
2013    26      5       0.1781394       47.78927
2013    26      6       0.176555        47.39797
2013    26      7       0.1833448       48.79609
2013    27      0       0.1799291       47.95724
2013    27      1       0.1933658       50.45752
2013    27      2       0.1871984       48.94381
2013    27      3       0.2206343       55.92999
2013    27      4       0.2357282       59.23696
2013    27      5       0.210951        54.5535
2013    27      6       0.1992482       52.23143
2013    27      7       0.2053177       53.30968
2013    28      0       0.176678        47.33239
2013    28      1       0.1543538       42.51939
2013    28      2       0.1451688       40.5636
2013    28      3       0.1766387       47.36868
2013    28      4       0.2045006       53.09583
2013    28      5       0.2004198       52.20271
2013    28      6       0.1962787       51.27209
2013    28      7       0.1973846       51.50515
2013    29      0       0.1854361       49.10788
2013    29      1       0.1618532       44.2132
2013    29      2       0.1315731       37.56198
2013    29      3       0.1236497       35.65571
2013    29      4       0.1144276       33.60253
2013    29      5       0.1007428       30.5395
2013    29      6       0.0950222       29.22679
2013    29      7       0.08737788      27.44463
2013    30      0       0.08501933      26.88616
2013    30      1       0.08472509      26.77496
2013    30      2       0.08729303      27.34822
2013    30      3       0.08909255      27.67109
2013    30      4       0.09520759      29.03869
2013    30      5       0.09636317      29.31347
2013    30      6       0.09646408      29.37074
2013    30      7       0.09910062      29.99366
2014    1       0       0.2868174       68.97695
2014    1       1       0.2849284       68.46437
2014    1       2       0.2914605       69.57117
2014    1       3       0.3158432       73.77693
2014    1       4       0.2886183       68.87508
2014    1       5       0.2606499       64.07532
2014    1       6       0.2165938       55.29178
2014    1       7       0.1890684       49.6796
2014    2       0       0.1836192       48.70238
2014    2       1       0.1713422       46.21745
2014    2       2       0.1303933       36.95231
2014    2       3       0.1243956       35.70395
2014    2       4       0.1616148       43.65268
2014    2       5       0.1773349       47.00884
2014    2       6       0.1726641       45.79883
2014    2       7       0.2026324       52.08742
2014    3       0       0.2542954       62.16493
2014    3       1       0.2441454       60.4674
2014    3       2       0.2297572       57.4296
2014    3       3       0.2972167       70.0805
2014    3       4       0.3328567       77.10809
2014    3       5       0.3713855       84.47239
2014    3       6       0.3394839       78.73497
2014    3       7       0.3769597       85.07531
2014    4       0       0.4359532       94.63447
2014    4       1       0.4497594       96.81322
2014    4       2       0.5119541       105.9054
2014    4       3       0.4967667       103.9096
2014    4       4       0.5261721       108.5178
2014    4       5       0.5609421       113.8799
2014    4       6       0.4884455       103.2932
2014    4       7       0.486905        102.6728
2014    5       0       0.4365673       94.50761
2014    5       1       0.3769794       84.82754
2014    5       2       0.2528066       62.07054
2014    5       3       0.2230718       56.25682
2014    5       4       0.2049023       52.74665
2014    5       5       0.1844703       48.9579
2014    5       6       0.1528388       42.29301
2014    5       7       0.1496098       41.29843
2014    6       0       0.1795195       47.44261
2014    6       1       0.2194577       55.46466
2014    6       2       0.3037906       71.69218
2014    6       3       0.3219463       75.75668
2014    6       4       0.3647853       83.67777
2014    6       5       0.3362025       78.77916
2014    6       6       0.3644599       83.54108
2014    6       7       0.4062308       90.58308
2014    7       0       0.4279683       93.80768
2014    7       1       0.4369276       95.11694
2014    7       2       0.4512426       97.2421
2014    7       3       0.5462097       112.1547
2014    7       4       0.5941245       118.7418
2014    7       5       0.5973618       118.9125
2014    7       6       0.5965178       118.7323
2014    7       7       0.6135349       120.9276
2014    8       0       0.773826        140.6574
2014    8       1       0.6810882       129.4071
2014    8       2       0.5291419       108.9598
2014    8       3       0.5200925       107.7962
2014    8       4       0.4893062       103.2612
2014    8       5       0.4245615       92.96334
2014    8       6       0.4306065       93.82153
2014    8       7       0.46832         99.94902
2014    9       0       0.4681633       99.62088
2014    9       1       0.3482577       79.68613
2014    9       2       0.2879719       68.96201
2014    9       3       0.3423022       79.03674
2014    9       4       0.4067235       89.83861
2014    9       5       0.3556962       81.20462
2014    9       6       0.2764499       66.90998
2014    9       7       0.2264061       57.27071
2014    10      0       0.2123844       54.5985
2014    10      1       0.2004162       52.25726
2014    10      2       0.1948257       50.87009
2014    10      3       0.2388208       59.68701
2014    10      4       0.3393185       78.20161
2014    10      5       0.3817794       85.94974
2014    10      6       0.3412203       78.5744
2014    10      7       0.25441         62.69148
2014    11      0       0.2304254       58.05335
2014    11      1       0.2106544       54.12341
2014    11      2       0.187213        49.09554
2014    11      3       0.2242673       56.54475
2014    11      4       0.2887197       68.99233
2014    11      5       0.304677        72.00774
2014    11      6       0.312315        73.56943
2014    11      7       0.3070533       72.72295
2014    12      0       0.2683679       65.65949
2014    12      1       0.2277436       57.71482
2014    12      2       0.1840165       48.74639
2014    12      3       0.1615351       43.84447
2014    12      4       0.1757491       47.00309
2014    12      5       0.1687303       45.73298
2014    12      6       0.1489203       41.56799
2014    12      7       0.1608853       44.16387
2014    13      0       0.1569061       43.29957
2014    13      1       0.1216204       35.39421
2014    13      2       0.1062431       31.6651
2014    13      3       0.1251894       36.09367
2014    13      4       0.1426193       40.10335
2014    13      5       0.1423293       39.99118
2014    13      6       0.1140427       33.65804
2014    13      7       0.1227311       35.3507
2014    14      0       0.1295608       36.70402
2014    14      1       0.1313009       37.22693
2014    14      2       0.1093852       32.13155
2014    14      3       0.1225885       35.17214
2014    14      4       0.1347605       38.0162
2014    14      5       0.1183495       34.55113
2014    14      6       0.1054037       31.51838
2014    14      7       0.1031255       31.07035
2014    15      0       0.1004762       30.53655
2014    15      1       0.1018406       30.79994
2014    15      2       0.1119237       33.00043
2014    15      3       0.1384153       38.89893
2014    15      4       0.1991989       51.54788
2014    15      5       0.1831438       48.18727
2014    15      6       0.1439061       40.00408
2014    15      7       0.1355557       38.09523
2014    16      0       0.1394265       38.94651
2014    16      1       0.1393307       38.93015
2014    16      2       0.1331859       37.6079
2014    16      3       0.148376        40.80801
2014    16      4       0.1760061       46.72431
2014    16      5       0.186775        49.13643
2014    16      6       0.1881027       49.43422
2014    16      7       0.1809919       47.99183
2014    17      0       0.1681181       45.40121
2014    17      1       0.1511848       41.76017
2014    17      2       0.1310557       37.21171
2014    17      3       0.1330539       37.53045
2014    17      4       0.1451639       40.22599
2014    17      5       0.1406711       39.34061
2014    17      6       0.135997        38.20709
2014    17      7       0.1348839       37.68591
2014    18      0       0.1405796       38.77486
2014    18      1       0.1474812       40.29663
2014    18      2       0.1701167       44.83991
2014    18      3       0.200106        51.2332
2014    18      4       0.2206588       55.73279
2014    18      5       0.2171512       55.24875
2014    18      6       0.1866903       49.19576
2014    18      7       0.1731548       46.40968
2014    19      0       0.1745057       46.62989
2014    19      1       0.1625233       44.04548
2014    19      2       0.1661334       44.679
2014    19      3       0.180953        47.84079
2014    19      4       0.2110778       54.13474
2014    19      5       0.2212397       56.24676
2014    19      6       0.2025699       52.45113
2014    19      7       0.1959805       51.17621
2014    20      0       0.1843317       48.77658
2014    20      1       0.185708        48.9084
2014    20      2       0.1745042       46.28461
2014    20      3       0.198947        51.31187
2014    20      4       0.2324812       58.29549
2014    20      5       0.2210622       56.36041
2014    20      6       0.1774202       47.32971
2014    20      7       0.166337        44.89639
2014    21      0       0.1186203       34.5677
2014    21      1       0.1020772       30.53193
2014    21      2       0.1495365       40.94415
2014    21      3       0.147145        40.44854
2014    21      4       0.1783578       47.17293
2014    21      5       0.1708314       45.36156
2014    21      6       0.1444846       39.33257
2014    21      7       0.1349553       37.12973
2014    22      0       0.1373755       37.58325
2014    22      1       0.1302393       36.10846
2014    22      2       0.1789786       46.74464
2014    22      3       0.1860007       48.39218
2014    22      4       0.2131022       54.10365
2014    22      5       0.2064066       53.04445
2014    22      6       0.1550276       42.22619
2014    22      7       0.09685448      29.31398
2014    23      0       0.07531347      24.22784
2014    23      1       0.07345113      23.83011
2014    23      2       0.09697198      29.4058
2014    23      3       0.1037695       30.91162
2014    23      4       0.129223        36.5378
2014    23      5       0.1292644       36.62079
2014    23      6       0.1265495       36.08804
2014    23      7       0.1155126       33.68189
2014    24      0       0.1142412       33.46905
2014    24      1       0.1186086       34.47896
2014    24      2       0.1097735       32.38747
2014    24      3       0.1240074       35.41751
2014    24      4       0.178301        47.03462
2014    24      5       0.2390457       59.1394
2014    24      6       0.2781473       66.73512
2014    24      7       0.2117127       54.02199
2014    25      0       0.2403547       59.96951
2014    25      1       0.3087795       72.26425
2014    25      2       0.3280876       75.68214
2014    25      3       0.3610444       81.93586
2014    25      4       0.3176589       74.93079
2014    25      5       0.2503556       62.1318
2014    25      6       0.2511315       62.01532
2014    25      7       0.2202728       55.62562
2014    26      0       0.2146279       54.06055
2014    26      1       0.2160432       54.43493
2014    26      2       0.2560516       62.48605
2014    26      3       0.3021559       71.27228
2014    26      4       0.3044591       72.12968
2014    26      5       0.3114919       73.81249
2014    26      6       0.3091906       73.27514
2014    26      7       0.3303322       76.93058
2014    27      0       0.3433437       79.12177
2014    27      1       0.3279725       76.07589
2014    27      2       0.3256434       75.56692
2014    27      3       0.3297619       76.33758
2014    27      4       0.3595127       81.50685
2014    27      5       0.3633015       82.16536
2014    27      6       0.3316418       76.9674
2014    27      7       0.1507808       41.53762
2014    28      0       0.1020783       30.70425
2014    28      1       0.08698075      27.1289
2014    28      2       0.146036        40.2658
2014    28      3       0.1732175       45.97531
2014    28      4       0.2749152       66.14519
2014    28      5       0.3041783       71.82251
2014    28      6       0.2951028       70.08628
2014    28      7       0.2306546       57.7075
2014    29      0       0.2045464       52.47733
2014    29      1       0.1838534       48.23009
2014    29      2       0.1823823       47.86578
2014    29      3       0.1627372       43.80829
2014    29      4       0.2135869       54.39778
2014    29      5       0.2067384       53.13783
2014    29      6       0.1752382       46.10738
2014    29      7       0.2224539       55.72088
2014    30      0       0.2422495       59.60362
2014    30      1       0.2919977       69.10613
2014    30      2       0.2677687       64.79692
2014    30      3       0.2458359       60.73159
2014    30      4       0.2621441       64.09332
2014    30      5       0.18999         49.65653
2014    30      6       0.1156219       33.59951
2014    30      7       0.09953807      29.97368
2015    1       0       0.2272878       57.57015
2015    1       1       0.2166835       55.41775
2015    1       2       0.2242942       56.96315
2015    1       3       0.2397794       60.0866
2015    1       4       0.324041        75.59895
2015    1       5       0.3836247       86.25533
2015    1       6       0.3259064       76.26814
2015    1       7       0.3313933       77.20533
2015    2       0       0.3146117       74.1392
2015    2       1       0.3163153       74.35507
2015    2       2       0.3676678       83.20391
2015    2       3       0.4329536       94.2523
2015    2       4       0.4214574       92.93196
2015    2       5       0.3685724       83.61706
2015    2       6       0.2953418       70.17425
2015    2       7       0.2684682       65.06037
2015    3       0       0.2798454       67.18979
2015    3       1       0.2692129       65.47183
2015    3       2       0.3127163       73.50612
2015    3       3       0.392322        87.40555
2015    3       4       0.4302093       93.85701
2015    3       5       0.3645328       83.27989
2015    3       6       0.3193297       75.18377
2015    3       7       0.2496166       61.62536
2015    4       0       0.2510573       61.54032
2015    4       1       0.3102694       72.60046
2015    4       2       0.3956814       87.58661
2015    4       3       0.4487095       96.0727
2015    4       4       0.4080531       89.90615
2015    4       5       0.4633989       98.68226
2015    4       6       0.4684445       99.28587
2015    4       7       0.4720565       99.46322
2015    5       0       0.4980196       103.1177
2015    5       1       0.3922511       86.43489
2015    5       2       0.3120202       72.75938
2015    5       3       0.309315        72.33941
2015    5       4       0.3534571       79.84477
2015    5       5       0.3355518       76.80204
2015    5       6       0.409835        89.4295
2015    5       7       0.3843259       85.28624
2015    6       0       0.2975396       70.11245
2015    6       1       0.2769726       66.26478
2015    6       2       0.2539379       61.70213
2015    6       3       0.3276299       75.21876
2015    6       4       0.3142552       73.08915
2015    6       5       0.2253328       56.82985
2015    6       6       0.2016545       52.00679
2015    6       7       0.1991298       51.25068
2015    7       0       0.2077921       52.98692
2015    7       1       0.2050334       52.51061
2015    7       2       0.2098994       53.0353
2015    7       3       0.2706795       64.87667
2015    7       4       0.2971905       70.18598
2015    7       5       0.3010605       70.97745
2015    7       6       0.315081        73.356
2015    7       7       0.3629916       81.9335
2015    8       0       0.3685326       82.74517
2015    8       1       0.3602662       81.03414
2015    8       2       0.3846075       85.39894
2015    8       3       0.4207775       91.65816
2015    8       4       0.4569978       97.21354
2015    8       5       0.3623716       82.47021
2015    8       6       0.321835        75.06474
2015    8       7       0.3284197       75.86622
2015    9       0       0.3753917       83.65673
2015    9       1       0.4541994       96.41093
2015    9       2       0.4649027       98.35839
2015    9       3       0.4850854       101.616
2015    9       4       0.4906917       102.7017
2015    9       5       0.3942639       87.70038
2015    9       6       0.3917665       87.11323
2015    9       7       0.362035        81.64794
2015    10      0       0.3864651       85.66007
2015    10      1       0.3867878       85.91666
2015    10      2       0.3767381       83.90584
2015    10      3       0.377987        84.27548
2015    10      4       0.4351859       93.8606
2015    10      5       0.4713018       99.68944
2015    10      6       0.574851        115.245
2015    10      7       0.5395033       110.6134
2015    11      0       0.3647042       82.84819
2015    11      1       0.2890923       69.20534
2015    11      2       0.2547229       62.51581
2015    11      3       0.3524162       80.34493
2015    11      4       0.4026052       89.3256
2015    11      5       0.3823593       86.50221
2015    11      6       0.392108        88.185
2015    11      7       0.3749232       85.64496
2015    12      0       0.3262526       77.0083
2015    12      1       0.3074491       73.64863
2015    12      2       0.3757683       85.29069
2015    12      3       0.5071905       106.6445
2015    12      4       0.5596227       115.1325
2015    12      5       0.5685888       116.3223
2015    12      6       0.5948537       119.8158
2015    12      7       0.5767689       117.2929
2015    13      0       0.5502046       113.3664
2015    13      1       0.6217843       123.2342
2015    13      2       0.6690425       129.9412
2015    13      3       0.6010189       120.7379
2015    13      4       0.4868438       104.5649
2015    13      5       0.4581831       100.0782
2015    13      6       0.3896223       88.70256
2015    13      7       0.357896        82.97376
2015    14      0       0.3744581       85.74232
2015    14      1       0.3240854       76.72985
2015    14      2       0.2555173       63.74501
2015    14      3       0.2937639       70.96594
2015    14      4       0.4187328       92.81166
2015    14      5       0.3828296       87.29438
2015    14      6       0.2024698       53.04548
2015    14      7       0.1799567       48.17471
2015    15      0       0.1925503       50.65055
2015    15      1       0.1608277       43.81263
2015    15      2       0.243457        61.10365
2015    15      3       0.2820744       68.46588
2015    15      4       0.3326363       77.89688
2015    15      5       0.3812628       86.31431
2015    15      6       0.4949864       104.2976
2015    15      7       0.4389098       95.19802
2015    16      0       0.3754635       84.66074
2015    16      1       0.1836969       48.52709
2015    16      2       0.1375742       38.77413
2015    16      3       0.1265171       36.15359
2015    16      4       0.1335413       37.67373
2015    16      5       0.1267117       36.2484
2015    16      6       0.1224153       35.28882
2015    16      7       0.1279022       36.50619
2015    17      0       0.1264491       36.29214
2015    17      1       0.1071616       31.7281
2015    17      2       0.1170126       33.84127
2015    17      3       0.1453123       40.02779
2015    17      4       0.1598715       43.3574
2015    17      5       0.1305179       37.19134
2015    17      6       0.1287882       36.71354
2015    17      7       0.1379763       38.65163
2015    18      0       0.1474704       40.84361
2015    18      1       0.1824485       48.38449
2015    18      2       0.1998749       51.98642
2015    18      3       0.2297873       58.10078
2015    18      4       0.2589444       64.13348
2015    18      5       0.2363942       59.92856
2015    18      6       0.2395942       60.28307
2015    18      7       0.2526655       62.62089
2015    19      0       0.2532379       62.56399
2015    19      1       0.2392247       59.64302
2015    19      2       0.22008         56.16723
2015    19      3       0.2151635       55.35021
2015    19      4       0.2245808       57.24942
2015    19      5       0.2318592       58.56724
2015    19      6       0.2103389       54.05274
2015    19      7       0.1900306       49.98231
2015    20      0       0.1815925       48.26077
2015    20      1       0.1719944       46.15355
2015    20      2       0.1870713       49.14881
2015    20      3       0.2028032       52.82648
2015    20      4       0.2542911       63.48078
2015    20      5       0.2083443       53.78878
2015    20      6       0.2061398       53.36851
2015    20      7       0.193737        50.76187
2015    21      0       0.1890226       49.56857
2015    21      1       0.1691491       45.35768
2015    21      2       0.1576076       42.92157
2015    21      3       0.1926606       50.4655
2015    21      4       0.1953222       51.37574
2015    21      5       0.1535091       42.52154
2015    21      6       0.140746        39.64847
2015    21      7       0.1579881       43.30047
2015    22      0       0.148899        41.264
2015    22      1       0.1544516       42.53807
2015    22      2       0.1648732       44.35117
2015    22      3       0.2047304       52.66947
2015    22      4       0.234588        58.88241
2015    22      5       0.2458945       61.13444
2015    22      6       0.262038        63.89024
2015    22      7       0.3222685       74.55962
2015    23      0       0.3683177       82.69074
2015    23      1       0.425179        92.168
2015    23      2       0.5889847       116.7151
2015    23      3       0.5670605       114.0116
2015    23      4       0.4459041       96.38158
2015    23      5       0.3611686       82.26771
2015    23      6       0.3524549       80.51944
2015    23      7       0.3595628       81.5386
2015    24      0       0.343332        78.84028
2015    24      1       0.3193703       74.68278
2015    24      2       0.3090357       72.71079
2015    24      3       0.362437        82.00375
2015    24      4       0.3895327       86.89541
2015    24      5       0.4017326       89.03808
2015    24      6       0.3791695       85.20655
2015    24      7       0.3422581       78.7841
2015    25      0       0.3354972       77.32017
2015    25      1       0.335943        77.25034
2015    25      2       0.3533996       80.20292
2015    25      3       0.3575542       81.33576
2015    25      4       0.3585278       81.7741
2015    25      5       0.3741499       84.31854
2015    25      6       0.3658819       82.66073
2015    25      7       0.377113        84.1173
2015    26      0       0.4168357       90.53107
2015    26      1       0.3883304       85.76727
2015    26      2       0.3703872       83.03852
2015    26      3       0.358597        81.40198
2015    26      4       0.3501533       79.88065
2015    26      5       0.3945899       87.28512
2015    26      6       0.4026127       88.34792
2015    26      7       0.5989784       117.4906
2015    27      0       0.540469        110.1511
2015    27      1       0.4601857       97.73991
2015    27      2       0.3678995       82.45927
2015    27      3       0.3538373       80.20558
2015    27      4       0.347109        79.41143
2015    27      5       0.2964478       70.64815
2015    27      6       0.2111526       53.97032
2015    27      7       0.180789        47.99338
2015    28      0       0.1756943       47.04116
2015    28      1       0.1961583       51.28322
2015    28      2       0.2279311       57.68833
2015    28      3       0.2967382       70.85594
2015    28      4       0.346989        80.32866
2015    28      5       0.36594         84.09845
2015    28      6       0.3553762       82.15627
2015    28      7       0.3368771       78.57641
2015    29      0       0.327974        76.7589
2015    29      1       0.2449706       61.11147
2015    29      2       0.1729223       46.48052
2015    29      3       0.1500873       41.4103
2015    29      4       0.1706391       45.7768
2015    29      5       0.2267572       57.5352
2015    29      6       0.1979344       51.57041
2015    29      7       0.2055929       53.04511
2015    30      0       0.2521251       62.19914
2015    30      1       0.254963        62.69727
2015    30      2       0.246072        60.81169
2015    30      3       0.2350266       58.39337
2015    30      4       0.248131        60.8924
2015    30      5       0.2454086       60.4275
2015    30      6       0.2278831       57.06446
2015    30      7       0.2297381       57.42859
2016    1       0       0.3164257       73.81735
2016    1       1       0.3051752       71.82672
2016    1       2       0.2947252       69.92709
2016    1       3       0.3394884       77.83285
2016    1       4       0.3692961       82.98871
2016    1       5       0.3909835       86.91911
2016    1       6       0.383683        85.83825
2016    1       7       0.3604349       81.90568
2016    2       0       0.3278384       76.39572
2016    2       1       0.3000108       71.28348
2016    2       2       0.2827804       68.03157
2016    2       3       0.2966478       70.83144
2016    2       4       0.2885206       69.49272
2016    2       5       0.277842        67.56008
2016    2       6       0.2768879       67.41507
2016    2       7       0.2610245       64.38569
2016    3       0       0.2451119       61.30142
2016    3       1       0.2345294       59.21075
2016    3       2       0.2106632       54.49948
2016    3       3       0.2237146       57.09161
2016    3       4       0.2256678       57.44449
2016    3       5       0.2521372       62.9755
2016    3       6       0.2646372       65.66112
2016    3       7       0.2608128       64.62079
2016    4       0       0.2840133       68.61627
2016    4       1       0.3023618       71.7419
2016    4       2       0.2818254       67.73383
2016    4       3       0.3555281       80.82126
2016    4       4       0.4385561       95.08415
2016    4       5       0.3846361       86.5239
2016    4       6       0.3593781       82.12963
2016    4       7       0.3350803       77.76395
2016    5       0       0.3167597       74.48647
2016    5       1       0.2945016       70.43623
2016    5       2       0.2252768       57.12867
2016    5       3       0.1986126       51.66589
2016    5       4       0.2037915       52.4778
2016    5       5       0.227004        57.16798
2016    5       6       0.2944789       70.37001
2016    5       7       0.3434148       79.49124
2016    6       0       0.3667925       83.71156
2016    6       1       0.3273263       76.71808
2016    6       2       0.1979989       51.3309
2016    6       3       0.1778682       47.11756
2016    6       4       0.2644349       64.4547
2016    6       5       0.3356735       77.68596
2016    6       6       0.3409181       78.57553
2016    6       7       0.3264348       75.9331
2016    7       0       0.290265        69.51158
2016    7       1       0.245196        60.83284
2016    7       2       0.2086414       53.62815
2016    7       3       0.2159407       55.05456
2016    7       4       0.2022752       52.56549
2016    7       5       0.1553606       42.98453
2016    7       6       0.1451559       40.66658
2016    7       7       0.1377764       38.82321
2016    8       0       0.1374393       38.65133
2016    8       1       0.1359676       38.24061
2016    8       2       0.1500325       41.23163
2016    8       3       0.1780737       47.31492
2016    8       4       0.2069487       53.45319
2016    8       5       0.2028746       52.62876
2016    8       6       0.1743069       46.73288
2016    8       7       0.1531131       42.37925
2016    9       0       0.1466037       40.91671
2016    9       1       0.1397758       39.28875
2016    9       2       0.1240422       35.72037
2016    9       3       0.1335953       37.79256
2016    9       4       0.1712985       46.07037
2016    9       5       0.1631544       43.8555
2016    9       6       0.1754309       46.22077
2016    9       7       0.1800576       47.30299
2016    10      0       0.1544525       41.90128
2016    10      1       0.1768196       46.40259
2016    10      2       0.1742629       45.78774
2016    10      3       0.2018507       51.74348
2016    10      4       0.1786677       47.36439
2016    10      5       0.1305065       37.39361
2016    10      6       0.1269939       36.41198
2016    10      7       0.1284766       36.6282
2016    11      0       0.1356104       38.08221
2016    11      1       0.1282807       36.50999
2016    11      2       0.127392        36.37925
2016    11      3       0.1753401       46.88597
2016    11      4       0.2098279       54.09394
2016    11      5       0.2004736       52.25364
2016    11      6       0.1775111       47.46782
2016    11      7       0.1857606       49.06401
2016    12      0       0.2200923       55.9111
2016    12      1       0.1881229       49.35595
2016    12      2       0.1306264       37.01583
2016    12      3       0.1575632       42.93084
2016    12      4       0.2493721       61.45854
2016    12      5       0.2860008       68.17144
2016    12      6       0.271548        65.1972
2016    12      7       0.2599085       62.796
2016    13      0       0.2278          56.70872
2016    13      1       0.2391568       58.98211
2016    13      2       0.224517        56.26414
2016    13      3       0.2038209       52.24114
2016    13      4       0.2043014       52.45358
2016    13      5       0.1977835       51.33439
2016    13      6       0.1918566       50.27942
2016    13      7       0.203841        52.90365
2016    14      0       0.2122593       54.74563
2016    14      1       0.2030165       52.85506
2016    14      2       0.1399112       39.22888
2016    14      3       0.1449955       40.10055
2016    14      4       0.2094729       53.66617
2016    14      5       0.2553164       62.9533
2016    14      6       0.2620437       64.08435
2016    14      7       0.2550222       62.86586
2016    15      0       0.2529383       62.53563
2016    15      1       0.2421099       60.22472
2016    15      2       0.1646424       44.12348
2016    15      3       0.1638995       43.83416
2016    15      4       0.2581929       62.71835
2016    15      5       0.3483961       79.59852
2016    15      6       0.3546969       80.97865
2016    15      7       0.3439506       79.24744
2016    16      0       0.350022        80.02825
2016    16      1       0.3227356       75.16843
2016    16      2       0.2297591       57.36553
2016    16      3       0.2237119       56.26071
2016    16      4       0.2017723       51.96254
2016    16      5       0.1942641       50.52754
2016    16      6       0.2060624       53.0333
2016    16      7       0.2616718       63.68443
2016    17      0       0.2423851       60.43262
2016    17      1       0.2134953       54.8201
2016    17      2       0.2239405       56.79691
2016    17      3       0.2344743       59.02435
2016    17      4       0.2363211       59.7556
2016    17      5       0.2120675       55.17394
2016    17      6       0.2287295       58.53458
2016    17      7       0.2349098       59.67874
2016    18      0       0.2693356       65.87723
2016    18      1       0.2627169       64.52229
2016    18      2       0.2297741       58.12903
2016    18      3       0.2522095       62.53361
2016    18      4       0.3007453       71.81299
2016    18      5       0.3067765       73.28775
2016    18      6       0.2864034       69.52355
2016    18      7       0.2726965       66.83804
2016    19      0       0.2623713       65.00682
2016    19      1       0.2485512       62.34593
2016    19      2       0.1873641       49.66683
2016    19      3       0.1724031       46.52507
2016    19      4       0.1998055       52.14206
2016    19      5       0.2345652       59.02794
2016    19      6       0.2573416       63.53753
2016    19      7       0.2830335       68.34118
2016    20      0       0.3232251       75.42401
2016    20      1       0.3431358       78.77571
2016    20      2       0.297995        70.4271
2016    20      3       0.2947578       69.86756
2016    20      4       0.3084132       72.35031
2016    20      5       0.3005359       70.84338
2016    20      6       0.2858823       68.15862
2016    20      7       0.2987744       70.37654
2016    21      0       0.2981941       70.02713
2016    21      1       0.3181181       73.67371
2016    21      2       0.3662293       82.25758
2016    21      3       0.4100112       89.74482
2016    21      4       0.4030398       88.76678
2016    21      5       0.3685893       82.77095
2016    21      6       0.357284        80.70471
2016    21      7       0.3619888       81.47368
2016    22      0       0.3824445       85.10461
2016    22      1       0.4064002       89.15389
2016    22      2       0.4371062       94.29351
2016    22      3       0.3732315       84.17873
2016    22      4       0.3278702       76.24573
2016    22      5       0.3121091       73.36135
2016    22      6       0.3019203       71.38206
2016    22      7       0.2887328       68.72703
2016    23      0       0.29183         69.05597
2016    23      1       0.2921511       68.96743
2016    23      2       0.2723719       65.17104
2016    23      3       0.3097239       72.15927
2016    23      4       0.3612344       81.19644
2016    23      5       0.3597306       81.11349
2016    23      6       0.347573        78.95675
2016    23      7       0.3438194       78.1899
2016    24      0       0.3982567       87.15484
2016    24      1       0.4032356       88.64993
2016    24      2       0.4227563       92.3669
2016    24      3       0.3856082       86.03176
2016    24      4       0.3837535       85.38993
2016    24      5       0.3083211       72.03849
2016    24      6       0.2598632       63.07717
2016    24      7       0.2512431       61.33868
2016    25      0       0.2684154       64.50699
2016    25      1       0.3123201       72.50809
2016    25      2       0.3549335       80.09102
2016    25      3       0.3859958       85.83229
2016    25      4       0.3491975       79.93444
2016    25      5       0.4019118       88.91439
2016    25      6       0.3737137       84.08814
2016    25      7       0.3785716       84.81797
2016    26      0       0.3808259       85.28774
2016    26      1       0.3728423       83.79514
2016    26      2       0.4247112       92.28086
2016    26      3       0.4887715       102.6526
2016    26      4       0.4944917       103.4959
2016    26      5       0.5046569       104.9379
2016    26      6       0.5013069       104.7076
2016    26      7       0.5051953       105.299
2016    27      0       0.4937277       103.5694
2016    27      1       0.4762102       100.9341
2016    27      2       0.4230782       92.69944
2016    27      3       0.328678        76.84188
2016    27      4       0.2592178       63.96064
2016    27      5       0.2296102       58.19039
2016    27      6       0.2029723       52.70127
2016    27      7       0.2011953       52.19039
2016    28      0       0.2035713       52.40898
2016    28      1       0.1962094       50.72876
2016    28      2       0.2098637       53.48067
2016    28      3       0.255893        62.57513
2016    28      4       0.2653407       64.5622
2016    28      5       0.2404738       59.86841
2016    28      6       0.2188528       55.47264
2016    28      7       0.2197465       55.56363
2016    29      0       0.2323689       58.04489
2016    29      1       0.2603673       63.29198
2016    29      2       0.3009046       70.80173
2016    29      3       0.3798843       85.04162
2016    29      4       0.4472729       96.33048
2016    29      5       0.4440709       96.12268
2016    29      6       0.4884073       102.9571
2016    29      7       0.4842802       102.0834
2016    30      0       0.4449586       95.99428
2016    30      1       0.4172877       91.66315
2016    30      2       0.4829546       101.6478
2016    30      3       0.4218147       92.1878
2016    30      4       0.3697253       83.72564
2016    30      5       0.3690709       83.46231
2016    30      6       0.3734662       84.17263
2016    30      7       0.3741709       84.12483
2017    1       0       0.1805952       47.75424
2017    1       1       0.1847468       48.66084
2017    1       2       0.1904997       49.94048
2017    1       3       0.1902556       50.0562
2017    1       4       0.1911826       50.36379
2017    1       5       0.1850006       49.13377
2017    1       6       0.17651         47.39423
2017    1       7       0.1644282       44.84813
2017    2       0       0.1565771       43.18913
2017    2       1       0.159319        43.79105
2017    2       2       0.1602514       44.06841
2017    2       3       0.2142586       55.21092
2017    2       4       0.2907363       69.80507
2017    2       5       0.3003169       71.69516
2017    2       6       0.2711126       65.9648
2017    2       7       0.2385626       59.52067
2017    3       0       0.2223669       56.43572
2017    3       1       0.2279855       57.71098
2017    3       2       0.2386865       59.9132
2017    3       3       0.2279963       57.91014
2017    3       4       0.2233958       57.08365
2017    3       5       0.2098712       54.48812
2017    3       6       0.1983513       52.08087
2017    3       7       0.1739833       47.01338
2017    4       0       0.1303177       37.60697
2017    4       1       0.1159588       34.27574
2017    4       2       0.1339718       38.11555
2017    4       3       0.1769399       47.47698
2017    4       4       0.1969037       52.02442
2017    4       5       0.1806046       48.81751
2017    4       6       0.1774604       47.9965
2017    4       7       0.1916034       50.52573
2017    5       0       0.210355        54.3518
2017    5       1       0.2419343       60.49762
2017    5       2       0.2559714       63.26657
2017    5       3       0.294372        70.88392
2017    5       4       0.3226631       76.13559
2017    5       5       0.3148698       74.58703
2017    5       6       0.3178807       75.07461
2017    5       7       0.2850248       69.13369
2017    6       0       0.2235026       57.58959
2017    6       1       0.1973947       52.31803
2017    6       2       0.1809991       48.75301
2017    6       3       0.1689286       46.07142
2017    6       4       0.174036        47.15293
2017    6       5       0.1801621       48.36843
2017    6       6       0.1843154       49.30973
2017    6       7       0.1914102       50.90402
2017    7       0       0.19514         51.07719
2017    7       1       0.2022321       52.18777
2017    7       2       0.1995494       51.66737
2017    7       3       0.2107209       54.24661
2017    7       4       0.2212854       56.35599
2017    7       5       0.1982914       51.82833
2017    7       6       0.1737764       46.64181
2017    7       7       0.1734384       46.39873
2017    8       0       0.2057264       52.94844
2017    8       1       0.2194786       55.66071
2017    8       2       0.2134078       54.30605
2017    8       3       0.253876        62.29471
2017    8       4       0.3319434       77.03389
2017    8       5       0.3239291       75.93125
2017    8       6       0.2793534       67.6358
2017    8       7       0.2645126       64.55799
2017    9       0       0.2619231       64.07862
2017    9       1       0.2641092       64.46757
2017    9       2       0.2320158       57.91708
2017    9       3       0.2497662       61.22338
2017    9       4       0.2948003       69.83389
2017    9       5       0.2692448       65.43104
2017    9       6       0.2484798       61.53587
2017    9       7       0.2255056       57.14632
2017    10      0       0.2067968       53.27167
2017    10      1       0.2196517       55.70432
2017    10      2       0.2282277       57.24913
2017    10      3       0.2308196       57.65856
2017    10      4       0.2957663       69.94431
2017    10      5       0.3093402       72.58487
2017    10      6       0.2920397       69.35835
2017    10      7       0.3330525       76.83608
2017    11      0       0.3451278       79.09618
2017    11      1       0.324051        75.27084
2017    11      2       0.3025909       71.27657
2017    11      3       0.2930272       69.90935
2017    11      4       0.2966499       70.61708
2017    11      5       0.3320887       76.83537
2017    11      6       0.3068896       72.26202
2017    11      7       0.2625376       64.30383
2017    12      0       0.2431352       60.77192
2017    12      1       0.2070505       53.57775
2017    12      2       0.1635893       44.08415
2017    12      3       0.2185924       54.98371
2017    12      4       0.2627842       64.00716
2017    12      5       0.2544843       62.62119
2017    12      6       0.2706139       65.12816
2017    12      7       0.2595425       63.0279
2017    13      0       0.2538423       61.90302
2017    13      1       0.262869        63.47302
2017    13      2       0.2630045       63.5191
2017    13      3       0.2721419       65.37348
2017    13      4       0.2915946       69.03137
2017    13      5       0.2730425       65.66406
2017    13      6       0.2242002       56.20197
2017    13      7       0.1911793       49.68972
2017    14      0       0.1942181       50.26892
2017    14      1       0.2079873       53.11039
2017    14      2       0.2082133       53.21362
2017    14      3       0.2593954       63.30583
2017    14      4       0.3071559       72.17679
2017    14      5       0.3192767       74.37904
2017    14      6       0.3197052       74.38405
2017    14      7       0.2407628       59.73938
2017    15      0       0.1773659       47.10174
2017    15      1       0.1518172       41.7323
2017    15      2       0.1800658       47.55855
2017    15      3       0.2958019       70.00854
2017    15      4       0.4094221       89.72344
2017    15      5       0.3584013       81.27771
2017    15      6       0.3126549       73.29877
2017    15      7       0.3159018       73.81494
2017    16      0       0.2168407       55.00629
2017    16      1       0.2167209       54.93691
2017    16      2       0.2343301       58.18917
2017    16      3       0.2758978       66.17338
2017    16      4       0.2801129       67.12581
2017    16      5       0.2334024       58.56315
2017    16      6       0.189243        49.57018
2017    16      7       0.1654203       44.48461
2017    17      0       0.1933154       50.06209
2017    17      1       0.2465152       60.42502
2017    17      2       0.2579467       62.35745
2017    17      3       0.2836412       67.32917
2017    17      4       0.2949754       69.5302
2017    17      5       0.2375198       59.09289
2017    17      6       0.2534341       62.02533
2017    17      7       0.3173011       73.47418
2017    18      0       0.3566658       80.36908
2017    18      1       0.3815635       84.62833
2017    18      2       0.4506308       95.75371
2017    18      3       0.4606616       97.70368
2017    18      4       0.4198223       91.1523
2017    18      5       0.3104932       72.3162
2017    18      6       0.2284459       57.06521
2017    18      7       0.2508017       61.12956
2017    19      0       0.3004291       70.35948
2017    19      1       0.3183696       73.68516
2017    19      2       0.3068591       71.67703
2017    19      3       0.3045266       71.31669
2017    19      4       0.3004538       70.64897
2017    19      5       0.2992155       70.52975
2017    19      6       0.2734721       65.91302
2017    19      7       0.2354836       58.69193
2017    20      0       0.2061438       52.9148
2017    20      1       0.1950856       50.69197
2017    20      2       0.2067461       52.76476
2017    20      3       0.2673207       64.32263
2017    20      4       0.2631284       63.57537
2017    20      5       0.2113736       53.7135
2017    20      6       0.1878367       48.99648
2017    20      7       0.1679371       44.78725
2017    21      0       0.1333246       37.43468
2017    21      1       0.1293512       36.45275
2017    21      2       0.1216683       34.72347
2017    21      3       0.1158504       33.64488
2017    21      4       0.1383688       38.68968
2017    21      5       0.1539829       42.05159
2017    21      6       0.153276        41.83942
2017    21      7       0.1378161       38.50626
2017    22      0       0.1357391       37.97343
2017    22      1       0.137179        38.24925
2017    22      2       0.1053246       31.17185
2017    22      3       0.1089225       31.99283
2017    22      4       0.1186535       34.27491
2017    22      5       0.1062695       31.6684
2017    22      6       0.08373217      26.48081
2017    22      7       0.07363674      24.15085
2017    23      0       0.07622118      24.63994
2017    23      1       0.08011528      25.39222
2017    23      2       0.09047001      27.54115
2017    23      3       0.1288567       35.97803
2017    23      4       0.1642761       43.5855
2017    23      5       0.1798596       46.91415
2017    23      6       0.1800394       47.10754
2017    23      7       0.1755205       46.28167
2017    24      0       0.1825445       47.65129
2017    24      1       0.1854756       48.44289
2017    24      2       0.1841415       48.3438
2017    24      3       0.2020113       52.18324
2017    24      4       0.2213476       56.1232
2017    24      5       0.2502789       61.65968
2017    24      6       0.2649764       64.49036
2017    24      7       0.2738821       66.43179
2017    25      0       0.2633443       64.54582
2017    25      1       0.2245782       57.20268
2017    25      2       0.2408333       60.52366
2017    25      3       0.299836        71.77399
2017    25      4       0.2868468       69.34773
2017    25      5       0.3112532       73.49442
2017    25      6       0.306889        72.31405
2017    25      7       0.2949609       70.09099
2017    26      0       0.2740073       66.23143
2017    26      1       0.1993141       51.67816
2017    26      2       0.1605433       43.59057
2017    26      3       0.1639669       44.07353
2017    26      4       0.1877438       48.95387
2017    26      5       0.1848784       48.47833
2017    26      6       0.1997654       51.1923
2017    26      7       0.2025844       51.86653
2017    27      0       0.2044616       52.00492
2017    27      1       0.1965448       50.40539
2017    27      2       0.2163282       54.25765
2017    27      3       0.3030642       70.83314
2017    27      4       0.391363        86.3368
2017    27      5       0.3693752       82.76927
2017    27      6       0.2770897       66.19427
2017    27      7       0.2455735       60.29554
2017    28      0       0.2260812       56.60492
2017    28      1       0.1729095       45.7446
2017    28      2       0.1856665       48.18242
2017    28      3       0.2700118       64.84327
2017    28      4       0.3527843       79.97285
2017    28      5       0.3874132       85.75933
2017    28      6       0.3737695       83.41891
2017    28      7       0.3381597       77.25486
2017    29      0       0.3004091       70.54226
2017    29      1       0.2704284       65.16167
2017    29      2       0.2353039       58.53833
2017    29      3       0.2268725       57.01611
2017    29      4       0.2338444       58.45273
2017    29      5       0.2211932       56.04588
2017    29      6       0.1741178       46.414
2017    29      7       0.1538803       42.17145
2017    30      0       0.1437152       40.06845
2017    30      1       0.1317803       37.38447
2017    30      2       0.1025314       30.50201
2017    30      3       0.1239973       35.19714
2017    30      4       0.1350419       37.82199
2017    30      5       0.1309186       37.10152
2017    30      6       0.121039        34.96679
2017    30      7       0.1203605       34.85374
2018    1       0       0.2524229       62.13427
2018    1       1       0.2735446       65.87173
2018    1       2       0.3485317       79.54747
2018    1       3       0.4316362       93.96277
2018    1       4       0.4301889       94.30275
2018    1       5       0.4234043       93.01298
2018    1       6       0.4161444       91.62991
2018    1       7       0.3994289       88.76949
2018    2       0       0.347494        79.73224
2018    2       1       0.3595516       81.60829
2018    2       2       0.4436154       95.08981
2018    2       3       0.5190566       106.8526
2018    2       4       0.5509762       111.8598
2018    2       5       0.53638         109.3472
2018    2       6       0.4288591       92.85129
2018    2       7       0.5306646       108.6298
2018    3       0       0.6484452       124.5461
2018    3       1       0.3758947       83.77923
2018    3       2       0.5482742       110.5923
2018    3       3       0.5741852       114.6621
2018    3       4       0.3751246       83.91804
2018    3       5       0.384492        84.9761
2018    3       6       0.5056648       104.4673
2018    3       7       0.4832479       100.907
2018    4       0       0.3832536       84.96328
2018    4       1       0.3058959       71.67448
2018    4       2       0.3298029       76.08135
2018    4       3       0.343426        78.34724
2018    4       4       0.3441061       78.69567
2018    4       5       0.326526        75.81486
2018    4       6       0.2950108       70.06819
2018    4       7       0.1707433       45.57718
2018    5       0       0.1438683       39.99797
2018    5       1       0.1363317       38.15949
2018    5       2       0.1506598       41.08754
2018    5       3       0.257792        62.52287
2018    5       4       0.3016226       70.61701
2018    5       5       0.2362913       58.57838
2018    5       6       0.1888866       49.2031
2018    5       7       0.1407152       39.13777
2018    6       0       0.1155565       33.59533
2018    6       1       0.08449758      26.57811
2018    6       2       0.09726765      29.61531
2018    6       3       0.1258427       36.06167
2018    6       4       0.1272884       36.42516
2018    6       5       0.1166858       33.93934
2018    6       6       0.1208964       34.65411
2018    6       7       0.1457451       40.03837
2018    7       0       0.1554481       42.27561
2018    7       1       0.1673364       45.10167
2018    7       2       0.1763102       47.12503
2018    7       3       0.2127642       54.91938
2018    7       4       0.233385        59.04725
2018    7       5       0.2189839       55.97009
2018    7       6       0.232075        58.36617
2018    7       7       0.2493234       61.83034
2018    8       0       0.2624957       64.17747
2018    8       1       0.2828355       67.97231
2018    8       2       0.3495229       80.27381
2018    8       3       0.4516676       97.492
2018    8       4       0.3662135       83.75092
2018    8       5       0.3410874       79.20866
2018    8       6       0.3231411       75.83945
2018    8       7       0.3409179       78.61567
2018    9       0       0.3390558       77.95716
2018    9       1       0.312839        73.08274
2018    9       2       0.3395791       77.94791
2018    9       3       0.4627127       98.26204
2018    9       4       0.4636762       98.88639
2018    9       5       0.4446948       95.64375
2018    9       6       0.4416574       95.19442
2018    9       7       0.3926762       87.32509
2018    10      0       0.3864813       86.26108
2018    10      1       0.3433889       78.70916
2018    10      2       0.3844473       85.49355
2018    10      3       0.4069342       89.38365
2018    10      4       0.4114267       90.13372
2018    10      5       0.4146959       90.76294
2018    10      6       0.3794883       85.10869
2018    10      7       0.3831597       85.51694
2018    11      0       0.340619        78.16454
2018    11      1       0.3221782       74.64155
2018    11      2       0.3670993       82.14561
2018    11      3       0.4890841       101.6619
2018    11      4       0.4503808       96.32228
2018    11      5       0.4275319       93.16726
2018    11      6       0.4031679       89.17565
2018    11      7       0.3483581       79.55645
2018    12      0       0.3319509       76.5115
2018    12      1       0.3006148       70.7091
2018    12      2       0.350996        79.55012
2018    12      3       0.4238283       91.93189
2018    12      4       0.4327254       93.67579
2018    12      5       0.4316623       93.53718
2018    12      6       0.4080365       89.72474
2018    12      7       0.4512735       96.47265
2018    13      0       0.4400276       94.66059
2018    13      1       0.37877         84.47823
2018    13      2       0.3903833       86.12727
2018    13      3       0.4079372       89.18397
2018    13      4       0.3824507       84.97225
2018    13      5       0.3756393       83.81323
2018    13      6       0.4580541       97.35478
2018    13      7       0.3967948       87.13502
2018    14      0       0.3307281       76.01587
2018    14      1       0.2929481       69.15997
2018    14      2       0.304177        71.18814
2018    14      3       0.3698004       82.63343
2018    14      4       0.4041008       88.78138
2018    14      5       0.5973037       117.2401
2018    14      6       0.5231639       106.8604
2018    14      7       0.3438348       77.91345
2018    15      0       0.2612933       63.21027
2018    15      1       0.1794632       47.09074
2018    15      2       0.1594789       42.83799
2018    15      3       0.2163694       54.66153
2018    15      4       0.231041        57.34644
2018    15      5       0.22646         56.35374
2018    15      6       0.2238059       55.79928
2018    15      7       0.2233412       55.82337
2018    16      0       0.2114607       53.40398
2018    16      1       0.2435468       59.58775
2018    16      2       0.254744        62.27215
2018    16      3       0.3156743       73.84185
2018    16      4       0.2700069       65.37656
2018    16      5       0.2095427       53.30582
2018    16      6       0.1785702       46.86985
2018    16      7       0.1492739       40.66963
2018    17      0       0.1272149       35.87045
2018    17      1       0.116299        33.60768
2018    17      2       0.1177587       33.95336
2018    17      3       0.1736482       46.21876
2018    17      4       0.2189875       55.21973
2018    17      5       0.2606144       63.07146
2018    17      6       0.3293018       75.51817
2018    17      7       0.3512622       79.81862
2018    18      0       0.2944296       70.07146
2018    18      1       0.2841525       68.19213
2018    18      2       0.3910911       86.90064
2018    18      3       0.4050173       89.4339
2018    18      4       0.3387965       78.50555
2018    18      5       0.2842319       68.68571
2018    18      6       0.2408255       60.22404
2018    18      7       0.276444        66.78917
2018    19      0       0.2809263       67.47942
2018    19      1       0.2804236       67.35482
2018    19      2       0.3141215       73.07414
2018    19      3       0.322153        74.56557
2018    19      4       0.3270069       75.6148
2018    19      5       0.2971142       70.2976
2018    19      6       0.2644403       64.25198
2018    19      7       0.2068838       52.82503
2018    20      0       0.1756208       46.21958
2018    20      1       0.1542681       41.99277
2018    20      2       0.1142714       33.36696
2018    20      3       0.137305        38.52782
2018    20      4       0.1382237       38.762
2018    20      5       0.1196789       34.35319
2018    20      6       0.1158071       33.57031
2018    20      7       0.1391192       38.67524
2018    21      0       0.1577739       42.21869
2018    21      1       0.1733684       45.38029
2018    21      2       0.2061323       52.31145
2018    21      3       0.2509262       61.77998
2018    21      4       0.2504611       61.9096
2018    21      5       0.2229463       56.53318
2018    21      6       0.2136198       54.46859
2018    21      7       0.1805202       47.42582
2018    22      0       0.1501027       40.8014
2018    22      1       0.162446        43.23161
2018    22      2       0.1878272       48.76735
2018    22      3       0.2169993       55.25449
2018    22      4       0.2149829       55.02352
2018    22      5       0.2041044       52.82049
2018    22      6       0.1977097       51.53301
2018    22      7       0.2020634       52.4537
2018    23      0       0.1420791       39.73557
2018    23      1       0.1465302       40.37218
2018    23      2       0.1696671       45.54895
2018    23      3       0.1743626       46.58292
2018    23      4       0.1981099       51.58242
2018    23      5       0.2094281       53.86016
2018    23      6       0.1825005       48.64925
2018    23      7       0.1526443       42.37765
2018    24      0       0.1478339       41.08318
2018    24      1       0.1639585       44.40924
2018    24      2       0.2037232       53.08734
2018    24      3       0.2453906       61.53043
2018    24      4       0.2440068       61.33335
2018    24      5       0.2751042       66.97475
2018    24      6       0.2831065       68.96265
2018    24      7       0.2045205       53.40277
2018    25      0       0.2394885       59.8896
2018    25      1       0.3249419       75.84526
2018    25      2       0.3970692       88.56508
2018    25      3       0.4450823       97.09063
2018    25      4       0.3543572       82.24361
2018    25      5       0.2523472       63.17206
2018    25      6       0.2089764       54.39591
2018    25      7       0.2060483       53.86822
2018    26      0       0.2006986       52.44401
2018    26      1       0.1836773       48.74075
2018    26      2       0.1741623       46.84936
2018    26      3       0.1692664       45.8928
2018    26      4       0.1646114       44.81048
2018    26      5       0.1644809       44.60569
2018    26      6       0.1805551       47.78941
2018    26      7       0.1685876       45.44368
2018    27      0       0.178866        47.2974
2018    27      1       0.2497114       61.11065
2018    27      2       0.3255262       75.40466
2018    27      3       0.3875089       86.61925
2018    27      4       0.4001454       88.68778
2018    27      5       0.3931031       87.42071
2018    27      6       0.3902787       86.69408
2018    27      7       0.4126191       90.28106
2018    28      0       0.4483176       95.93217
2018    28      1       0.4321028       93.41685
2018    28      2       0.4081067       89.65712
2018    28      3       0.3490733       79.84648
2018    28      4       0.3105583       73.33605
2018    28      5       0.2676239       65.60093
2018    28      6       0.2367574       59.73443
2018    28      7       0.219543        56.0934
2018    29      0       0.2114467       54.01527
2018    29      1       0.1962668       50.63075
2018    29      2       0.223426        55.53723
2018    29      3       0.3149494       72.93102
2018    29      4       0.3199523       73.9314
2018    29      5       0.2656746       64.39252
2018    29      6       0.2159287       54.95198
2018    29      7       0.1856025       48.85856
2018    30      0       0.1790507       47.44199
2018    30      1       0.1748048       46.40824
2018    30      2       0.1698452       45.05186
2018    30      3       0.1884913       49.0422
2018    30      4       0.1575366       42.9486
2018    30      5       0.1355767       38.11542
2018    30      6       0.1356242       38.27567
2018    30      7       0.1405574       39.40591
