####################################################################################################
# Month: 04Apr                                                                                     #
# Station: SAS                                                                                     #
# Frequency: 230 GHz                                                                               #
# Columns are: year    day     tau     Tb (K)                                                      #
####################################################################################################
2009    1       0.27054062      66.27582125
2009    2       0.34161745      79.88121375
2009    3       0.21464342      54.75260375
2009    4       0.1751339       46.48951875
2009    5       0.293148        70.57754125
2009    6       0.30009196      71.69053875
2009    7       0.35624706      81.84401125
2009    8       0.45695996      99.43428875
2009    9       0.43724865      96.05846875
2009    10      0.42770152      94.38809125
2009    11      0.37169031      84.74873875
2009    12      0.42756498      94.97042
2009    13      0.32040224      75.91322625
2009    14      0.27553337      67.17846625
2009    15      0.29274779      70.03693125
2009    16      0.24761075      61.612435
2009    17      0.1136231       32.2812625
2009    18      0.06055625      19.89362625
2009    19      0.06966864      22.22264625
2009    20      0.13286609      37.02656625
2009    21      0.16876179      44.87788
2009    22      0.12269776      34.88326
2009    23      0.05720597      19.110395
2009    24      0.0317536       12.63166138
2009    25      0.04183699      15.24175
2009    26      0.09886855      28.48080875
2009    27      0.14127564      39.097365
2009    28      0.07043374      22.50702375
2009    29      0.06649669      21.33926625
2009    30      0.10576914      29.81018
2010    1       0.16286131      43.7196475
2010    2       0.21861062      55.6104475
2010    3       0.24691091      61.27603375
2010    4       0.3662518       84.62693125
2010    5       0.38786809      87.6089975
2010    6       0.46318195      100.61598625
2010    7       0.40098801      90.5280175
2010    8       0.39038572      87.9363225
2010    9       0.32626089      76.67132625
2010    10      0.19299491      50.13194875
2010    11      0.05717449      19.00853125
2010    12      0.05895802      19.1175525
2010    13      0.19810929      50.48146625
2010    14      0.23837759      59.142245
2010    15      0.14337026      39.42465125
2010    16      0.26743291      64.90357625
2010    17      0.39770055      89.2242225
2010    18      0.37073619      84.69869
2010    19      0.34146951      79.21501125
2010    20      0.2806011       67.60626
2010    21      0.33630147      78.44417625
2010    22      0.41508254      92.1267375
2010    23      0.26262719      64.8898425
2010    24      0.1816809       46.71819
2010    25      0.06381036      20.87637875
2010    26      0.0441616       15.901085
2010    27      0.08654859      26.409655
2010    28      0.20217284      51.58067375
2010    29      0.39144308      88.78559375
2010    30      0.47730406      103.04312625
2011    1       0.48306398      104.0657575
2011    2       0.43429946      95.7599625
2011    3       0.28498874      69.2140475
2011    4       0.25192144      62.34643875
2011    5       0.30515181      72.6864075
2011    6       0.44686112      97.9445
2011    7       0.39906785      89.986255
2011    8       0.36108464      82.737235
2011    9       0.37992966      85.9255875
2011    10      0.30958872      72.8013525
2011    11      0.20178605      51.61052625
2011    12      0.0728872       22.7748
2011    13      0.07144134      22.52078375
2011    14      0.11374208      32.3122125
2011    15      0.25497564      62.72789375
2011    16      0.26742445      65.11668125
2011    17      0.33308791      77.40526875
2011    18      0.34729849      80.02448
2011    19      0.28080786      67.93755625
2011    20      0.12943318      35.837785
2011    21      0.12376175      34.47145
2011    22      0.15497237      41.90718
2011    23      0.15628389      42.02319
2011    24      0.22868319      57.5048225
2011    25      0.13210725      36.8416725
2011    26      0.18629698      48.74659
2011    27      0.22283469      56.28762625
2011    28      0.16940545      44.1284125
2011    29      0.0632627       20.40585625
2011    30      0.04433625      15.8814175
2012    1       0.33614705      78.46128
2012    2       0.23417179      58.72937
2012    3       0.33996748      78.54290375
2012    4       0.39145386      87.88446875
2012    5       0.41786739      92.488435
2012    6       0.41192966      91.547105
2012    7       0.30948761      73.24803375
2012    8       0.40035795      90.6087025
2012    9       0.33748886      78.6474075
2012    10      0.40361259      90.48025875
2012    11      0.40417149      90.392405
2012    12      0.41072181      91.26751125
2012    13      0.33700549      78.29674625
2012    14      0.1906533       49.60976875
2012    15      0.29873831      70.18678625
2012    16      0.43140481      95.3467625
2012    17      0.39074255      88.67954
2012    18      0.36598116      84.092555
2012    19      0.42226455      93.74698875
2012    20      0.39358914      88.99036125
2012    21      0.34063446      79.56574625
2012    22      0.33183896      76.98405
2012    23      0.38090488      85.82407625
2012    24      0.30505381      71.9042475
2012    25      0.27766996      66.999095
2012    26      0.07250782      22.64255875
2012    27      0.0806634       24.5312525
2012    28      0.04312199      15.4764625
2012    29      0.03052745      12.31079438
2012    30      0.04385149      15.75041125
2013    1       0.19355702      50.23662125
2013    2       0.11032418      31.57174125
2013    3       0.23006889      57.79946375
2013    4       0.16533345      44.358765
2013    5       0.11348228      32.18749875
2013    6       0.19303552      49.87083875
2013    7       0.159918        42.79862
2013    8       0.12204018      34.5828
2013    9       0.07872478      24.3282075
2013    10      0.06288132      20.593985
2013    11      0.04061784      14.997085
2013    12      0.04617093      16.3823225
2013    13      0.02714452      11.29990675
2013    14      0.05569142      18.55617625
2013    15      0.07585677      23.63774875
2013    16      0.07820642      24.30696375
2013    17      0.07999109      24.560495
2013    18      0.15893269      42.307005
2013    19      0.19832064      50.5869
2013    20      0.13528531      37.55996375
2013    21      0.15024159      40.73517625
2013    22      0.21337641      54.4020375
2013    23      0.15427199      41.82428875
2013    24      0.08158872      25.18985
2013    25      0.05963076      19.80202125
2013    26      0.05452942      18.55037875
2013    27      0.05892317      19.66714125
2013    28      0.08127767      24.92157125
2013    29      0.19150596      49.3973325
2013    30      0.27437942      67.2834925
2014    1       0.36865041      83.77833
2014    2       0.39038658      87.96868375
2014    3       0.3625308       83.10279875
2014    4       0.41942845      92.91642625
2014    5       0.35453904      81.30462125
2014    6       0.36175044      83.30246375
2014    7       0.33990861      78.87855375
2014    8       0.33246801      77.031435
2014    9       0.29549733      70.4695225
2014    10      0.35761226      81.59375
2014    11      0.10514834      30.5402025
2014    12      0.06014864      19.38984375
2014    13      0.28485909      69.03814125
2014    14      0.22886318      57.46259875
2014    15      0.28015578      67.90350125
2014    16      0.28655611      69.14696125
2014    17      0.29658135      70.67062
2014    18      0.27747548      67.2674375
2014    19      0.29094954      69.83648625
2014    20      0.27824786      66.4169875
2014    21      0.31304122      73.5089025
2014    22      0.21877174      55.540615
2014    23      0.14884023      40.6285475
2014    24      0.26907409      65.006345
2014    25      0.13218537      36.0841975
2014    26      0.12544163      34.93938875
2014    27      0.06444622      20.40531
2014    28      0.11058155      31.54384875
2014    29      0.2023818       51.75651875
2014    30      0.15947735      42.14883
2015    1       0.43421812      95.543235
2015    2       0.40944841      91.1753525
2015    3       0.12084372      34.06144125
2015    4       0.12193524      34.26413375
2015    5       0.34026424      78.58924125
2015    6       0.25271847      60.4448625
2015    7       0.33210277      76.96628625
2015    8       0.388397        87.72079375
2015    9       0.34103674      77.99333625
2015    10      0.39777052      88.87684625
2015    11      0.42157348      93.29427625
2015    12      0.43182828      94.87812125
2015    13      0.2731771       65.680595
2015    14      0.23103364      57.28966625
2015    15      0.25394145      61.6363625
2015    16      0.26704205      64.77754625
2015    17      0.20598854      52.338665
2015    18      0.28241936      67.10157375
2015    19      0.32110534      74.54276
2015    20      0.36294215      82.89319875
2015    21      0.39437703      88.9859275
2015    22      0.47070916      101.6695225
2015    23      0.49277948      105.401925
2015    24      0.4860787       104.225105
2015    25      0.41073186      91.53578375
2015    26      0.30622686      72.52907375
2015    27      0.33999924      78.91420625
2015    28      0.32198529      75.9985225
2015    29      0.29285205      70.24372625
2015    30      0.25300228      62.32537
2016    1       0.37560792      85.5361975
2016    2       0.31493689      74.4637525
2016    3       0.32649525      76.63138625
2016    4       0.41074908      91.99922125
2016    5       0.44405014      96.79524875
2016    6       0.29117911      69.7886825
2016    7       0.42098584      92.579735
2016    8       0.36210349      82.686715
2016    9       0.31614289      74.30145625
2016    10      0.17089641      45.24535
2016    11      0.2328796       56.6414975
2016    12      0.26797161      65.16661875
2016    13      0.05972971      19.62519875
2016    14      0.13852777      38.146565
2016    15      0.34199698      79.61582875
2016    16      0.4228411       93.85584
2016    17      0.46052824      100.0703975
2016    18      0.41331444      91.9228375
2016    19      0.47433022      102.11429875
2016    20      0.22429371      54.96443125
2016    21      0.09291254      26.89854625
2016    22      0.36424412      82.72756625
2016    23      0.11599354      32.558945
2016    24      0.04812858      17.01888875
2016    25      0.05719582      19.25177125
2016    26      0.05854132      19.4866175
2016    27      0.05758855      19.34026875
2016    28      0.06607412      21.294415
2016    29      0.09403823      28.24626
2016    30      0.12980327      36.2748275
2017    1       0.39183735      87.21807625
2017    2       0.32921451      77.46277375
2017    3       0.30301635      72.16865875
2017    4       0.18659981      49.13894
2017    5       0.14502004      38.72941875
2017    6       0.35438269      82.26226875
2017    7       0.41282079      91.951815
2017    8       0.26590965      64.76748
2017    9       0.17848399      46.90611
2017    10      0.20381548      51.778355
2017    11      0.25587666      62.662795
2017    12      0.34807988      80.88532875
2017    13      0.35603131      82.70079625
2017    14      0.36163285      83.24051125
2017    15      0.30754478      73.3795275
2017    16      0.29949264      71.8284625
2017    17      0.33380721      77.80807
2017    18      0.23006284      58.01395
2017    19      0.08367963      25.547745
2017    20      0.06759483      21.7335475
2017    21      0.09668052      28.85858
2017    22      0.18667912      48.881725
2017    23      0.30357266      72.1669425
2017    24      0.38675552      87.32237375
2017    25      0.17563132      45.37975375
2017    26      0.15040372      39.5726125
2017    27      0.26497705      64.5270525
2017    28      0.27915234      66.6318125
2017    29      0.40767272      90.879005
2017    30      0.34815255      80.67922375
2018    1       0.05626244      18.913575
2018    2       0.07640809      23.98525125
2018    3       0.07866581      24.4547375
2018    4       0.06842033      21.715605
2018    5       0.06153836      19.93771125
2018    6       0.21589072      53.43206375
2018    7       0.29797458      70.73419125
2018    8       0.2867107       68.65338875
2018    9       0.27515517      66.17917625
2018    10      0.23847295      59.7796175
2018    11      0.18075504      47.5655225
2018    12      0.14131833      39.068875
2018    13      0.27781966      66.182355
2018    14      0.20669636      51.91652625
2018    15      0.14327716      39.56432375
2018    16      0.17900582      47.03002
2018    17      0.18555968      48.92635
2018    18      0.15389228      41.5696325
2018    19      0.23779121      59.66551375
2018    20      0.19143876      49.96858875
2018    21      0.23697199      58.95804375
2018    22      0.29765931      70.02397125
2018    23      0.35896379      81.4917675
2018    24      0.30663006      71.88875125
2018    25      0.43426612      95.4386
2018    26      0.41191525      91.4572525
2018    27      0.34403855      79.4442025
2018    28      0.3052035       72.15727125
2018    29      0.22886059      57.3151525
2018    30      0.2296164       57.977965
