####################################################################################################
# Month: 06Jun                                                                                     #
# Station: JELM                                                                                    #
# Frequency: 230 GHz                                                                               #
# Columns are: year    day     tau     Tb (K)                                                      #
####################################################################################################
2009    1       0.68435584      134.7327375
2009    2       0.75332844      142.4807
2009    3       0.58680194      120.327895
2009    4       0.53114696      111.14528125
2009    5       0.46105674      101.33381875
2009    6       0.3372095       74.9706175
2009    7       0.3296234       76.26178375
2009    8       0.53308729      110.87377125
2009    9       0.51376772      108.35854125
2009    10      0.61611259      123.0029375
2009    11      0.59698251      120.886375
2009    12      0.49992746      106.1349375
2009    13      0.49698996      107.43053125
2009    14      0.44978432      99.12741
2009    15      0.57393989      117.75156125
2009    16      0.44425889      97.199895
2009    17      0.55386865      115.9056475
2009    18      0.588084        121.040625
2009    19      0.4985293       105.8836825
2009    20      0.49121102      107.61603875
2009    21      0.62156674      123.44474375
2009    22      0.36418494      85.55760625
2009    23      0.37375656      87.3122475
2009    24      0.54837065      117.98028
2009    25      0.63985328      130.927025
2009    26      0.87981399      160.2684625
2009    27      0.46472868      101.71874625
2009    28      0.27389209      69.6173475
2009    29      0.3338082       81.33082875
2009    30      0.31636384      77.842105
2010    1       0.33718901      78.82764125
2010    2       0.54455059      113.5742725
2010    3       0.66355696      131.2897125
2010    4       0.77113749      147.7602125
2010    5       0.84126828      157.3158875
2010    6       0.72485292      142.290975
2010    7       0.55201352      119.0167375
2010    8       0.71248292      139.570925
2010    9       0.75403795      145.5386625
2010    10      0.60196871      124.17025
2010    11      0.53572273      112.2127775
2010    12      0.74492218      142.4223375
2010    13      0.6626895       131.197625
2010    14      0.45435645      98.72925375
2010    15      0.26806654      66.62083875
2010    16      0.28239326      70.199905
2010    17      0.26014626      63.69335875
2010    18      0.17806022      48.17196
2010    19      0.22360274      58.09703125
2010    20      0.2207038       57.2376475
2010    21      0.17684716      47.68569375
2010    22      0.199596        52.81927125
2010    23      0.2201757       57.29207875
2010    24      0.29840226      73.514595
2010    25      0.26875221      67.3672975
2010    26      0.65293078      131.804825
2010    27      0.49133354      107.86913625
2010    28      0.3001024       73.9380225
2010    29      0.33065752      80.45645375
2010    30      0.50703188      111.1111525
2011    1       0.24943426      61.8149975
2011    2       0.32343706      77.44009125
2011    3       0.20561669      52.87751625
2011    4       0.2580356       64.44269375
2011    5       0.27644059      68.6147
2011    6       0.28060563      70.3516925
2011    7       0.22902356      57.7476175
2011    8       0.25382416      63.89279875
2011    9       0.4273611       95.51089625
2011    10      0.19164707      49.8761175
2011    11      0.26768419      66.38396875
2011    12      0.31087293      74.349135
2011    13      0.37476935      85.9569075
2011    14      0.44535426      98.50932
2011    15      0.25366461      64.15021375
2011    16      0.59374519      123.59388125
2011    17      0.47184225      101.42702
2011    18      0.40425892      90.96663
2011    19      0.66047039      130.801525
2011    20      0.65360845      130.54145
2011    21      0.39055252      88.40515375
2011    22      0.27751146      69.32678125
2011    23      0.39797721      91.84419
2011    24      0.47835612      106.51738
2011    25      0.39090785      91.240685
2011    26      0.28243836      70.673195
2011    27      0.39961501      91.7395175
2011    28      0.33288481      80.26596
2011    29      0.48165761      106.18574625
2011    30      0.71321446      140.3828625
2012    1       0.57784755      120.2321125
2012    2       0.57292775      119.8893
2012    3       0.48751012      106.59754875
2012    4       0.43292338      97.95449375
2012    5       0.40880125      92.9952225
2012    6       0.25564424      64.651255
2012    7       0.35909905      84.08165375
2012    8       0.25507576      64.63226125
2012    9       0.24149975      62.4811575
2012    10      0.2150442       55.56963
2012    11      0.1596324       43.421485
2012    12      0.23219579      58.43690625
2012    13      0.29614442      71.5332225
2012    14      0.30131464      73.2850625
2012    15      0.44944139      100.107895
2012    16      0.48854665      107.8653625
2012    17      0.33611088      80.92688
2012    18      0.34819661      83.661045
2012    19      0.27382979      69.0422225
2012    20      0.25233996      63.4929825
2012    21      0.17181852      46.750805
2012    22      0.24169518      62.360715
2012    23      0.17146526      47.6015025
2012    24      0.3146341       76.7124425
2012    25      0.6008852       124.739155
2012    26      0.68163475      137.7508
2012    27      0.65378524      134.2786625
2012    28      0.49923609      110.361395
2012    29      0.53777089      116.987125
2012    30      0.46831731      105.464105
2013    1       0.34510404      80.585345
2013    2       0.28491118      69.742905
2013    3       0.30321971      74.01428125
2013    4       0.24249924      60.717555
2013    5       0.30991565      73.9152675
2013    6       0.3295457       78.02812625
2013    7       0.41652235      94.3156925
2013    8       0.55864547      116.96195125
2013    9       0.34273999      82.4010225
2013    10      0.39693525      92.608495
2013    11      0.3054682       74.34798
2013    12      0.28029695      69.93670125
2013    13      0.39431391      91.5533425
2013    14      0.27256771      67.42894875
2013    15      0.27793074      69.61110625
2013    16      0.35537991      82.022075
2013    17      0.50190094      108.86328375
2013    18      0.33473416      80.1125725
2013    19      0.33473666      77.88829125
2013    20      0.22093039      57.77540125
2013    21      0.24274591      62.2165425
2013    22      0.28885633      70.81547
2013    23      0.30576824      74.15526625
2013    24      0.40473461      93.15911
2013    25      0.52151735      112.18432875
2013    26      0.51085395      112.386225
2013    27      0.40769829      95.95061
2013    28      0.42210815      98.60298
2013    29      0.5795923       124.513625
2013    30      0.59937481      124.56492125
2014    1       0.36795059      85.10737625
2014    2       0.2618108       65.7179125
2014    3       0.41352088      93.88981125
2014    4       0.29325235      72.3739375
2014    5       0.35114375      82.36254
2014    6       0.29895623      72.77604375
2014    7       0.29534031      72.042325
2014    8       0.38346546      86.489565
2014    9       0.21220617      51.79673375
2014    10      0.24679629      62.127825
2014    11      0.32672205      78.33299625
2014    12      0.34620154      81.50514125
2014    13      0.34813924      83.08237875
2014    14      0.37953158      88.51756375
2014    15      0.27572141      66.34202125
2014    16      0.37609949      86.75332625
2014    17      0.37693889      87.724425
2014    18      0.41777264      94.13722125
2014    19      0.24343932      59.973265
2014    20      0.30733765      74.657445
2014    21      0.42309938      95.05739125
2014    22      0.39688075      90.15428625
2014    23      0.44581615      98.66618625
2014    24      0.50646676      109.50498875
2014    25      0.535778        112.4570425
2014    26      0.43889252      98.53547625
2014    27      0.5986113       121.49015875
2014    28      0.43338499      93.9858225
2014    29      0.36727512      86.00755625
2014    30      0.37052791      87.479085
2015    1       0.51998425      111.98983625
2015    2       0.38112002      88.093405
2015    3       0.32047452      77.07277625
2015    4       0.30681009      73.41128625
2015    5       0.56299655      115.9895825
2015    6       0.58526622      120.27758375
2015    7       0.47460241      102.55976
2015    8       0.43756144      98.1711725
2015    9       0.41449004      95.60463125
2015    10      0.64213061      129.3554375
2015    11      0.78724386      146.6582875
2015    12      0.52506284      106.45412125
2015    13      0.43814542      100.0039575
2015    14      0.42979808      96.41706125
2015    15      0.54505074      115.20978625
2015    16      0.66845647      134.4688375
2015    17      0.59445706      123.37451375
2015    18      0.44207039      100.38139375
2015    19      0.3792176       89.22359875
2015    20      0.36980962      87.82284875
2015    21      0.3258229       79.45499
2015    22      0.30038026      75.03076625
2015    23      0.35125699      84.89827875
2015    24      0.49624469      108.44889
2015    25      0.57487084      121.2454625
2015    26      0.50192815      110.30791
2015    27      0.3665185       87.662595
2015    28      0.53588846      115.0089475
2015    29      0.68570398      137.666225
2015    30      0.6079425       125.5888975
2016    1       0.39214798      89.25309625
2016    2       0.3492962       82.01272125
2016    3       0.4072179       92.352245
2016    4       0.3494642       81.9985525
2016    5       0.35344934      83.52450125
2016    6       0.5157082       111.3619175
2016    7       0.45628138      100.79373125
2016    8       0.64673504      128.498575
2016    9       0.60234252      123.7816625
2016    10      0.47967551      106.644315
2016    11      0.42962238      96.1883825
2016    12      0.6121041       122.1332075
2016    13      0.48208029      104.9586175
2016    14      0.3548652       82.00542
2016    15      0.27259591      68.16911
2016    16      0.16869929      46.3878425
2016    17      0.3321499       80.1795475
2016    18      0.24738688      61.76293375
2016    19      0.24973018      63.8208975
2016    20      0.42907134      98.52571875
2016    21      0.44120945      100.78782625
2016    22      0.47280499      104.90418
2016    23      0.60944832      125.88817375
2016    24      0.47873776      105.41720875
2016    25      0.46319744      101.56884
2016    26      0.17475749      47.6661675
2016    27      0.19329946      51.8480125
2016    28      0.30688171      74.56773375
2016    29      0.51361786      112.168675
2016    30      0.57443499      117.23644
2017    1       0.53770018      112.87728875
2017    2       0.65641474      130.70305
2017    3       0.29729248      72.52386125
2017    4       0.35763799      84.6490425
2017    5       0.57935935      121.88615
2017    6       0.55501798      117.6657875
2017    7       0.55640176      117.79701
2017    8       0.5761381       121.540925
2017    9       0.27199491      67.91598875
2017    10      0.29769584      74.2179775
2017    11      0.42499874      97.21225625
2017    12      0.3848          89.4127625
2017    13      0.2614744       63.03039
2017    14      0.27924895      68.20587
2017    15      0.29081949      71.28879625
2017    16      0.49819162      108.71541125
2017    17      0.66938236      133.4859625
2017    18      0.50788855      109.69985125
2017    19      0.37213161      87.83490125
2017    20      0.42368018      97.47958875
2017    21      0.49034134      108.48851875
2017    22      0.53695315      115.78457375
2017    23      0.3382952       80.08831
2017    24      0.26806874      67.15129875
2017    25      0.30120636      73.76534875
2017    26      0.25074419      64.0034375
2017    27      0.36616538      86.50530875
2017    28      0.34881525      81.8698125
2017    29      0.48763526      106.26025375
2017    30      0.43282319      97.5171875
2018    1       0.32429434      77.4957175
2018    2       0.16237276      42.916225
2018    3       0.1818492       48.35587625
2018    4       0.33990306      80.860255
2018    5       0.33501918      80.67141875
2018    6       0.31544069      76.56110125
2018    7       0.32030394      76.16618375
2018    8       0.23779912      60.63692125
2018    9       0.22977309      59.30182125
2018    10      0.20359895      53.99555125
2018    11      0.20722148      52.5870725
2018    12      0.20629886      54.4880875
2018    13      0.29247301      72.6820575
2018    14      0.42663896      97.29962875
2018    15      0.45899299      103.43483625
2018    16      0.79333354      148.8345125
2018    17      1.15484         188.2203
2018    18      0.72928014      136.9575775
2018    19      0.50519195      110.0552075
2018    20      0.50699619      109.53907875
2018    21      0.40580119      93.3265975
2018    22      0.53670729      113.5968375
2018    23      0.38308402      88.56251875
2018    24      0.56476266      116.49699375
2018    25      0.38137901      88.14285125
2018    26      0.24075494      62.21059625
2018    27      0.41084842      95.07536125
2018    28      0.32904898      78.12424375
2018    29      0.28424374      70.44940125
2018    30      0.48585612      105.9813875
