####################################################################################################
# Month: 06Jun                                                                                     #
# Station: JELM                                                                                    #
# Frequency: 230 GHz                                                                               #
# Columns are: year    day     segment         tau     Tb (K)                                      #
####################################################################################################
2009    1       0       0.7770183       147.1531
2009    1       1       0.6530054       131.4571
2009    1       2       0.6184773       126.8371
2009    1       3       0.5386173       115.6121
2009    1       4       0.5672435       119.6548
2009    1       5       0.6023886       124.1917
2009    1       6       0.8131152       151.0753
2009    1       7       0.9049811       161.8807
2009    2       0       1.032794        174.8337
2009    2       1       0.9563592       167.5376
2009    2       2       0.8902122       160.9707
2009    2       3       0.7496791       144.289
2009    2       4       0.6787175       134.8363
2009    2       5       0.5919624       122.0767
2009    2       6       0.5335654       113.1936
2009    2       7       0.5933377       122.108
2009    3       0       0.6399491       128.5921
2009    3       1       0.687413        135.226
2009    3       2       0.6357857       128.0387
2009    3       3       0.523245        111.5415
2009    3       4       0.4421612       98.99446
2009    3       5       0.4628025       102.5269
2009    3       6       0.6437943       127.8705
2009    3       7       0.6592647       129.833
2009    4       0       0.6731935       132.4223
2009    4       1       0.6730386       132.4806
2009    4       2       0.3740606       86.62635
2009    4       3       0.3726285       86.44697
2009    4       4       0.3820134       88.35763
2009    4       5       0.4865774       106.0397
2009    4       6       0.6665858       131.4814
2009    4       7       0.6210779       125.3073
2009    5       0       0.5824158       121.2854
2009    5       1       0.5512818       116.3167
2009    5       2       0.4031604       91.86618
2009    5       3       0.3726869       86.29684
2009    5       4       0.418992        94.09321
2009    5       5       0.4333329       96.64898
2009    5       6       0.403865        92.37834
2009    5       7       0.5227191       111.7849
2009    6       0       0.6745607       133.7803
2009    6       1       0.7540023       143.7189
2009    6       2       0.4022114       91.58539
2009    6       3       0.1382926       38.68176
2009    6       4       0.1170909       33.60599
2009    6       5       0.1612542       43.43041
2009    6       6       0.2113028       54.45323
2009    6       7       0.2389611       60.50896
2009    7       0       0.2485463       62.62555
2009    7       1       0.2734451       67.10696
2009    7       2       0.2767766       67.45798
2009    7       3       0.240942        60.35904
2009    7       4       0.2583435       63.82575
2009    7       5       0.3145253       74.36229
2009    7       6       0.4795644       102.1724
2009    7       7       0.544844        112.1843
2009    8       0       0.5447615       112.8095
2009    8       1       0.4360313       96.32622
2009    8       2       0.3851771       88.13996
2009    8       3       0.4442          98.08599
2009    8       4       0.5247171       110.8362
2009    8       5       0.537461        112.8201
2009    8       6       0.6879025       133.0633
2009    8       7       0.7044478       134.9089
2009    9       0       0.5936534       120.8594
2009    9       1       0.4688503       102.2072
2009    9       2       0.444492        98.36851
2009    9       3       0.4350381       96.35756
2009    9       4       0.4245022       94.93636
2009    9       5       0.420991        94.6707
2009    9       6       0.5990911       122.0277
2009    9       7       0.7235237       137.4409
2009    10      0       0.7352448       138.8734
2009    10      1       0.6681577       130.727
2009    10      2       0.4967346       106.6428
2009    10      3       0.4580641       100.1833
2009    10      4       0.4898614       105.8471
2009    10      5       0.6466427       128.033
2009    10      6       0.6935614       134.1198
2009    10      7       0.740634        139.5971
2009    11      0       0.6869897       133.0815
2009    11      1       0.5263479       111.0494
2009    11      2       0.5851316       119.9968
2009    11      3       0.5244506       111.0384
2009    11      4       0.4563864       100.1225
2009    11      5       0.6390001       127.4444
2009    11      6       0.6378275       127.0615
2009    11      7       0.7197263       137.2965
2009    12      0       0.7063755       135.5183
2009    12      1       0.6207864       125.1048
2009    12      2       0.5288988       111.9885
2009    12      3       0.360658        84.11191
2009    12      4       0.3175391       76.401
2009    12      5       0.3442479       81.41929
2009    12      6       0.5592024       117.1737
2009    12      7       0.5617116       117.362
2009    13      0       0.5207682       111.4408
2009    13      1       0.4674166       102.7571
2009    13      2       0.5095279       109.3082
2009    13      3       0.4981436       107.3869
2009    13      4       0.55528         115.9953
2009    13      5       0.5134373       110.0429
2009    13      6       0.4722342       103.9144
2009    13      7       0.4391119       98.59865
2009    14      0       0.4895151       106.4199
2009    14      1       0.4010059       91.95461
2009    14      2       0.489354        106.0002
2009    14      3       0.3656626       85.91679
2009    14      4       0.3200423       77.32775
2009    14      5       0.3510203       82.78673
2009    14      6       0.5895814       121.27
2009    14      7       0.592093        121.3433
2009    15      0       0.5630044       116.9698
2009    15      1       0.5112085       110.04
2009    15      2       0.5769497       119.8514
2009    15      3       0.5887867       121.3505
2009    15      4       0.4134612       94.24596
2009    15      5       0.4434012       98.66313
2009    15      6       0.7198505       136.8806
2009    15      7       0.7748569       144.0111
2009    16      0       0.714529        136.963
2009    16      1       0.4745189       103.9202
2009    16      2       0.417039        94.79134
2009    16      3       0.3232011       78.18482
2009    16      4       0.2756941       68.70309
2009    16      5       0.2910709       71.57571
2009    16      6       0.4591804       101.4091
2009    16      7       0.5988377       122.0519
2009    17      0       0.5740982       118.7419
2009    17      1       0.5513164       115.6465
2009    17      2       0.6338279       127.5551
2009    17      3       0.5811192       120.4723
2009    17      4       0.4627845       102.2689
2009    17      5       0.4330697       97.05308
2009    17      6       0.6764268       133.9346
2009    17      7       0.5183065       111.5728
2009    18      0       0.4433879       100.0839
2009    18      1       0.5432928       115.7794
2009    18      2       0.5234788       112.7644
2009    18      3       0.50532         109.6126
2009    18      4       0.5094318       109.9427
2009    18      5       0.6016051       123.6278
2009    18      6       0.801575        149.8178
2009    18      7       0.7765806       146.6964
2009    19      0       0.9160277       162.8988
2009    19      1       0.6691223       133.1064
2009    19      2       0.5469892       115.714
2009    19      3       0.4292614       97.07008
2009    19      4       0.3268475       78.71813
2009    19      5       0.3093105       75.50462
2009    19      6       0.3811008       89.22652
2009    19      7       0.409575        94.83091
2009    20      0       0.4335854       99.3381
2009    20      1       0.4355246       99.49473
2009    20      2       0.4477367       101.6019
2009    20      3       0.4680391       105.1857
2009    20      4       0.4502931       101.6757
2009    20      5       0.4276031       96.86918
2009    20      6       0.5168036       111.8018
2009    20      7       0.7501026       144.9612
2009    21      0       0.8622051       157.4398
2009    21      1       0.9193147       163.3922
2009    21      2       0.6726762       134.6002
2009    21      3       0.3847472       90.76236
2009    21      4       0.2655198       67.37663
2009    21      5       0.3479021       83.41696
2009    21      6       0.796851        150.2123
2009    21      7       0.7233178       140.3575
2009    22      0       0.5788038       121.21
2009    22      1       0.4853771       107.2742
2009    22      2       0.3755397       88.69859
2009    22      3       0.312669        76.97043
2009    22      4       0.2836252       71.15589
2009    22      5       0.2409201       62.47541
2009    22      6       0.2940891       73.50205
2009    22      7       0.3424555       83.17428
2009    23      0       0.3803299       90.41619
2009    23      1       0.4449962       101.6003
2009    23      2       0.5427985       117.4976
2009    23      3       0.3191397       78.87761
2009    23      4       0.1880575       51.44405
2009    23      5       0.2048332       54.76229
2009    23      6       0.3490202       83.97184
2009    23      7       0.5608773       119.9281
2009    24      0       0.6475605       133.0072
2009    24      1       0.5635727       120.7869
2009    24      2       0.5972638       125.6195
2009    24      3       0.5333572       115.6457
2009    24      4       0.4447523       101.6003
2009    24      5       0.4265632       98.66154
2009    24      6       0.5384396       117.1141
2009    24      7       0.6354559       131.407
2009    25      0       0.5508275       119.6322
2009    25      1       0.5185967       114.6647
2009    25      2       0.5380436       117.7794
2009    25      3       0.5897002       125.3114
2009    25      4       0.5949083       125.7559
2009    25      5       0.6214261       129.2113
2009    25      6       0.6890918       139.2377
2009    25      7       1.016232        175.8236
2009    26      0       1.023392        176.5899
2009    26      1       0.8467397       158.0427
2009    26      2       0.7333223       144.4263
2009    26      3       0.7012619       139.9722
2009    26      4       0.7541464       146.8087
2009    26      5       0.8200006       154.2322
2009    26      6       1.080799        180.9565
2009    26      7       1.07885         181.1192
2009    27      0       0.8918774       162.7848
2009    27      1       0.5852494       123.4714
2009    27      2       0.4830147       106.7387
2009    27      3       0.3840598       89.42471
2009    27      4       0.3238326       78.32515
2009    27      5       0.3282882       79.93265
2009    27      6       0.3920129       92.44326
2009    27      7       0.3294944       80.6293
2009    28      0       0.2709115       68.83993
2009    28      1       0.2434824       63.10525
2009    28      2       0.2606221       66.80108
2009    28      3       0.2929218       73.75225
2009    28      4       0.2352444       61.78732
2009    28      5       0.2333189       61.32027
2009    28      6       0.3024343       75.72207
2009    28      7       0.3522013       85.61061
2009    29      0       0.359993        87.22363
2009    29      1       0.302145        75.85173
2009    29      2       0.2719201       69.45459
2009    29      3       0.25036         64.8801
2009    29      4       0.300276        74.89258
2009    29      5       0.3439263       83.30127
2009    29      6       0.4089512       95.42327
2009    29      7       0.432894        99.61946
2009    30      0       0.3516154       85.14201
2009    30      1       0.2851164       72.02175
2009    30      2       0.2674696       68.20342
2009    30      3       0.254559        65.47833
2009    30      4       0.2858001       71.59908
2009    30      5       0.3240695       79.12839
2009    30      6       0.3737277       89.12438
2009    30      7       0.388553        92.03948
2010    1       0       0.3309491       78.38156
2010    1       1       0.315319        75.06942
2010    1       2       0.3033855       72.75717
2010    1       3       0.2841586       69.23519
2010    1       4       0.2710349       66.64056
2010    1       5       0.3045396       72.85815
2010    1       6       0.4231346       94.12408
2010    1       7       0.4649908       101.555
2010    2       0       0.439462        97.52944
2010    2       1       0.5546004       115.1566
2010    2       2       0.4133089       93.87072
2010    2       3       0.4226562       95.33432
2010    2       4       0.4765687       104.1052
2010    2       5       0.5666913       118.3493
2010    2       6       0.752314        142.9647
2010    2       7       0.7308032       141.2839
2010    3       0       0.6063559       125.0982
2010    3       1       0.5038191       109.324
2010    3       2       0.5510332       116.5833
2010    3       3       0.55284         117.0655
2010    3       4       0.573268        120.241
2010    3       5       0.620457        127.2384
2010    3       6       0.9809718       170.3686
2010    3       7       0.9197107       164.3987
2010    4       0       0.7169399       141.6427
2010    4       1       0.7313992       143.5404
2010    4       2       0.6300987       129.1272
2010    4       3       0.682879        136.3218
2010    4       4       0.7962539       151.419
2010    4       5       0.7242669       142.835
2010    4       6       0.9135366       165.1508
2010    4       7       0.9737257       172.0448
2010    5       0       1.008533        175.8531
2010    5       1       0.8658614       160.5617
2010    5       2       0.776358        150.0355
2010    5       3       0.7469346       147.1106
2010    5       4       0.8623712       160.3463
2010    5       5       0.719799        142.5246
2010    5       6       0.8602686       159.4859
2010    5       7       0.8900204       162.6094
2010    6       0       0.7967419       151.9646
2010    6       1       0.7933627       151.3801
2010    6       2       0.7478033       145.6382
2010    6       3       0.8939066       162.3208
2010    6       4       0.6767801       136.7111
2010    6       5       0.5767337       122.5038
2010    6       6       0.6437383       131.8987
2010    6       7       0.6697568       135.9105
2010    7       0       0.652488        134.0171
2010    7       1       0.6525483       133.9227
2010    7       2       0.6146851       128.547
2010    7       3       0.5405287       117.7104
2010    7       4       0.4743082       107.1824
2010    7       5       0.4537426       103.601
2010    7       6       0.483549        108.6284
2010    7       7       0.5442583       118.5249
2010    8       0       0.5663785       121.4048
2010    8       1       0.7826474       149.931
2010    8       2       0.8828076       160.5493
2010    8       3       0.6733271       136.4445
2010    8       4       0.7783747       149.4898
2010    8       5       0.9092875       163.0253
2010    8       6       0.5242469       113.3363
2010    8       7       0.5827937       122.3864
2010    9       0       0.6031002       125.4866
2010    9       1       0.6629704       133.3556
2010    9       2       0.6777891       135.9211
2010    9       3       0.7095467       140.6578
2010    9       4       0.7745471       149.2269
2010    9       5       0.7921965       150.6849
2010    9       6       0.8686508       160.2714
2010    9       7       0.9435028       168.705
2010    10      0       0.7896228       151.7787
2010    10      1       0.5897652       124.4823
2010    10      2       0.4594295       103.6708
2010    10      3       0.4839244       107.5346
2010    10      4       0.4743265       105.926
2010    10      5       0.4833417       107.272
2010    10      6       0.6779181       135.9835
2010    10      7       0.8574215       156.7141
2010    11      0       0.6055301       125.4733
2010    11      1       0.4352121       99.40308
2010    11      2       0.4240195       97.11619
2010    11      3       0.4375664       99.5956
2010    11      4       0.3316553       80.32668
2010    11      5       0.3768871       88.27027
2010    11      6       0.6870899       136.0056
2010    11      7       0.9878214       171.5115
2010    12      0       1.004871        173.0685
2010    12      1       0.8520919       157.093
2010    12      2       0.8899702       161.3706
2010    12      3       0.8532909       157.4464
2010    12      4       0.6076025       125.8231
2010    12      5       0.5104886       110.8203
2010    12      6       0.5702924       119.688
2010    12      7       0.6707699       134.0688
2010    13      0       0.8368663       153.3346
2010    13      1       0.6782718       134.5486
2010    13      2       0.7163332       139.8142
2010    13      3       0.6337072       128.3523
2010    13      4       0.6115187       124.6023
2010    13      5       0.6387501       127.8383
2010    13      6       0.6002783       121.5576
2010    13      7       0.5857904       119.5331
2010    14      0       0.5964548       120.9261
2010    14      1       0.4161146       93.12073
2010    14      2       0.4292037       95.1128
2010    14      3       0.4395445       96.74803
2010    14      4       0.3293037       77.56686
2010    14      5       0.3450115       80.48511
2010    14      6       0.5241881       110.5355
2010    14      7       0.5550307       115.3389
2010    15      0       0.4414236       98.05629
2010    15      1       0.1796946       48.34454
2010    15      2       0.2570552       64.87611
2010    15      3       0.2810939       69.90723
2010    15      4       0.2519881       64.19699
2010    15      5       0.1846984       49.99197
2010    15      6       0.227049        59.22936
2010    15      7       0.3215295       78.36422
2010    16      0       0.3524383       84.16445
2010    16      1       0.2589749       65.93963
2010    16      2       0.237485        61.49897
2010    16      3       0.2106838       55.89665
2010    16      4       0.1961035       52.70566
2010    16      5       0.262677        66.5492
2010    16      6       0.3497471       83.64071
2010    16      7       0.3910365       91.20397
2010    17      0       0.3758713       87.85538
2010    17      1       0.4690543       102.5686
2010    17      2       0.372701        86.4836
2010    17      3       0.2733336       68.41712
2010    17      4       0.1458316       40.75506
2010    17      5       0.09688089      29.16611
2010    17      6       0.1590715       43.84492
2010    17      7       0.1884259       50.45608
2010    18      0       0.1708751       46.7459
2010    18      1       0.1559439       43.12038
2010    18      2       0.1681307       45.69585
2010    18      3       0.1816259       48.86648
2010    18      4       0.1798166       48.55187
2010    18      5       0.1520636       42.36658
2010    18      6       0.1906016       51.1654
2010    18      7       0.2254244       58.86322
2010    19      0       0.2382183       61.60691
2010    19      1       0.2161241       56.86012
2010    19      2       0.2133715       56.19879
2010    19      3       0.1819193       49.16756
2010    19      4       0.1858745       49.92155
2010    19      5       0.182571        49.25583
2010    19      6       0.2509883       64.08251
2010    19      7       0.3197549       77.68298
2010    20      0       0.2879395       71.35654
2010    20      1       0.2389769       61.21835
2010    20      2       0.2071889       54.47438
2010    20      3       0.1940495       51.59032
2010    20      4       0.1914886       50.98039
2010    20      5       0.1686354       45.97449
2010    20      6       0.2070976       54.62923
2010    20      7       0.270254        67.67748
2010    21      0       0.2562555       64.8335
2010    21      1       0.1899063       50.86075
2010    21      2       0.1501249       42.09335
2010    21      3       0.1186728       34.75322
2010    21      4       0.1177715       34.3724
2010    21      5       0.1410373       39.72532
2010    21      6       0.1900536       51.02182
2010    21      7       0.2509554       63.82519
2010    22      0       0.2519792       64.02402
2010    22      1       0.2140786       56.18593
2010    22      2       0.2042787       54.03564
2010    22      3       0.1897148       50.91438
2010    22      4       0.1667995       45.72687
2010    22      5       0.1428348       40.21277
2010    22      6       0.1809596       48.96222
2010    22      7       0.2461228       62.49234
2010    23      0       0.2174432       56.75851
2010    23      1       0.2143484       56.24373
2010    23      2       0.2391952       61.71185
2010    23      3       0.2308058       60.08195
2010    23      4       0.1658518       45.7464
2010    23      5       0.1294581       37.14812
2010    23      6       0.2299927       59.86165
2010    23      7       0.3343104       80.78442
2010    24      0       0.4118503       95.23264
2010    24      1       0.4116335       95.57941
2010    24      2       0.378997        89.9503
2010    24      3       0.252454        65.23842
2010    24      4       0.1882301       51.01591
2010    24      5       0.2102484       55.49284
2010    24      6       0.2496951       64.21617
2010    24      7       0.2841097       71.39107
2010    25      0       0.3534008       84.65622
2010    25      1       0.2728526       68.80395
2010    25      2       0.2030228       54.21387
2010    25      3       0.1442611       41.02735
2010    25      4       0.1858666       50.63181
2010    25      5       0.2108766       56.01303
2010    25      6       0.3315642       81.02345
2010    25      7       0.448173        102.5687
2010    26      0       0.5699264       121.7745
2010    26      1       0.895539        162.3655
2010    26      2       0.8312599       154.5379
2010    26      3       0.5593339       119.6267
2010    26      4       0.4988765       110.0996
2010    26      5       0.5183142       113.0655
2010    26      6       0.6815791       137.4989
2010    26      7       0.6686172       135.47
2010    27      0       0.7006767       139.5154
2010    27      1       0.6312183       129.807
2010    27      2       0.4976131       109.9556
2010    27      3       0.4129251       95.73492
2010    27      4       0.3660695       87.17182
2010    27      5       0.3804896       89.67485
2010    27      6       0.4467004       101.4626
2010    27      7       0.4949756       109.6309
2010    28      0       0.4809855       107.5269
2010    28      1       0.4046328       94.63481
2010    28      2       0.3278398       80.44857
2010    28      3       0.257338        66.20256
2010    28      4       0.2009683       53.91691
2010    28      5       0.2057107       54.87925
2010    28      6       0.2349523       61.3401
2010    28      7       0.2883918       72.55508
2010    29      0       0.33456         81.65249
2010    29      1       0.3608369       86.6821
2010    29      2       0.3908893       92.56807
2010    29      3       0.2793169       71.19526
2010    29      4       0.2235918       59.36016
2010    29      5       0.2348176       61.69015
2010    29      6       0.3363508       82.3603
2010    29      7       0.4848969       108.1431
2010    30      0       0.6202204       128.4695
2010    30      1       0.4817333       107.7172
2010    30      2       0.4704613       105.943
2010    30      3       0.4457019       101.9816
2010    30      4       0.4032957       94.43712
2010    30      5       0.4815658       107.2544
2010    30      6       0.5334074       114.9896
2010    30      7       0.6198692       128.0968
2011    1       0       0.2468758       62.62272
2011    1       1       0.2219947       57.04882
2011    1       2       0.1684189       45.6775
2011    1       3       0.1593136       43.71722
2011    1       4       0.1677154       45.58876
2011    1       5       0.2025539       53.29934
2011    1       6       0.2922597       71.92792
2011    1       7       0.5363421       114.6377
2011    2       0       0.4806155       106.193
2011    2       1       0.4142506       95.06704
2011    2       2       0.3718865       87.61167
2011    2       3       0.3059362       74.32988
2011    2       4       0.2492128       62.95952
2011    2       5       0.1998219       52.65901
2011    2       6       0.2566107       65.12763
2011    2       7       0.3091623       75.57298
2011    3       0       0.26203         65.96197
2011    3       1       0.2066362       53.88598
2011    3       2       0.1720684       46.0941
2011    3       3       0.1615424       43.49176
2011    3       4       0.1429373       39.14984
2011    3       5       0.1497826       40.55733
2011    3       6       0.2417613       60.32438
2011    3       7       0.3081753       73.55477
2011    4       0       0.2893452       70.17015
2011    4       1       0.2278506       58.17231
2011    4       2       0.2346647       59.92871
2011    4       3       0.2569889       64.74035
2011    4       4       0.2102883       54.8277
2011    4       5       0.1942031       51.13259
2011    4       6       0.289622        71.26322
2011    4       7       0.361322        85.30652
2011    5       0       0.3703515       87.2788
2011    5       1       0.3741217       88.00355
2011    5       2       0.3350278       80.69245
2011    5       3       0.2677793       67.17336
2011    5       4       0.1975607       52.31356
2011    5       5       0.1646735       45.02465
2011    5       6       0.2105641       55.66191
2011    5       7       0.2914461       72.76932
2011    6       0       0.3032719       75.24035
2011    6       1       0.2694197       68.38784
2011    6       2       0.2522788       64.82431
2011    6       3       0.2629478       66.90252
2011    6       4       0.2678593       67.87065
2011    6       5       0.2100557       55.61519
2011    6       6       0.2803243       70.78797
2011    6       7       0.3986875       93.18471
2011    7       0       0.4836854       107.567
2011    7       1       0.4035056       93.22202
2011    7       2       0.2217987       58.23737
2011    7       3       0.114642        33.88557
2011    7       4       0.09879027      29.99345
2011    7       5       0.1113134       32.97618
2011    7       6       0.1760503       47.99671
2011    7       7       0.2224028       58.10264
2011    8       0       0.2415615       62.07573
2011    8       1       0.2245482       58.24586
2011    8       2       0.2439404       62.13887
2011    8       3       0.2570902       64.68968
2011    8       4       0.2335708       59.55619
2011    8       5       0.2040002       53.19003
2011    8       6       0.2799563       69.18788
2011    8       7       0.3459257       82.05815
2011    9       0       0.4168788       94.98215
2011    9       1       0.5025906       108.8899
2011    9       2       0.4973523       107.8721
2011    9       3       0.3647244       85.54823
2011    9       4       0.2949356       72.00829
2011    9       5       0.3098234       75.079
2011    9       6       0.5428448       113.4718
2011    9       7       0.4897389       106.2357
2011    10      0       0.3399572       80.5442
2011    10      1       0.3250956       77.79251
2011    10      2       0.2053658       53.77368
2011    10      3       0.09789983      29.28476
2011    10      4       0.09098024      27.61024
2011    10      5       0.1055914       31.17822
2011    10      6       0.161894        44.40927
2011    10      7       0.2063925       54.41606
2011    11      0       0.2297115       59.51683
2011    11      1       0.2256016       58.68062
2011    11      2       0.2649309       66.87712
2011    11      3       0.2052608       54.1895
2011    11      4       0.1864378       50.01865
2011    11      5       0.2370271       60.30644
2011    11      6       0.3359096       80.15689
2011    11      7       0.4565942       101.3257
2011    12      0       0.5010168       108.8745
2011    12      1       0.4818309       105.954
2011    12      2       0.3759023       87.8815
2011    12      3       0.2503099       63.46095
2011    12      4       0.2091751       54.66979
2011    12      5       0.1739798       47.37276
2011    12      6       0.2185          57.35161
2011    12      7       0.2762686       69.22797
2011    13      0       0.2747363       68.54417
2011    13      1       0.2500697       63.00589
2011    13      2       0.2823162       69.30916
2011    13      3       0.3494278       82.00868
2011    13      4       0.4049597       91.92584
2011    13      5       0.3982098       90.92912
2011    13      6       0.4584506       101.4713
2011    13      7       0.5799847       120.4611
2011    14      0       0.6570375       131.8524
2011    14      1       0.611125        125.2001
2011    14      2       0.5041045       109.191
2011    14      3       0.4616783       102.4608
2011    14      4       0.3780904       87.89659
2011    14      5       0.3532754       83.96901
2011    14      6       0.3061328       75.10136
2011    14      7       0.2913902       72.4033
2011    15      0       0.2437027       62.61449
2011    15      1       0.2057706       54.30696
2011    15      2       0.2526476       64.00763
2011    15      3       0.2513155       63.73912
2011    15      4       0.1874811       50.00806
2011    15      5       0.2256397       58.38477
2011    15      6       0.3093053       75.67784
2011    15      7       0.3534544       84.46284
2011    16      0       0.4389956       99.73345
2011    16      1       0.5377994       115.2989
2011    16      2       0.6751702       135.1014
2011    16      3       0.5596197       119.4977
2011    16      4       0.6518014       132.3927
2011    16      5       0.5485681       117.641
2011    16      6       0.5974367       124.8995
2011    16      7       0.7405704       144.1864
2011    17      0       0.6495811       132.4959
2011    17      1       0.5741883       121.6151
2011    17      2       0.7080359       139.7653
2011    17      3       0.5941968       122.9203
2011    17      4       0.2555652       63.33543
2011    17      5       0.2106261       53.69852
2011    17      6       0.3130055       74.78711
2011    17      7       0.4695391       102.7985
2011    18      0       0.44076         98.26354
2011    18      1       0.3845846       88.04714
2011    18      2       0.3692531       85.35643
2011    18      3       0.5457976       114.0388
2011    18      4       0.4356092       97.51017
2011    18      5       0.2447383       61.94997
2011    18      6       0.3001879       73.04339
2011    18      7       0.5131407       109.5236
2011    19      0       0.5583706       117.1513
2011    19      1       0.4914919       107.8199
2011    19      2       0.590071        122.3236
2011    19      3       0.5508482       116.4645
2011    19      4       0.6597673       131.8262
2011    19      5       0.65695         132.1024
2011    19      6       0.8892061       159.6965
2011    19      7       0.887058        159.0278
2011    20      0       0.7606585       144.7881
2011    20      1       0.6743732       134.15
2011    20      2       0.612745        125.4165
2011    20      3       0.4495477       100.5638
2011    20      4       0.5865454       121.7406
2011    20      5       0.7158236       139.8954
2011    20      6       0.7324694       141.2528
2011    20      7       0.6967048       136.5244
2011    21      0       0.7071521       138.0743
2011    21      1       0.5539194       116.6771
2011    21      2       0.3205212       77.30424
2011    21      3       0.347917        82.45429
2011    21      4       0.32115         77.39405
2011    21      5       0.2480156       62.97165
2011    21      6       0.3042941       74.34869
2011    21      7       0.3214508       78.01691
2011    22      0       0.3198304       77.6563
2011    22      1       0.2846299       70.72458
2011    22      2       0.2832371       70.64818
2011    22      3       0.2719059       68.55189
2011    22      4       0.2330164       60.39927
2011    22      5       0.2074762       54.71758
2011    22      6       0.2759358       69.1464
2011    22      7       0.34406         82.77005
2011    23      0       0.3604042       85.86274
2011    23      1       0.2778789       69.6944
2011    23      2       0.3313435       79.99036
2011    23      3       0.3670755       86.84311
2011    23      4       0.358842        85.27495
2011    23      5       0.4282052       97.40376
2011    23      6       0.5022094       110.3018
2011    23      7       0.557859        119.3824
2011    24      0       0.4589502       103.8119
2011    24      1       0.4175919       96.24048
2011    24      2       0.3849302       90.44506
2011    24      3       0.4454929       100.9882
2011    24      4       0.6048525       125.9243
2011    24      5       0.4831758       107.8906
2011    24      6       0.5139583       113.1232
2011    24      7       0.5178972       113.7153
2011    25      0       0.401562        93.79822
2011    25      1       0.328319        79.75939
2011    25      2       0.4269135       98.22615
2011    25      3       0.4277151       98.22333
2011    25      4       0.3067954       75.50944
2011    25      5       0.3190371       77.93738
2011    25      6       0.423381        97.34477
2011    25      7       0.4935397       109.1268
2011    26      0       0.3699835       87.92714
2011    26      1       0.3355408       81.20167
2011    26      2       0.276941        69.55637
2011    26      3       0.2600368       66.27904
2011    26      4       0.2621399       67.10601
2011    26      5       0.2018518       54.09399
2011    26      6       0.2439467       63.10733
2011    26      7       0.3090664       76.11401
2011    27      0       0.3928528       91.09035
2011    27      1       0.5511539       117.0861
2011    27      2       0.3962757       91.79051
2011    27      3       0.3512926       83.38318
2011    27      4       0.3203233       77.41425
2011    27      5       0.3021371       73.8516
2011    27      6       0.4057539       93.49405
2011    27      7       0.4771308       105.8061
2011    28      0       0.4620689       103.8071
2011    28      1       0.4331274       99.12261
2011    28      2       0.3468177       83.57737
2011    28      3       0.264365        67.14061
2011    28      4       0.2596269       65.96902
2011    28      5       0.2444113       62.87817
2011    28      6       0.2939848       73.47655
2011    28      7       0.3586765       86.15625
2011    29      0       0.4192099       96.94232
2011    29      1       0.3672039       87.48415
2011    29      2       0.3489791       84.0207
2011    29      3       0.5778827       122.5342
2011    29      4       0.6773998       135.2626
2011    29      5       0.3440427       83.2174
2011    29      6       0.4751548       106.9731
2011    29      7       0.643388        133.0515
2011    30      0       0.8526683       159.0103
2011    30      1       0.7093174       141.5424
2011    30      2       0.8128723       153.0416
2011    30      3       0.8054547       151.9789
2011    30      4       0.5525614       119.1759
2011    30      5       0.6547063       131.7783
2011    30      6       0.5796782       122.1504
2011    30      7       0.7384571       144.3851
2012    1       0       0.5965159       122.8653
2012    1       1       0.5784981       120.0073
2012    1       2       0.5119515       110.4174
2012    1       3       0.6229732       126.9956
2012    1       4       0.5057653       109.6868
2012    1       5       0.5709215       119.3852
2012    1       6       0.6699848       133.3998
2012    1       7       0.5661701       119.0995
2012    2       0       0.5390307       115.2933
2012    2       1       0.4996884       109.0738
2012    2       2       0.4610717       103.1879
2012    2       3       0.482227        106.9211
2012    2       4       0.5085609       111.165
2012    2       5       0.6416986       130.2419
2012    2       6       0.7121819       139.5886
2012    2       7       0.7389628       143.6428
2012    3       0       0.6250053       128.3649
2012    3       1       0.3082057       75.40899
2012    3       2       0.4108455       95.03541
2012    3       3       0.4175413       96.20669
2012    3       4       0.4732998       105.065
2012    3       5       0.468222        104.4333
2012    3       6       0.5381237       115.6339
2012    3       7       0.6588377       132.6322
2012    4       0       0.5887574       123.3203
2012    4       1       0.478883        106.6306
2012    4       2       0.3970819       92.95523
2012    4       3       0.3564472       85.51647
2012    4       4       0.3268644       79.76285
2012    4       5       0.3330061       80.7474
2012    4       6       0.4056538       93.6947
2012    4       7       0.5766932       121.0084
2012    5       0       0.6451487       130.9534
2012    5       1       0.5155776       112.4592
2012    5       2       0.3428542       83.02899
2012    5       3       0.3091852       75.74106
2012    5       4       0.3930011       90.52722
2012    5       5       0.387162        88.47654
2012    5       6       0.3347961       80.50363
2012    5       7       0.3426851       82.27174
2012    6       0       0.2812247       70.46358
2012    6       1       0.2707687       68.35967
2012    6       2       0.2348577       60.77957
2012    6       3       0.2239951       58.38697
2012    6       4       0.2000633       53.0781
2012    6       5       0.2004623       53.15904
2012    6       6       0.2538747       64.45472
2012    6       7       0.3799074       88.52839
2012    7       0       0.5627938       118.6348
2012    7       1       0.4644098       103.7594
2012    7       2       0.3675387       86.95453
2012    7       3       0.28715         71.06928
2012    7       4       0.2733121       67.96596
2012    7       5       0.327415        78.62229
2012    7       6       0.3197631       77.56379
2012    7       7       0.2704099       68.08318
2012    8       0       0.2677334       67.25269
2012    8       1       0.2544947       64.43001
2012    8       2       0.231321        59.63232
2012    8       3       0.2179703       56.76433
2012    8       4       0.2364264       60.50467
2012    8       5       0.2754196       68.53449
2012    8       6       0.2708125       68.18785
2012    8       7       0.2864282       71.75173
2012    9       0       0.2945746       73.22372
2012    9       1       0.2513345       64.48385
2012    9       2       0.2179191       57.44551
2012    9       3       0.2451694       63.20462
2012    9       4       0.2433779       62.66835
2012    9       5       0.2160076       57.11428
2012    9       6       0.224115        59.14555
2012    9       7       0.2394999       62.56338
2012    10      0       0.2726925       69.12028
2012    10      1       0.2939621       73.0737
2012    10      2       0.312168        76.63895
2012    10      3       0.2894959       71.83214
2012    10      4       0.2193072       56.854
2012    10      5       0.1104347       32.17318
2012    10      6       0.1061973       31.19662
2012    10      7       0.1160959       33.66817
2012    11      0       0.1261966       35.96998
2012    11      1       0.1438982       39.99244
2012    11      2       0.1450473       40.37483
2012    11      3       0.1548299       42.50153
2012    11      4       0.1501335       41.32921
2012    11      5       0.1606567       43.6275
2012    11      6       0.1860244       49.27222
2012    11      7       0.2102726       54.30417
2012    12      0       0.2502012       62.19635
2012    12      1       0.2277263       57.89472
2012    12      2       0.2298416       58.32127
2012    12      3       0.1898101       49.85601
2012    12      4       0.1703342       45.64913
2012    12      5       0.1879405       49.39306
2012    12      6       0.2611377       64.65509
2012    12      7       0.3405747       79.52962
2012    13      0       0.3450845       80.39104
2012    13      1       0.3272074       77.37845
2012    13      2       0.389909        88.83392
2012    13      3       0.335986        79.70979
2012    13      4       0.2636729       65.75108
2012    13      5       0.2217596       57.15093
2012    13      6       0.2353897       60.05011
2012    13      7       0.2501463       63.00046
2012    14      0       0.2379944       60.42433
2012    14      1       0.2183243       56.17181
2012    14      2       0.2922401       72.28609
2012    14      3       0.3133766       76.40758
2012    14      4       0.2692414       67.76574
2012    14      5       0.2869162       71.3427
2012    14      6       0.3257787       78.83245
2012    14      7       0.4666454       103.0498
2012    15      0       0.6130311       125.5432
2012    15      1       0.5288785       113.2652
2012    15      2       0.4508353       101.4613
2012    15      3       0.4040481       93.74997
2012    15      4       0.3702124       87.18162
2012    15      5       0.331327        79.82969
2012    15      6       0.3902047       90.21858
2012    15      7       0.506994        109.6136
2012    16      0       0.478472        105.3299
2012    16      1       0.4043471       92.7682
2012    16      2       0.4528129       102.4816
2012    16      3       0.4846991       108.3682
2012    16      4       0.5493985       118.2934
2012    16      5       0.5342813       115.1258
2012    16      6       0.519519        112.8156
2012    16      7       0.4848433       107.7402
2012    17      0       0.447734        101.5952
2012    17      1       0.3442685       83.01107
2012    17      2       0.2505843       64.50485
2012    17      3       0.2810182       70.36387
2012    17      4       0.3746039       88.13654
2012    17      5       0.3556177       85.08154
2012    17      6       0.2966098       73.33543
2012    17      7       0.3384506       81.38654
2012    18      0       0.3546908       84.89382
2012    18      1       0.3352784       81.55935
2012    18      2       0.3510148       84.48176
2012    18      3       0.3420838       82.74018
2012    18      4       0.3330156       80.65882
2012    18      5       0.3788634       89.44844
2012    18      6       0.3847279       90.27164
2012    18      7       0.3058982       75.23435
2012    19      0       0.2578598       65.70123
2012    19      1       0.2521647       64.68864
2012    19      2       0.2745964       69.50263
2012    19      3       0.2244037       58.73607
2012    19      4       0.2580171       65.76472
2012    19      5       0.2896202       72.3349
2012    19      6       0.3098508       76.39577
2012    19      7       0.3241256       79.21382
2012    20      0       0.3557807       84.82655
2012    20      1       0.340225        81.41607
2012    20      2       0.2911012       71.8724
2012    20      3       0.274536        68.38221
2012    20      4       0.224756        58.13482
2012    20      5       0.1887528       50.27898
2012    20      6       0.1769937       47.684
2012    20      7       0.1665743       45.34883
2012    21      0       0.1574438       43.22877
2012    21      1       0.1367655       38.60928
2012    21      2       0.1671935       45.59154
2012    21      3       0.1896637       50.79552
2012    21      4       0.1555252       43.09962
2012    21      5       0.157332        43.58828
2012    21      6       0.2066054       54.81874
2012    21      7       0.2040191       54.27469
2012    22      0       0.1927187       51.86108
2012    22      1       0.1815696       49.11774
2012    22      2       0.1883908       50.46087
2012    22      3       0.2274216       59.20449
2012    22      4       0.2739369       69.11002
2012    22      5       0.3064723       76.65131
2012    22      6       0.2987901       74.77438
2012    22      7       0.2642614       67.70583
2012    23      0       0.2192906       58.35357
2012    23      1       0.1901587       51.91322
2012    23      2       0.2031482       54.78583
2012    23      3       0.1898826       52.04423
2012    23      4       0.1196701       35.71808
2012    23      5       0.1088309       32.96768
2012    23      6       0.1508758       43.04513
2012    23      7       0.1898652       51.98428
2012    24      0       0.2332259       61.40496
2012    24      1       0.2304706       60.91261
2012    24      2       0.2295583       60.75276
2012    24      3       0.2748146       70.10991
2012    24      4       0.3063121       76.22944
2012    24      5       0.3220277       78.65669
2012    24      6       0.3825967       89.95957
2012    24      7       0.5380669       115.6736
2012    25      0       0.6988212       138.8602
2012    25      1       0.6850846       137.2051
2012    25      2       0.7596903       147.4195
2012    25      3       0.7585528       147.4998
2012    25      4       0.4392502       101.9092
2012    25      5       0.3398886       83.35224
2012    25      6       0.4817726       108.8937
2012    25      7       0.6440213       132.7735
2012    26      0       0.727797        144.0091
2012    26      1       0.8320017       156.5952
2012    26      2       0.6800197       137.7661
2012    26      3       0.4642755       105.4599
2012    26      4       0.5816411       124.6117
2012    26      5       0.7103526       142.6768
2012    26      6       0.7119625       143.259
2012    26      7       0.7450279       147.6286
2012    27      0       0.6725803       137.9435
2012    27      1       0.5715513       123.1085
2012    27      2       0.5425665       118.7737
2012    27      3       0.597418        127.3927
2012    27      4       0.6478544       134.1457
2012    27      5       0.7215628       142.1068
2012    27      6       0.7063413       140.7526
2012    27      7       0.7704073       150.0058
2012    28      0       0.6554548       134.7749
2012    28      1       0.4163317       96.95209
2012    28      2       0.372286        89.00563
2012    28      3       0.3869515       91.84224
2012    28      4       0.4610764       105.0834
2012    28      5       0.5462456       118.7961
2012    28      6       0.5981587       126.2895
2012    28      7       0.557384        120.1473
2012    29      0       0.6892197       139.7863
2012    29      1       0.6362275       133.0853
2012    29      2       0.5601534       121.4131
2012    29      3       0.6414687       133.2217
2012    29      4       0.5043202       112.3906
2012    29      5       0.3843932       91.75982
2012    29      6       0.4261348       99.14738
2012    29      7       0.4602496       105.0928
2012    30      0       0.4443196       102.0228
2012    30      1       0.3869897       91.73184
2012    30      2       0.4426873       100.7054
2012    30      3       0.4634662       104.4193
2012    30      4       0.4511166       103.005
2012    30      5       0.4754035       107.067
2012    30      6       0.5083222       112.5323
2012    30      7       0.5742334       122.2292
2013    1       0       0.3149856       74.09659
2013    1       1       0.3268738       76.67715
2013    1       2       0.3628795       83.70136
2013    1       3       0.3498072       81.50589
2013    1       4       0.3803622       87.06721
2013    1       5       0.351479        81.7804
2013    1       6       0.3245639       77.24462
2013    1       7       0.3498811       82.60954
2013    2       0       0.3918225       90.32832
2013    2       1       0.3894818       89.70694
2013    2       2       0.2649886       66.07386
2013    2       3       0.2267517       57.9422
2013    2       4       0.257905        64.51999
2013    2       5       0.2367752       60.30422
2013    2       6       0.2346457       60.12914
2013    2       7       0.2769189       68.93857
2013    3       0       0.2959758       72.7553
2013    3       1       0.2493701       63.41385
2013    3       2       0.2496283       63.51829
2013    3       3       0.2852639       70.86902
2013    3       4       0.2689737       67.43325
2013    3       5       0.3167683       76.86616
2013    3       6       0.3777933       88.31957
2013    3       7       0.3819843       88.93881
2013    4       0       0.3793217       88.13573
2013    4       1       0.2335411       59.63353
2013    4       2       0.1914702       50.57461
2013    4       3       0.177693        47.42654
2013    4       4       0.1659695       44.80633
2013    4       5       0.1867871       49.25993
2013    4       6       0.2712173       66.80408
2013    4       7       0.333994        79.09969
2013    5       0       0.4307264       95.99382
2013    5       1       0.4917238       105.9919
2013    5       2       0.3508879       82.9328
2013    5       3       0.2592688       65.41771
2013    5       4       0.2083505       54.59157
2013    5       5       0.2087325       54.41189
2013    5       6       0.2508716       63.14658
2013    5       7       0.2787637       68.83587
2013    6       0       0.2647592       65.88417
2013    6       1       0.2279341       58.02999
2013    6       2       0.2633631       65.52539
2013    6       3       0.359739        83.88338
2013    6       4       0.3834528       88.34898
2013    6       5       0.3341743       79.31644
2013    6       6       0.3839283       88.42167
2013    6       7       0.4190148       94.81499
2013    7       0       0.4494661       99.96132
2013    7       1       0.4162828       94.19022
2013    7       2       0.3920796       90.04533
2013    7       3       0.4116015       93.34921
2013    7       4       0.4346746       97.14281
2013    7       5       0.4033254       91.79198
2013    7       6       0.4115887       93.69293
2013    7       7       0.4131601       94.35174
2013    8       0       0.4936557       107.5534
2013    8       1       0.5281891       113.2934
2013    8       2       0.6315575       129.0118
2013    8       3       0.6775522       136.1793
2013    8       4       0.5421813       116.3791
2013    8       5       0.8266011       155.0391
2013    8       6       0.4579862       102.2009
2013    8       7       0.3114407       76.03861
2013    9       0       0.340613        81.73173
2013    9       1       0.4197028       96.2359
2013    9       2       0.3552566       84.76856
2013    9       3       0.3230725       78.6015
2013    9       4       0.3132017       76.77628
2013    9       5       0.2925564       72.79331
2013    9       6       0.3399058       82.24372
2013    9       7       0.3576111       86.05718
2013    10      0       0.363723        87.2445
2013    10      1       0.3778067       89.57774
2013    10      2       0.3961442       93.03426
2013    10      3       0.361793        86.97285
2013    10      4       0.291349        73.00301
2013    10      5       0.3875898       90.886
2013    10      6       0.4966922       109.7994
2013    10      7       0.5003841       110.3502
2013    11      0       0.4538037       102.9856
2013    11      1       0.4698723       105.4902
2013    11      2       0.3411104       82.2849
2013    11      3       0.2398483       61.93968
2013    11      4       0.1965675       52.43448
2013    11      5       0.1867278       50.37341
2013    11      6       0.240762        62.34896
2013    11      7       0.3150536       76.92661
2013    12      0       0.3108455       75.95835
2013    12      1       0.2111462       55.65271
2013    12      2       0.257985        65.72374
2013    12      3       0.2489572       64.02682
2013    12      4       0.2169761       57.03402
2013    12      5       0.2740656       68.91348
2013    12      6       0.3303772       80.38299
2013    12      7       0.3920228       91.8015
2013    13      0       0.3710152       87.81111
2013    13      1       0.3288349       79.54154
2013    13      2       0.2986693       73.61588
2013    13      3       0.3439562       81.96116
2013    13      4       0.4070138       94.30333
2013    13      5       0.5378553       116.4367
2013    13      6       0.4300072       98.95936
2013    13      7       0.4371594       99.79766
2013    14      0       0.5230415       113.9214
2013    14      1       0.4404552       100.8525
2013    14      2       0.2593802       66.49896
2013    14      3       0.1592796       44.42668
2013    14      4       0.1529889       43.10948
2013    14      5       0.1565126       44.08941
2013    14      6       0.2254609       59.34645
2013    14      7       0.2634228       67.18671
2013    15      0       0.3006852       74.32191
2013    15      1       0.3013659       74.50418
2013    15      2       0.330983        80.31365
2013    15      3       0.2686815       68.29215
2013    15      4       0.2345971       60.87934
2013    15      5       0.2371787       61.23731
2013    15      6       0.2652585       66.81902
2013    15      7       0.284696        70.52129
2013    16      0       0.2772915       68.95954
2013    16      1       0.2513513       63.7893
2013    16      2       0.2289391       58.87412
2013    16      3       0.2830515       69.47598
2013    16      4       0.288982        71.5543
2013    16      5       0.3360384       80.27966
2013    16      6       0.5418315       114.3938
2013    16      7       0.635554        128.8499
2013    17      0       0.6263031       128.1748
2013    17      1       0.4193445       96.65387
2013    17      2       0.6026841       124.5047
2013    17      3       0.4763618       105.7861
2013    17      4       0.4743645       104.553
2013    17      5       0.568252        118.6581
2013    17      6       0.4359789       98.64061
2013    17      7       0.4119186       93.93509
2013    18      0       0.2878878       71.26126
2013    18      1       0.2639394       66.78052
2013    18      2       0.3223175       78.60227
2013    18      3       0.3217723       78.21558
2013    18      4       0.3146056       76.45942
2013    18      5       0.3249708       78.61178
2013    18      6       0.3617782       85.41935
2013    18      7       0.4806017       105.5504
2013    19      0       0.6232542       127.2169
2013    19      1       0.627635        128.6559
2013    19      2       0.3997046       93.77432
2013    19      3       0.2247821       58.91436
2013    19      4       0.1972545       52.71676
2013    19      5       0.181228        49.43692
2013    19      6       0.1955118       52.78257
2013    19      7       0.2285231       59.6086
2013    20      0       0.2167443       56.79838
2013    20      1       0.2149792       56.50089
2013    20      2       0.2280815       59.50984
2013    20      3       0.2150916       56.78722
2013    20      4       0.1969395       52.77916
2013    20      5       0.1879189       50.69333
2013    20      6       0.2368724       61.10188
2013    20      7       0.2708157       68.03251
2013    21      0       0.2730095       68.4006
2013    21      1       0.2577072       65.19123
2013    21      2       0.2638435       66.51604
2013    21      3       0.2631278       66.74259
2013    21      4       0.2157538       56.66235
2013    21      5       0.2055885       54.4122
2013    21      6       0.2215836       57.90991
2013    21      7       0.2413534       61.89742
2013    22      0       0.2503604       63.56104
2013    22      1       0.2537765       64.10424
2013    22      2       0.3059476       74.10694
2013    22      3       0.2738765       68.45454
2013    22      4       0.2392995       61.33519
2013    22      5       0.2478004       63.15474
2013    22      6       0.3086495       75.19563
2013    22      7       0.4311402       96.61144
2013    23      0       0.421683        95.12264
2013    23      1       0.3609287       84.81191
2013    23      2       0.2679524       67.51178
2013    23      3       0.2527602       64.41132
2013    23      4       0.2025653       53.66155
2013    23      5       0.2415987       61.79268
2013    23      6       0.314602        76.46501
2013    23      7       0.3840556       89.46524
2013    24      0       0.45531         101.5329
2013    24      1       0.4277404       97.24794
2013    24      2       0.3936798       91.45065
2013    24      3       0.3942668       91.92485
2013    24      4       0.3663377       86.76003
2013    24      5       0.4532139       101.0755
2013    24      6       0.3910528       90.95871
2013    24      7       0.3562755       84.3223
2013    25      0       0.3431557       82.17793
2013    25      1       0.4575545       101.6754
2013    25      2       0.6194266       126.3228
2013    25      3       0.543123        115.9204
2013    25      4       0.4785416       106.177
2013    25      5       0.4701879       105.1649
2013    25      6       0.5841481       123.139
2013    25      7       0.6760014       136.8972
2013    26      0       0.6638077       135.3105
2013    26      1       0.5230212       114.607
2013    26      2       0.5132667       112.7686
2013    26      3       0.5110434       112.4877
2013    26      4       0.4931182       109.7567
2013    26      5       0.472848        106.4857
2013    26      6       0.4552416       103.7727
2013    26      7       0.4544848       103.9009
2013    27      0       0.4266706       99.3258
2013    27      1       0.3846832       91.81195
2013    27      2       0.4239322       98.9109
2013    27      3       0.4919133       110.706
2013    27      4       0.4454992       102.9834
2013    27      5       0.3437911       84.47394
2013    27      6       0.347588        85.08711
2013    27      7       0.3975087       94.30578
2013    28      0       0.4068715       95.88478
2013    28      1       0.3934166       93.36011
2013    28      2       0.4174072       97.75722
2013    28      3       0.4162806       97.70405
2013    28      4       0.4268192       99.55573
2013    28      5       0.3970178       94.28368
2013    28      6       0.424443        99.22237
2013    28      7       0.4946093       111.0559
2013    29      0       0.500533        112.2676
2013    29      1       0.5198443       115.9739
2013    29      2       0.569889        124.0914
2013    29      3       0.6072584       129.1176
2013    29      4       0.6346302       132.4558
2013    29      5       0.5987879       127.0689
2013    29      6       0.5905395       125.9618
2013    29      7       0.6152561       129.172
2013    30      0       0.5649642       121.4703
2013    30      1       0.5450236       118.6667
2013    30      2       0.4687563       105.8086
2013    30      3       0.434135        98.80057
2013    30      4       0.6059583       125.123
2013    30      5       0.6231642       128.6148
2013    30      6       0.7923912       150.5607
2013    30      7       0.7606057       147.4747
2014    1       0       0.6229874       127.9953
2014    1       1       0.3702249       87.1427
2014    1       2       0.2933975       71.96361
2014    1       3       0.3131537       75.78001
2014    1       4       0.4301537       95.97864
2014    1       5       0.2394186       61.16806
2014    1       6       0.3163912       76.63182
2014    1       7       0.3578777       84.19887
2014    2       0       0.3191544       76.90859
2014    2       1       0.2816008       69.56421
2014    2       2       0.2935449       72.15551
2014    2       3       0.2514264       63.8726
2014    2       4       0.2251532       58.32497
2014    2       5       0.192684        51.22833
2014    2       6       0.2501097       63.65549
2014    2       7       0.280813        70.0336
2014    3       0       0.3379043       81.16922
2014    3       1       0.3408685       81.71444
2014    3       2       0.369876        86.19095
2014    3       3       0.5229293       112.2349
2014    3       4       0.6142788       126.2391
2014    3       5       0.4133045       94.97737
2014    3       6       0.4061473       93.84802
2014    3       7       0.3028583       74.74449
2014    4       0       0.2345289       60.64458
2014    4       1       0.2777711       69.43051
2014    4       2       0.3157542       77.09173
2014    4       3       0.2810158       70.43214
2014    4       4       0.276354        69.23996
2014    4       5       0.2899723       71.74933
2014    4       6       0.3112341       75.86148
2014    4       7       0.3593884       84.54177
2014    5       0       0.3798417       88.28964
2014    5       1       0.4474228       99.58621
2014    5       2       0.4863575       106.3034
2014    5       3       0.3728658       86.98053
2014    5       4       0.2671593       66.60598
2014    5       5       0.2291568       59.02142
2014    5       6       0.278735        69.50825
2014    5       7       0.3476111       82.60489
2014    6       0       0.3466503       82.53534
2014    6       1       0.2563415       64.87381
2014    6       2       0.2268072       58.61096
2014    6       3       0.2303037       59.3576
2014    6       4       0.2675828       66.71061
2014    6       5       0.3087974       74.59479
2014    6       6       0.3675082       85.9841
2014    6       7       0.3876587       89.54114
2014    7       0       0.2917304       71.99469
2014    7       1       0.3193154       76.72604
2014    7       2       0.3866773       88.90049
2014    7       3       0.3263303       78.24237
2014    7       4       0.2291932       59.35604
2014    7       5       0.19359         51.70736
2014    7       6       0.2560597       64.92608
2014    7       7       0.3598262       84.48553
2014    8       0       0.3513899       82.97392
2014    8       1       0.3298976       78.83102
2014    8       2       0.3206855       77.10752
2014    8       3       0.2871513       70.45655
2014    8       4       0.2712858       66.88229
2014    8       5       0.3001342       72.21182
2014    8       6       0.5541345       114.8949
2014    8       7       0.6530449       128.5585
2014    9       0       0.5525856       114.597
2014    9       1       0.4107471       92.13254
2014    9       2       0.1318162       36.78588
2014    9       3       0.06889572      22.04819
2014    9       4       0.07284895      23.17726
2014    9       5       0.08471381      26.13644
2014    9       6       0.1562026       42.79497
2014    9       7       0.2198394       56.70159
2014    10      0       0.2180953       56.7594
2014    10      1       0.1778033       48.03834
2014    10      2       0.2189553       56.84589
2014    10      3       0.2498075       63.24468
2014    10      4       0.1936972       51.50008
2014    10      5       0.2096468       54.88895
2014    10      6       0.2849073       70.33394
2014    10      7       0.4214576       95.41132
2014    11      0       0.4172347       94.64328
2014    11      1       0.3479296       82.83797
2014    11      2       0.3039503       74.66987
2014    11      3       0.3725033       87.13582
2014    11      4       0.4081926       93.58457
2014    11      5       0.2621699       66.60396
2014    11      6       0.2396295       61.47888
2014    11      7       0.2621665       65.70962
2014    12      0       0.3009121       73.32109
2014    12      1       0.4495331       100.6143
2014    12      2       0.4962397       107.3097
2014    12      3       0.2936473       72.5153
2014    12      4       0.218425        56.99531
2014    12      5       0.2562954       65.01167
2014    12      6       0.3618181       85.37966
2014    12      7       0.3927416       90.8941
2014    13      0       0.3981339       91.47925
2014    13      1       0.3582321       84.76004
2014    13      2       0.3728043       87.97123
2014    13      3       0.4101372       94.39127
2014    13      4       0.3723197       87.80944
2014    13      5       0.2844832       71.26492
2014    13      6       0.2797992       70.65664
2014    13      7       0.3092043       76.32624
2014    14      0       0.3592107       85.71679
2014    14      1       0.3787377       89.30896
2014    14      2       0.3089671       75.62682
2014    14      3       0.3393229       81.65884
2014    14      4       0.3737016       87.94307
2014    14      5       0.3867667       89.53193
2014    14      6       0.4242638       95.9434
2014    14      7       0.4652821       102.4107
2014    15      0       0.2913392       71.44208
2014    15      1       0.2744791       67.74842
2014    15      2       0.1522797       41.86683
2014    15      3       0.1381785       38.41823
2014    15      4       0.1980808       51.3144
2014    15      5       0.260908        63.98689
2014    15      6       0.396566        89.64902
2014    15      7       0.49394         106.3103
2014    16      0       0.4349307       97.3754
2014    16      1       0.3885574       89.20471
2014    16      2       0.3134176       75.18913
2014    16      3       0.2970308       72.19611
2014    16      4       0.3439114       81.67666
2014    16      5       0.328982        78.9203
2014    16      6       0.3746346       87.4987
2014    16      7       0.5273314       111.9656
2014    17      0       0.4417577       98.60742
2014    17      1       0.3716186       86.89358
2014    17      2       0.3684694       86.37928
2014    17      3       0.3619368       85.05377
2014    17      4       0.34161         81.52368
2014    17      5       0.3099978       75.54716
2014    17      6       0.3592519       85.04781
2014    17      7       0.4608689       102.7427
2014    18      0       0.4585482       102.2599
2014    18      1       0.4015624       92.12817
2014    18      2       0.3614735       85.30793
2014    18      3       0.3496542       83.51899
2014    18      4       0.3220738       78.09584
2014    18      5       0.3274621       78.56564
2014    18      6       0.5209643       110.9945
2014    18      7       0.6004426       122.2268
2014    19      0       0.4749658       103.6949
2014    19      1       0.3656338       85.23345
2014    19      2       0.2562521       64.0139
2014    19      3       0.2593983       64.39178
2014    19      4       0.1147916       32.86357
2014    19      5       0.1382004       38.18912
2014    19      6       0.1508075       41.57387
2014    19      7       0.1874651       49.82553
2014    20      0       0.2468719       62.2793
2014    20      1       0.2682313       66.51755
2014    20      2       0.3199072       76.7607
2014    20      3       0.3530015       83.45866
2014    20      4       0.3223045       77.97555
2014    20      5       0.2883762       71.31134
2014    20      6       0.3040049       74.43249
2014    20      7       0.3560037       84.52397
2014    21      0       0.3716833       87.47405
2014    21      1       0.3467721       82.68752
2014    21      2       0.3520787       83.31827
2014    21      3       0.3402752       80.9784
2014    21      4       0.3868933       88.64019
2014    21      5       0.4858795       105.037
2014    21      6       0.5666099       118.0361
2014    21      7       0.534603        114.2876
2014    22      0       0.4632865       103.4599
2014    22      1       0.5050463       109.8638
2014    22      2       0.5373991       114.5466
2014    22      3       0.3418685       81.36679
2014    22      4       0.2514981       63.18976
2014    22      5       0.2433849       61.58969
2014    22      6       0.3284169       78.53515
2014    22      7       0.5041457       108.6826
2014    23      0       0.7225159       139.9716
2014    23      1       0.4091855       94.1047
2014    23      2       0.3358761       80.62543
2014    23      3       0.3700602       86.92835
2014    23      4       0.3700247       86.72025
2014    23      5       0.3549876       83.7496
2014    23      6       0.4221934       96.04076
2014    23      7       0.5816858       121.1888
2014    24      0       0.5455429       116.5419
2014    24      1       0.5632174       119.2374
2014    24      2       0.6410001       129.7371
2014    24      3       0.4951239       108.4315
2014    24      4       0.357898        85.19865
2014    24      5       0.3492901       83.51886
2014    24      6       0.4659095       104.0428
2014    24      7       0.6337522       129.3317
2014    25      0       0.7755391       148.0306
2014    25      1       0.6136927       127.4617
2014    25      2       0.8252282       153.6416
2014    25      3       0.3609019       85.5445
2014    25      4       0.2921199       72.25373
2014    25      5       0.3502913       83.42521
2014    25      6       0.4589531       103.0116
2014    25      7       0.6094978       126.2874
2014    26      0       0.5391262       115.8513
2014    26      1       0.499602        109.4862
2014    26      2       0.4281174       97.58245
2014    26      3       0.3468161       82.83759
2014    26      4       0.3106632       75.73642
2014    26      5       0.3261018       78.69165
2014    26      6       0.4713518       104.6706
2014    26      7       0.5893617       123.4276
2014    27      0       0.5724215       120.6051
2014    27      1       0.5799162       120.5759
2014    27      2       0.5247666       112.179
2014    27      3       0.4743617       104.3918
2014    27      4       0.4223338       95.71877
2014    27      5       0.4820485       105.7999
2014    27      6       0.8165944       150.9694
2014    27      7       0.9164477       161.6814
2014    28      0       0.8264347       151.2762
2014    28      1       0.6760172       133.7207
2014    28      2       0.5230883       111.7915
2014    28      3       0.343714        81.61408
2014    28      4       0.2125706       55.68366
2014    28      5       0.2517019       63.89728
2014    28      6       0.2875148       71.226
2014    28      7       0.3460384       82.67716
2014    29      0       0.4001253       92.49079
2014    29      1       0.4743151       104.6624
2014    29      2       0.4123919       94.06077
2014    29      3       0.3183974       76.4314
2014    29      4       0.3054302       74.30756
2014    29      5       0.3061925       74.72139
2014    29      6       0.3537322       84.22609
2014    29      7       0.3676164       87.16005
2014    30      0       0.3924027       91.8193
2014    30      1       0.4235695       97.26923
2014    30      2       0.4421807       100.613
2014    30      3       0.380015        89.80988
2014    30      4       0.3712048       87.87623
2014    30      5       0.3529069       84.26982
2014    30      6       0.3226986       78.2466
2014    30      7       0.2792451       69.92862
2015    1       0       0.5377216       115.3888
2015    1       1       0.530489        114.3579
2015    1       2       0.493551        108.3656
2015    1       3       0.504824        110.2547
2015    1       4       0.4917106       106.8103
2015    1       5       0.4277739       96.51399
2015    1       6       0.5127736       111.0714
2015    1       7       0.6610303       133.156
2015    2       0       0.6675626       134.3465
2015    2       1       0.4387982       99.93422
2015    2       2       0.4044104       93.56029
2015    2       3       0.3174259       77.45957
2015    2       4       0.2771498       69.31354
2015    2       5       0.2978233       73.29274
2015    2       6       0.3165153       77.17931
2015    2       7       0.3292747       79.66107
2015    3       0       0.344173        82.38306
2015    3       1       0.3213589       77.81041
2015    3       2       0.2866086       70.93201
2015    3       3       0.2695961       67.68701
2015    3       4       0.272127        68.10338
2015    3       5       0.2454144       62.51549
2015    3       6       0.3234853       78.27305
2015    3       7       0.5010329       108.8778
2015    4       0       0.582352        121.7515
2015    4       1       0.4119408       94.66397
2015    4       2       0.2394818       61.26803
2015    4       3       0.2234354       57.68717
2015    4       4       0.2114581       55.13809
2015    4       5       0.2019241       53.15771
2015    4       6       0.2490214       63.44797
2015    4       7       0.3348671       80.17585
2015    5       0       0.3837199       89.52778
2015    5       1       0.3682236       87.07981
2015    5       2       0.4208772       96.07467
2015    5       3       0.5717369       120.3562
2015    5       4       0.5272384       113.3856
2015    5       5       0.5133885       110.1351
2015    5       6       0.7781409       145.7325
2015    5       7       0.940647        165.625
2015    6       0       0.8354458       154.2147
2015    6       1       0.6246847       127.1534
2015    6       2       0.5125992       110.7905
2015    6       3       0.4211224       95.97856
2015    6       4       0.4434358       99.51101
2015    6       5       0.4960278       107.3644
2015    6       6       0.6503162       130.3306
2015    6       7       0.6984979       136.8775
2015    7       0       0.5732337       119.2746
2015    7       1       0.3561493       83.52734
2015    7       2       0.3205909       76.9781
2015    7       3       0.3390439       80.8707
2015    7       4       0.3476205       82.63994
2015    7       5       0.5218179       112.4492
2015    7       6       0.6639791       131.4987
2015    7       7       0.674384        133.2395
2015    8       0       0.6314753       127.1887
2015    8       1       0.4863332       106.3667
2015    8       2       0.4173679       95.33298
2015    8       3       0.3621474       85.63871
2015    8       4       0.3589062       85.08909
2015    8       5       0.3484801       83.25157
2015    8       6       0.3996223       92.87233
2015    8       7       0.4961591       109.6293
2015    9       0       0.5228414       114.0877
2015    9       1       0.4493865       102.1523
2015    9       2       0.4257443       97.98666
2015    9       3       0.3779407       89.34339
2015    9       4       0.3148216       77.52026
2015    9       5       0.3449632       83.26974
2015    9       6       0.3986568       93.1489
2015    9       7       0.4815658       107.3281
2015    10      0       0.5901237       123.7964
2015    10      1       0.5508271       118.1434
2015    10      2       0.5237604       113.6918
2015    10      3       0.5453392       116.3112
2015    10      4       0.5732266       119.9683
2015    10      5       0.6633855       132.34
2015    10      6       0.8355528       153.6083
2015    10      7       0.8548296       156.9841
2015    11      0       0.839746        154.6999
2015    11      1       0.6927003       136.4553
2015    11      2       0.5925774       123.2485
2015    11      3       0.5493649       117.0387
2015    11      4       0.602615        124.9374
2015    11      5       0.9072393       163.3604
2015    11      6       1.018948        173.301
2015    11      7       1.09476         180.2251
2015    12      0       1.02386         173.8087
2015    12      1       0.8655943       158.4482
2015    12      2       0.6808984       135.9584
2015    12      3       0.5844041       122.1381
2015    12      4       0.256413        64.37351
2015    12      5       0.1551593       42.57336
2015    12      6       0.2520472       64.26374
2015    12      7       0.3821264       90.06896
2015    13      0       0.4846027       107.9964
2015    13      1       0.4323601       99.33016
2015    13      2       0.4020819       94.35786
2015    13      3       0.5106458       112.5107
2015    13      4       0.4511072       102.5757
2015    13      5       0.3687427       87.6964
2015    13      6       0.368022        87.58074
2015    13      7       0.487601        107.9837
2015    14      0       0.6372734       129.9589
2015    14      1       0.5800715       121.4352
2015    14      2       0.4234726       95.97582
2015    14      3       0.3749658       87.14325
2015    14      4       0.304338        74.47049
2015    14      5       0.3049785       74.9096
2015    14      6       0.3408151       82.28003
2015    14      7       0.4724697       105.1632
2015    15      0       0.5710119       120.4584
2015    15      1       0.6302522       129.034
2015    15      2       0.7545244       145.7203
2015    15      3       0.5138647       111.9216
2015    15      4       0.4488233       101.0619
2015    15      5       0.3257677       79.29297
2015    15      6       0.4400273       99.77862
2015    15      7       0.6761344       134.4105
2015    16      0       0.6399127       130.4922
2015    16      1       0.5308088       115.5316
2015    16      2       0.4761967       106.7749
2015    16      3       0.7956976       150.9231
2015    16      4       0.7380972       144.9492
2015    16      5       0.6705037       136.1437
2015    16      6       0.713371        141.5426
2015    16      7       0.7830641       149.3934
2015    17      0       0.9374809       167.5086
2015    17      1       0.7094271       141.0036
2015    17      2       0.613855        128.3076
2015    17      3       0.5837727       123.8183
2015    17      4       0.4700286       105.6914
2015    17      5       0.4016896       93.50561
2015    17      6       0.4988098       110.2587
2015    17      7       0.5405928       116.9023
2015    18      0       0.5335096       116.0796
2015    18      1       0.4949474       109.6867
2015    18      2       0.5060376       111.3433
2015    18      3       0.513223        112.9517
2015    18      4       0.3500944       84.30127
2015    18      5       0.3212761       78.52158
2015    18      6       0.3647136       87.1946
2015    18      7       0.4527614       102.9724
2015    19      0       0.5161104       113.589
2015    19      1       0.484749        108.7883
2015    19      2       0.410528        95.83747
2015    19      3       0.3397405       82.34246
2015    19      4       0.2904388       72.15062
2015    19      5       0.2589091       65.89057
2015    19      6       0.3356204       81.70872
2015    19      7       0.3976446       93.48165
2015    20      0       0.429398        99.16708
2015    20      1       0.3772325       89.39959
2015    20      2       0.418443        96.62719
2015    20      3       0.3475149       83.48833
2015    20      4       0.3099839       76.24407
2015    20      5       0.3075165       75.70929
2015    20      6       0.3655564       87.30324
2015    20      7       0.4028318       94.644
2015    21      0       0.4246501       98.13431
2015    21      1       0.4269597       97.50037
2015    21      2       0.3262477       79.50509
2015    21      3       0.2648873       67.45763
2015    21      4       0.2819102       71.17019
2015    21      5       0.2535999       65.53942
2015    21      6       0.2909839       73.56114
2015    21      7       0.3373444       82.77177
2015    22      0       0.3110834       77.65659
2015    22      1       0.2633956       67.70757
2015    22      2       0.3307925       80.83293
2015    22      3       0.2724996       69.42027
2015    22      4       0.2629772       67.53144
2015    22      5       0.2618497       67.30113
2015    22      6       0.3322876       81.49642
2015    22      7       0.3681565       88.29978
2015    23      0       0.3615292       87.10495
2015    23      1       0.3535975       85.35586
2015    23      2       0.3362364       82.06687
2015    23      3       0.302653        75.65925
2015    23      4       0.3269693       80.28419
2015    23      5       0.330526        81.00206
2015    23      6       0.3676764       88.31116
2015    23      7       0.4308681       99.40189
2015    24      0       0.4778817       107.2005
2015    24      1       0.4826393       107.9747
2015    24      2       0.3978735       93.22549
2015    24      3       0.4730429       106.1071
2015    24      4       0.4649772       103.3657
2015    24      5       0.346175        82.45653
2015    24      6       0.5661951       119.8281
2015    24      7       0.7611728       147.433
2015    25      0       0.6825929       136.9583
2015    25      1       0.5101747       111.3825
2015    25      2       0.5174566       113.1785
2015    25      3       0.6576917       133.9085
2015    25      4       0.5678233       121.1562
2015    25      5       0.444588        101.1939
2015    25      6       0.5339835       115.6326
2015    25      7       0.684656        136.5532
2015    26      0       0.633476        129.8039
2015    26      1       0.6037183       125.6067
2015    26      2       0.5395114       117.4462
2015    26      3       0.5518757       119.6555
2015    26      4       0.469311        105.8518
2015    26      5       0.4223916       97.46143
2015    26      6       0.4116375       95.77908
2015    26      7       0.3835037       90.85867
2015    27      0       0.363096        87.15424
2015    27      1       0.3144985       77.87532
2015    27      2       0.327953        80.56955
2015    27      3       0.4041563       94.79027
2015    27      4       0.3954557       92.94313
2015    27      5       0.3590941       86.23126
2015    27      6       0.3743424       89.10604
2015    27      7       0.393552        92.63095
2015    28      0       0.3843121       91.07476
2015    28      1       0.35344         85.41352
2015    28      2       0.3922045       92.4959
2015    28      3       0.5908369       124.7664
2015    28      4       0.6275341       129.8441
2015    28      5       0.6096878       127.1539
2015    28      6       0.6102326       127.1991
2015    28      7       0.7188597       142.1239
2015    29      0       0.7819628       149.8651
2015    29      1       0.5688057       121.4541
2015    29      2       0.6193376       128.9646
2015    29      3       0.81116         153.9487
2015    29      4       0.6268388       130.3571
2015    29      5       0.6033441       126.8636
2015    29      6       0.7431956       145.5294
2015    29      7       0.7309872       144.3472
2015    30      0       0.6549589       134.6851
2015    30      1       0.5169317       114.5576
2015    30      2       0.4277281       99.92638
2015    30      3       0.3998915       94.6189
2015    30      4       0.4543627       103.7116
2015    30      5       0.6150316       129.4285
2015    30      6       0.7556645       148.2383
2015    30      7       1.038971        179.5448
2016    1       0       0.4948294       106.2909
2016    1       1       0.3800376       87.54605
2016    1       2       0.3386095       80.14118
2016    1       3       0.3335718       79.21369
2016    1       4       0.3064618       74.11697
2016    1       5       0.3153685       75.86698
2016    1       6       0.4720755       103.5047
2016    1       7       0.4962297       107.3443
2016    2       0       0.5024281       108.457
2016    2       1       0.4069004       92.90509
2016    2       2       0.3296628       78.94193
2016    2       3       0.3169681       76.31913
2016    2       4       0.2971717       72.72771
2016    2       5       0.2560764       64.55766
2016    2       6       0.2922423       71.66534
2016    2       7       0.3929198       90.52791
2016    3       0       0.4177636       95.23953
2016    3       1       0.5394433       114.6486
2016    3       2       0.4502373       100.6301
2016    3       3       0.2578898       65.03434
2016    3       4       0.3732507       86.85276
2016    3       5       0.3053014       73.91557
2016    3       6       0.3959114       91.06966
2016    3       7       0.5179457       111.4274
2016    4       0       0.5736058       119.9387
2016    4       1       0.4606023       102.7742
2016    4       2       0.4303882       97.85166
2016    4       3       0.3670017       86.81996
2016    4       4       0.2774645       69.70134
2016    4       5       0.2133466       56.21282
2016    4       6       0.2245529       58.69731
2016    4       7       0.2487516       63.99243
2016    5       0       0.2858023       71.61723
2016    5       1       0.2938255       73.21771
2016    5       2       0.3089995       76.03353
2016    5       3       0.3040439       74.95239
2016    5       4       0.2940822       72.86614
2016    5       5       0.3184735       77.76071
2016    5       6       0.4482785       101.0188
2016    5       7       0.5740893       120.7295
2016    6       0       0.615186        126.9744
2016    6       1       0.5370688       115.4747
2016    6       2       0.4680789       104.5949
2016    6       3       0.4055247       93.91972
2016    6       4       0.4201696       96.19072
2016    6       5       0.4706084       104.6773
2016    6       6       0.5363956       115.2707
2016    6       7       0.6726336       133.7929
2016    7       0       0.5205718       112.0
2016    7       1       0.3911186       91.04098
2016    7       2       0.3513046       83.6443
2016    7       3       0.3008412       73.81681
2016    7       4       0.3469309       82.71486
2016    7       5       0.5442989       115.0396
2016    7       6       0.5507106       117.0666
2016    7       7       0.6444744       131.0267
2016    8       0       0.6122182       126.7188
2016    8       1       0.4927884       108.6179
2016    8       2       0.5205898       112.6372
2016    8       3       0.5482848       116.5437
2016    8       4       0.5009573       109.5682
2016    8       5       0.5342005       114.55
2016    8       6       0.8708693       158.1779
2016    8       7       1.093972        181.1749
2016    9       0       0.9876145       171.097
2016    9       1       0.7033167       138.4523
2016    9       2       0.5744038       121.4466
2016    9       3       0.5222488       113.891
2016    9       4       0.4644601       104.6753
2016    9       5       0.509992        111.7053
2016    9       6       0.4496378       102.149
2016    9       7       0.6070665       126.8368
2016    10      0       0.5875226       124.2479
2016    10      1       0.5764471       122.3628
2016    10      2       0.4804183       107.1171
2016    10      3       0.4808571       107.1592
2016    10      4       0.4290693       98.22053
2016    10      5       0.441588        100.0631
2016    10      6       0.4260233       97.83088
2016    10      7       0.4154784       96.15301
2016    11      0       0.3977892       93.06796
2016    11      1       0.3523757       84.54856
2016    11      2       0.3230848       79.05492
2016    11      3       0.324165        79.13514
2016    11      4       0.2912496       72.51442
2016    11      5       0.35524         84.92826
2016    11      6       0.5686366       121.1752
2016    11      7       0.8244381       155.0826
2016    12      0       0.9704791       170.6131
2016    12      1       0.9055056       162.8373
2016    12      2       0.4560404       102.1829
2016    12      3       0.3651477       86.83534
2016    12      4       0.3405761       81.7294
2016    12      5       0.3657597       86.42172
2016    12      6       0.6377523       129.3502
2016    12      7       0.8555719       157.0957
2016    13      0       0.6158877       126.0779
2016    13      1       0.3343664       80.3681
2016    13      2       0.6112486       125.4051
2016    13      3       0.4512418       101.9438
2016    13      4       0.3567129       84.74182
2016    13      5       0.3404428       81.34932
2016    13      6       0.4937519       107.9507
2016    13      7       0.6529902       131.8322
2016    14      0       0.6521641       129.8037
2016    14      1       0.4214135       95.00862
2016    14      2       0.3479825       81.87679
2016    14      3       0.2994548       72.7491
2016    14      4       0.3094958       74.38569
2016    14      5       0.2505025       63.27808
2016    14      6       0.2721533       68.04656
2016    14      7       0.2857551       70.89482
2016    15      0       0.3669145       86.24073
2016    15      1       0.3245846       78.693
2016    15      2       0.2983774       73.58738
2016    15      3       0.3026168       74.42401
2016    15      4       0.2406597       61.73375
2016    15      5       0.1988521       52.80959
2016    15      6       0.208132        55.33445
2016    15      7       0.2406302       62.52997
2016    16      0       0.2729073       69.40163
2016    16      1       0.2475241       64.05974
2016    16      2       0.1727806       47.72971
2016    16      3       0.130282        38.01117
2016    16      4       0.1051365       31.91966
2016    16      5       0.08001662      25.57575
2016    16      6       0.1315266       38.35427
2016    16      7       0.2094206       56.05081
2016    17      0       0.267859        68.30425
2016    17      1       0.2694762       68.55628
2016    17      2       0.2946402       73.36342
2016    17      3       0.3351672       80.98497
2016    17      4       0.3118934       76.45416
2016    17      5       0.3154852       77.05014
2016    17      6       0.3666948       87.15086
2016    17      7       0.4959832       109.5723
2016    18      0       0.5783095       122.703
2016    18      1       0.397095        93.56455
2016    18      2       0.2507536       65.02541
2016    18      3       0.1606415       45.08611
2016    18      4       0.1306044       37.92651
2016    18      5       0.1247813       36.43615
2016    18      6       0.1512955       42.67642
2016    18      7       0.1856142       50.68532
2016    19      0       0.1981867       53.87878
2016    19      1       0.1783037       49.47247
2016    19      2       0.1916631       52.34366
2016    19      3       0.1963946       53.21348
2016    19      4       0.1651613       45.66963
2016    19      5       0.3192164       77.75878
2016    19      6       0.3907643       91.80898
2016    19      7       0.3581513       86.4214
2016    20      0       0.3428205       83.66245
2016    20      1       0.3257276       80.35471
2016    20      2       0.3654724       87.93674
2016    20      3       0.4042165       95.36435
2016    20      4       0.3820102       90.76121
2016    20      5       0.4315125       99.35979
2016    20      6       0.5356399       117.1838
2016    20      7       0.6451711       133.5827
2016    21      0       0.6599675       136.1077
2016    21      1       0.5534011       121.1501
2016    21      2       0.4144437       97.95798
2016    21      3       0.2786366       71.64717
2016    21      4       0.2776947       71.06792
2016    21      5       0.383699        90.94294
2016    21      6       0.4719177       106.815
2016    21      7       0.4899153       110.6138
2016    22      0       0.4612828       105.7054
2016    22      1       0.465143        105.8639
2016    22      2       0.4640357       104.6632
2016    22      3       0.348135        83.17346
2016    22      4       0.3553976       83.85358
2016    22      5       0.5184536       110.5285
2016    22      6       0.5488841       117.0918
2016    22      7       0.6211081       128.3536
2016    23      0       0.6206727       128.8188
2016    23      1       0.6066099       126.6803
2016    23      2       0.7215297       141.6487
2016    23      3       0.5110561       112.4371
2016    23      4       0.4193209       97.18649
2016    23      5       0.5171536       112.4409
2016    23      6       0.7134376       140.4414
2016    23      7       0.7658061       147.4517
2016    24      0       0.4521281       101.7755
2016    24      1       0.5580918       118.7353
2016    24      2       0.5086542       111.1631
2016    24      3       0.4466551       100.6301
2016    24      4       0.4170479       94.1506
2016    24      5       0.3068678       75.47637
2016    24      6       0.4773841       106.6723
2016    24      7       0.6630731       134.7344
2016    25      0       0.725175        143.1383
2016    25      1       0.6167292       128.0932
2016    25      2       0.6657001       134.3574
2016    25      3       0.4873852       108.5755
2016    25      4       0.4029077       93.89548
2016    25      5       0.2741548       69.31103
2016    25      6       0.2872186       71.86545
2016    25      7       0.2463089       63.31436
2016    26      0       0.2089574       55.23252
2016    26      1       0.1638937       45.2437
2016    26      2       0.1755523       47.81233
2016    26      3       0.1787054       48.62081
2016    26      4       0.1485087       41.76603
2016    26      5       0.1269586       36.7547
2016    26      6       0.1789912       48.86598
2016    26      7       0.2164926       57.03327
2016    27      0       0.2131744       56.40629
2016    27      1       0.1825523       49.7104
2016    27      2       0.1769484       48.26885
2016    27      3       0.2031978       53.80739
2016    27      4       0.1909179       51.29953
2016    27      5       0.1733776       47.43902
2016    27      6       0.1896242       50.98297
2016    27      7       0.2166031       56.86965
2016    28      0       0.2245929       58.70718
2016    28      1       0.221285        58.03616
2016    28      2       0.2415141       62.42612
2016    28      3       0.2505471       64.40559
2016    28      4       0.282953        70.70791
2016    28      5       0.3222609       78.42326
2016    28      6       0.3901971       91.12655
2016    28      7       0.5217036       112.7091
2016    29      0       0.5810994       122.1843
2016    29      1       0.5657877       119.9076
2016    29      2       0.4746178       106.4648
2016    29      3       0.4900571       109.2624
2016    29      4       0.4866281       108.448
2016    29      5       0.4995675       109.9641
2016    29      6       0.5359977       114.8496
2016    29      7       0.4751876       106.2686
2016    30      0       0.3955787       92.83224
2016    30      1       0.5551117       119.0129
2016    30      2       0.4309136       98.56927
2016    30      3       0.4163538       95.46324
2016    30      4       0.4238646       96.73247
2016    30      5       0.459444        102.6391
2016    30      6       0.7811585       148.2798
2016    30      7       1.133055        184.3625
2017    1       0       0.7889771       148.9413
2017    1       1       0.6264084       127.5505
2017    1       2       0.4782572       105.7285
2017    1       3       0.3652188       86.38279
2017    1       4       0.3520561       83.75101
2017    1       5       0.3831364       89.29521
2017    1       6       0.5557995       117.1029
2017    1       7       0.7517479       144.2661
2017    2       0       0.785599        148.5723
2017    2       1       0.7140827       139.2567
2017    2       2       0.5929894       123.1482
2017    2       3       0.5108819       111.2654
2017    2       4       0.4998201       109.1228
2017    2       5       0.5743894       120.037
2017    2       6       0.8264844       151.7589
2017    2       7       0.747071        142.4631
2017    3       0       0.4738344       104.3902
2017    3       1       0.3281099       79.17126
2017    3       2       0.3306117       79.49597
2017    3       3       0.2832358       70.74511
2017    3       4       0.1924379       51.70677
2017    3       5       0.1869207       50.20836
2017    3       6       0.265524        66.99097
2017    3       7       0.3176654       77.48225
2017    4       0       0.3573794       85.1219
2017    4       1       0.3717979       87.85691
2017    4       2       0.3662847       87.01942
2017    4       3       0.3078449       75.83693
2017    4       4       0.2678513       67.61895
2017    4       5       0.2748314       68.9349
2017    4       6       0.3875133       90.63253
2017    4       7       0.527601        114.1708
2017    5       0       0.6159039       127.2455
2017    5       1       0.5686599       120.5426
2017    5       2       0.513736        112.3537
2017    5       3       0.5141856       112.6117
2017    5       4       0.5240075       114.1877
2017    5       5       0.5863157       123.0527
2017    5       6       0.6990231       138.2635
2017    5       7       0.6130431       126.8318
2017    6       0       0.4768476       106.2224
2017    6       1       0.4626932       104.266
2017    6       2       0.5009914       110.4445
2017    6       3       0.5335562       115.1933
2017    6       4       0.5034797       110.3333
2017    6       5       0.5088416       111.0355
2017    6       6       0.624019        128.656
2017    6       7       0.8297151       155.1753
2017    7       0       0.8244281       154.7896
2017    7       1       0.5844979       123.3215
2017    7       2       0.507303        111.6849
2017    7       3       0.4792425       106.8391
2017    7       4       0.5141603       111.445
2017    7       5       0.5620034       118.4271
2017    7       6       0.4386189       99.75578
2017    7       7       0.54096         116.1131
2017    8       0       0.6168218       127.59
2017    8       1       0.6881779       137.364
2017    8       2       0.6235041       128.4508
2017    8       3       0.5868491       123.2339
2017    8       4       0.5228788       113.677
2017    8       5       0.4607593       103.8931
2017    8       6       0.5573527       119.445
2017    8       7       0.5527611       118.6736
2017    9       0       0.3781822       89.5831
2017    9       1       0.2471947       63.52261
2017    9       2       0.1693194       46.56212
2017    9       3       0.1710284       46.95669
2017    9       4       0.2634975       66.12586
2017    9       5       0.302122        73.53275
2017    9       6       0.2894127       71.60206
2017    9       7       0.3552024       85.44272
2017    10      0       0.3833027       91.01129
2017    10      1       0.3169442       78.36996
2017    10      2       0.2786519       70.72646
2017    10      3       0.2409962       62.86158
2017    10      4       0.2507314       64.51735
2017    10      5       0.2757392       69.75262
2017    10      6       0.307222        76.25866
2017    10      7       0.3279791       80.2459
2017    11      0       0.3817477       90.41604
2017    11      1       0.3490533       84.2805
2017    11      2       0.3629995       86.35513
2017    11      3       0.509797        111.7388
2017    11      4       0.4414272       100.4236
2017    11      5       0.3793506       89.03728
2017    11      6       0.460916        103.0322
2017    11      7       0.5146986       112.4145
2017    12      0       0.5683607       120.9328
2017    12      1       0.4710211       105.7888
2017    12      2       0.3498161       84.15469
2017    12      3       0.2844764       71.37794
2017    12      4       0.2616728       66.54507
2017    12      5       0.2688488       67.76929
2017    12      6       0.3677078       87.43071
2017    12      7       0.5064963       111.3028
2017    13      0       0.4096231       94.44292
2017    13      1       0.2917527       72.466
2017    13      2       0.1806628       48.65073
2017    13      3       0.11435         33.37294
2017    13      4       0.08914589      27.23218
2017    13      5       0.1341225       37.53069
2017    13      6       0.3530066       81.33646
2017    13      7       0.5191316       109.2112
2017    14      0       0.512107        109.1245
2017    14      1       0.283561        70.30563
2017    14      2       0.2095332       55.05394
2017    14      3       0.1921723       51.10864
2017    14      4       0.1919337       51.06457
2017    14      5       0.2115244       55.42327
2017    14      6       0.2963518       72.87003
2017    14      7       0.3368082       80.69638
2017    15      0       0.3193788       77.3311
2017    15      1       0.2703307       67.66495
2017    15      2       0.2703772       67.61533
2017    15      3       0.2422119       61.96969
2017    15      4       0.2408625       61.39205
2017    15      5       0.2409021       61.3425
2017    15      6       0.3373614       80.30363
2017    15      7       0.4051313       92.69112
2017    16      0       0.435022        97.93232
2017    16      1       0.5020318       108.6121
2017    16      2       0.5225008       112.4991
2017    16      3       0.4470796       99.92057
2017    16      4       0.5066984       110.2567
2017    16      5       0.4890352       107.6205
2017    16      6       0.5238259       113.5037
2017    16      7       0.5593393       119.3783
2017    17      0       0.56898         120.9114
2017    17      1       0.585819        123.0988
2017    17      2       0.5602809       119.0251
2017    17      3       0.5577414       118.6533
2017    17      4       0.6343371       130.3536
2017    17      5       0.6403884       130.8884
2017    17      6       0.8988392       162.4136
2017    17      7       0.9086729       162.5435
2017    18      0       0.7202826       140.4003
2017    18      1       0.5045702       110.0635
2017    18      2       0.5514915       117.1921
2017    18      3       0.546684        116.5318
2017    18      4       0.3901464       90.61898
2017    18      5       0.3995611       92.01363
2017    18      6       0.4587052       102.5103
2017    18      7       0.4916674       108.2682
2017    19      0       0.4854176       107.4028
2017    19      1       0.4842643       107.4599
2017    19      2       0.4162127       96.36114
2017    19      3       0.3239173       79.52073
2017    19      4       0.2729972       69.23028
2017    19      5       0.2898261       72.58615
2017    19      6       0.3352909       81.65996
2017    19      7       0.3691268       88.45825
2017    20      0       0.3585625       86.66381
2017    20      1       0.3607068       86.80982
2017    20      2       0.3558334       85.66743
2017    20      3       0.3880366       91.99534
2017    20      4       0.4047306       95.12241
2017    20      5       0.3996445       93.7101
2017    20      6       0.4805453       107.8329
2017    20      7       0.6413817       132.0349
2017    21      0       0.5937423       125.8362
2017    21      1       0.6904743       138.0179
2017    21      2       0.5238747       115.5622
2017    21      3       0.3431915       83.55911
2017    21      4       0.3806227       90.84022
2017    21      5       0.3634588       87.57332
2017    21      6       0.440528        101.8317
2017    21      7       0.5868384       124.6875
2017    22      0       0.743008        146.2415
2017    22      1       0.7277388       143.3095
2017    22      2       0.5440885       118.6546
2017    22      3       0.4546879       104.2284
2017    22      4       0.4382861       100.0981
2017    22      5       0.4310006       99.06409
2017    22      6       0.4802212       107.6677
2017    22      7       0.4765941       107.0127
2017    23      0       0.657939        132.7742
2017    23      1       0.3156484       77.50215
2017    23      2       0.2735359       69.63496
2017    23      3       0.4052957       94.72781
2017    23      4       0.2574146       65.76765
2017    23      5       0.2043691       54.22961
2017    23      6       0.2778251       69.47954
2017    23      7       0.3143338       76.59056
2017    24      0       0.3115043       75.86861
2017    24      1       0.2745878       68.58583
2017    24      2       0.2605031       65.84481
2017    24      3       0.2484617       63.43993
2017    24      4       0.232859        60.05644
2017    24      5       0.2347314       60.22852
2017    24      6       0.2742774       68.26761
2017    24      7       0.3076252       74.91864
2017    25      0       0.3378857       80.66289
2017    25      1       0.3168813       76.67163
2017    25      2       0.3034252       74.24187
2017    25      3       0.2891537       71.53378
2017    25      4       0.2602049       65.73927
2017    25      5       0.2573163       65.0854
2017    25      6       0.3146725       76.56069
2017    25      7       0.3301113       79.62726
2017    26      0       0.2964904       73.22177
2017    26      1       0.2398882       61.76206
2017    26      2       0.2069789       54.79265
2017    26      3       0.2392039       61.76331
2017    26      4       0.2656719       67.28989
2017    26      5       0.2371935       61.18913
2017    26      6       0.2506889       63.98816
2017    26      7       0.2698378       68.02053
2017    27      0       0.3095295       75.78683
2017    27      1       0.3309714       79.88559
2017    27      2       0.4166131       94.54259
2017    27      3       0.3582084       85.82315
2017    27      4       0.4038324       93.76464
2017    27      5       0.3578644       85.27012
2017    27      6       0.3572875       85.60255
2017    27      7       0.3950163       91.367
2017    28      0       0.5967191       124.1841
2017    28      1       0.5005945       110.2838
2017    28      2       0.2704405       68.68372
2017    28      3       0.2053044       54.82002
2017    28      4       0.200434        53.44511
2017    28      5       0.2647209       66.66114
2017    28      6       0.3727131       87.80266
2017    28      7       0.3795955       89.07795
2017    29      0       0.4669194       103.6894
2017    29      1       0.6653038       132.6433
2017    29      2       0.5776362       120.5252
2017    29      3       0.3732519       87.98699
2017    29      4       0.4268005       96.98464
2017    29      5       0.4543251       101.4313
2017    29      6       0.4955677       107.6583
2017    29      7       0.4412775       99.1629
2017    30      0       0.452549        101.014
2017    30      1       0.472917        103.3952
2017    30      2       0.4651062       103.0476
2017    30      3       0.4184546       95.89157
2017    30      4       0.3677293       86.43688
2017    30      5       0.4225276       95.64494
2017    30      6       0.4728531       104.2302
2017    30      7       0.3904487       90.47711
2018    1       0       0.4863121       107.874
2018    1       1       0.4364834       99.55372
2018    1       2       0.2339631       60.76284
2018    1       3       0.1731195       47.2858
2018    1       4       0.2167333       57.08155
2018    1       5       0.2391986       61.83674
2018    1       6       0.3826078       88.99392
2018    1       7       0.4259369       96.57717
2018    2       0       0.4496192       100.4094
2018    2       1       0.2621154       66.2979
2018    2       2       0.1172007       34.37712
2018    2       3       0.07068538      22.81127
2018    2       4       0.08061706      25.24926
2018    2       5       0.07869272      24.70182
2018    2       6       0.1067498       31.55522
2018    2       7       0.1333018       37.92781
2018    3       0       0.1460729       41.00537
2018    3       1       0.1458485       40.94978
2018    3       2       0.1478585       41.4215
2018    3       3       0.124037        35.83071
2018    3       4       0.1515859       41.79976
2018    3       5       0.1507545       41.68765
2018    3       6       0.2231681       57.92079
2018    3       7       0.3654682       86.23145
2018    4       0       0.4450852       99.79669
2018    4       1       0.4696095       103.1614
2018    4       2       0.3352321       80.06279
2018    4       3       0.2819146       69.97927
2018    4       4       0.2715762       68.10322
2018    4       5       0.2943764       72.83443
2018    4       6       0.3088346       76.08201
2018    4       7       0.3125959       76.86223
2018    5       0       0.3186953       77.9322
2018    5       1       0.3343659       80.84397
2018    5       2       0.3427006       82.27444
2018    5       3       0.3431834       82.39552
2018    5       4       0.3116212       76.33387
2018    5       5       0.305103        74.7426
2018    5       6       0.3415268       81.65301
2018    5       7       0.3829572       89.19574
2018    6       0       0.383728        89.55539
2018    6       1       0.3532656       83.90941
2018    6       2       0.2910983       71.56458
2018    6       3       0.2733877       68.43478
2018    6       4       0.2899784       71.96239
2018    6       5       0.2794424       69.91513
2018    6       6       0.287208        71.33448
2018    6       7       0.3654171       85.81265
2018    7       0       0.4500486       101.1096
2018    7       1       0.5613745       119.2575
2018    7       2       0.3785083       88.6431
2018    7       3       0.2526327       64.05234
2018    7       4       0.1790033       48.26231
2018    7       5       0.1885009       50.53308
2018    7       6       0.2470883       63.00376
2018    7       7       0.3052749       74.46778
2018    8       0       0.3353851       80.11285
2018    8       1       0.2818563       70.03343
2018    8       2       0.204681        54.01284
2018    8       3       0.1870994       50.13103
2018    8       4       0.1784505       48.25334
2018    8       5       0.1868014       50.01302
2018    8       6       0.2388904       61.11126
2018    8       7       0.2892289       71.4276
2018    9       0       0.3091774       75.38351
2018    9       1       0.2768427       69.08283
2018    9       2       0.2175763       56.82945
2018    9       3       0.2039861       53.9307
2018    9       4       0.1846524       49.73082
2018    9       5       0.1949757       51.8255
2018    9       6       0.2195177       57.44725
2018    9       7       0.2314564       60.18451
2018    10      0       0.2361005       61.23003
2018    10      1       0.2044228       54.36648
2018    10      2       0.1983598       53.08561
2018    10      3       0.1983924       53.32182
2018    10      4       0.1670185       46.23455
2018    10      5       0.1578101       44.07667
2018    10      6       0.1774976       48.50058
2018    10      7       0.2891899       71.14867
2018    11      0       0.3709507       86.12572
2018    11      1       0.4103776       94.00974
2018    11      2       0.3175544       77.00311
2018    11      3       0.1037252       31.03352
2018    11      4       0.07496327      23.6965
2018    11      5       0.105489        30.9562
2018    11      6       0.1286176       36.77833
2018    11      7       0.1460941       41.09346
2018    12      0       0.1739096       47.49228
2018    12      1       0.178095        48.29864
2018    12      2       0.2017973       53.56829
2018    12      3       0.1926556       51.67324
2018    12      4       0.190057        50.95408
2018    12      5       0.2130761       55.87344
2018    12      6       0.2555218       64.9678
2018    12      7       0.2452785       63.07693
2018    13      0       0.2456448       63.22538
2018    13      1       0.2571332       65.56394
2018    13      2       0.295906        73.3398
2018    13      3       0.2600786       66.45262
2018    13      4       0.2737981       69.00074
2018    13      5       0.3052773       75.31525
2018    13      6       0.3485279       83.65876
2018    13      7       0.3534182       84.89997
2018    14      0       0.3513694       84.85023
2018    14      1       0.3593221       86.22595
2018    14      2       0.3636409       86.59511
2018    14      3       0.3512053       84.33598
2018    14      4       0.4350369       99.67516
2018    14      5       0.4786909       106.3509
2018    14      6       0.5913544       123.1272
2018    14      7       0.4824918       107.2365
2018    15      0       0.4765055       106.9134
2018    15      1       0.5541765       119.4784
2018    15      2       0.4316382       99.42111
2018    15      3       0.4123693       95.68825
2018    15      4       0.4875825       107.8869
2018    15      5       0.4494319       101.106
2018    15      6       0.3712924       88.58363
2018    15      7       0.4889476       108.401
2018    16      0       0.6665117       135.4695
2018    16      1       0.6131473       128.2559
2018    16      2       0.622399        129.7487
2018    16      3       0.6722603       136.7635
2018    16      4       0.7090758       141.5977
2018    16      5       0.7223832       142.6846
2018    16      6       1.031623        176.163
2018    16      7       1.309268        199.9932
2018    17      0       1.205433        192.3027
2018    17      1       1.108286        183.8273
2018    17      2       1.274733        197.8923
2018    17      3       1.1619          189.6273
2018    17      4       1.000959        174.9797
2018    17      5       1.021774        176.8659
2018    17      6       1.231817        195.1375
2018    17      7       1.233818        195.1297
2018    18      0       1.282779        199.0127
2018    18      1       1.193679        191.9916
2018    18      2       0.9110672       165.2487
2018    18      3       0.7071472       140.5286
2018    18      4       0.3986155       93.49037
2018    18      5       0.3793076       90.19335
2018    18      6       0.4435319       101.5848
2018    18      7       0.5181137       113.6105
2018    19      0       0.5877101       123.7933
2018    19      1       0.5797274       122.4659
2018    19      2       0.4991692       110.4683
2018    19      3       0.4465803       102.2724
2018    19      4       0.3422446       82.79295
2018    19      5       0.403915        93.54041
2018    19      6       0.5815227       121.4487
2018    19      7       0.6006663       123.6597
2018    20      0       0.6103033       125.4137
2018    20      1       0.664057        132.3398
2018    20      2       0.5153257       111.6438
2018    20      3       0.44987         101.1105
2018    20      4       0.3835963       89.36195
2018    20      5       0.3939796       91.16918
2018    20      6       0.4837107       106.8399
2018    20      7       0.5551269       118.4338
2018    21      0       0.5433118       116.8432
2018    21      1       0.4557977       102.7961
2018    21      2       0.3812413       89.9777
2018    21      3       0.3883228       91.50245
2018    21      4       0.2745343       69.38787
2018    21      5       0.2803085       69.74906
2018    21      6       0.4154522       95.3537
2018    21      7       0.5074409       111.0027
2018    22      0       0.6716836       134.4702
2018    22      1       0.6805918       135.9426
2018    22      2       0.6341435       130.1981
2018    22      3       0.6555735       132.0274
2018    22      4       0.5405036       115.1555
2018    22      5       0.3916711       90.2082
2018    22      6       0.3682919       86.62799
2018    22      7       0.3511993       84.14471
2018    23      0       0.6067599       125.2041
2018    23      1       0.4915269       108.4129
2018    23      2       0.3768895       88.94217
2018    23      3       0.3179295       77.85033
2018    23      4       0.2748841       68.89811
2018    23      5       0.2727112       68.09258
2018    23      6       0.3205833       77.82129
2018    23      7       0.4033878       93.27867
2018    24      0       0.526319        112.9145
2018    24      1       0.7255183       141.4781
2018    24      2       0.7507323       144.312
2018    24      3       0.4731513       104.3545
2018    24      4       0.3426997       81.29155
2018    24      5       0.4146699       93.0938
2018    24      6       0.5911627       120.0515
2018    24      7       0.6938481       134.48
2018    25      0       0.6082541       124.3832
2018    25      1       0.4135966       94.17841
2018    25      2       0.3338443       79.54205
2018    25      3       0.3173939       76.51915
2018    25      4       0.3391524       81.23466
2018    25      5       0.356905        84.8309
2018    25      6       0.3640256       86.33011
2018    25      7       0.3178602       78.12433
2018    26      0       0.273385        69.44942
2018    26      1       0.2432857       63.21865
2018    26      2       0.2403704       62.90502
2018    26      3       0.2097324       56.07955
2018    26      4       0.1393691       39.79195
2018    26      5       0.1793634       49.12511
2018    26      6       0.29123         72.88042
2018    26      7       0.3493035       84.23465
2018    27      0       0.3732835       88.61532
2018    27      1       0.4415346       100.1342
2018    27      2       0.4261196       97.71421
2018    27      3       0.3666048       87.14321
2018    27      4       0.381966        89.91115
2018    27      5       0.3854075       90.6904
2018    27      6       0.4230616       97.6468
2018    27      7       0.4888098       108.7476
2018    28      0       0.5526002       118.696
2018    28      1       0.5475466       117.5323
2018    28      2       0.3798142       89.55656
2018    28      3       0.2355486       61.47872
2018    28      4       0.1920958       51.91519
2018    28      5       0.147973        42.04264
2018    28      6       0.2482643       63.67494
2018    28      7       0.3285491       80.0976
2018    29      0       0.3378637       82.23118
2018    29      1       0.3800152       89.30385
2018    29      2       0.3102366       75.82982
2018    29      3       0.2244137       58.36073
2018    29      4       0.1855319       49.90955
2018    29      5       0.225361        58.31914
2018    29      6       0.2650199       66.97752
2018    29      7       0.3455079       82.66342
2018    30      0       0.4725532       104.346
2018    30      1       0.4844537       106.5624
2018    30      2       0.4086181       94.46337
2018    30      3       0.3702564       87.58956
2018    30      4       0.4246675       96.57317
2018    30      5       0.4706593       103.968
2018    30      6       0.651674        130.6703
2018    30      7       0.6039668       123.6783
