####################################################################################################
# Month: 02Feb                                                                                     #
# Station: SPT                                                                                     #
# Frequency: 345 GHz                                                                               #
# Columns are: year    day     tau     Tb (K)                                                      #
####################################################################################################
2009    1       0.20448295      50.34985125
2009    2       0.19200552      47.65187
2009    3       0.16514331      42.526135
2009    4       0.1589816       41.40793125
2009    5       0.15959908      41.59407875
2009    6       0.16314616      42.25873
2009    7       0.1680597       42.99912
2009    8       0.17719411      44.8788275
2009    9       0.17548657      44.6142125
2009    10      0.1485548       39.29492
2009    11      0.13824444      37.01313375
2009    12      0.15063874      39.220005
2009    13      0.17783571      44.76845625
2009    14      0.1753736       44.42124125
2009    15      0.14224573      37.84408375
2009    16      0.14353294      37.9557575
2009    17      0.14867836      38.9643825
2009    18      0.15338886      39.80626
2009    19      0.14032899      36.99089875
2009    20      0.1263764       34.21892625
2009    21      0.12401695      34.0812275
2009    22      0.15406735      40.171485
2009    23      0.20170658      49.4873825
2009    24      0.18373304      46.0739375
2009    25      0.15738316      40.76760625
2009    26      0.1601386       41.13807625
2009    27      0.1594316       41.116385
2009    28      0.15557724      40.36307625
2010    1       0.24633595      58.64151875
2010    2       0.26027793      61.11480875
2010    3       0.28065472      64.8969
2010    4       0.31692114      71.59169625
2010    5       0.30674935      70.08431875
2010    6       0.2385931       57.38620875
2010    7       0.23508551      56.35556875
2010    8       0.2063151       51.12793625
2010    9       0.23912747      57.00964625
2010    10      0.19862715      49.12615625
2010    11      0.19220724      47.98918125
2010    12      0.18424722      46.63994875
2010    13      0.18029414      46.10229625
2010    14      0.17441707      44.78985625
2010    15      0.17212036      43.8323425
2010    16      0.16901154      42.98750875
2010    17      0.16501179      42.11326875
2010    18      0.16380406      41.953015
2010    19      0.17463139      44.20667625
2010    20      0.17803369      44.9277425
2010    21      0.22839609      54.84231375
2010    22      0.23381751      56.04415
2010    23      0.24578467      58.75706125
2010    24      0.3007151       68.3915625
2010    25      0.23031691      55.16023625
2010    26      0.15124283      39.7445925
2010    27      0.16182449      41.85067375
2010    28      0.1533695       40.07093625
2011    1       0.2432533       57.9431275
2011    2       0.20692595      50.77925
2011    3       0.2135392       51.97088125
2011    4       0.25893542      60.80758875
2011    5       0.22178315      53.92975625
2011    6       0.18670361      47.18893625
2011    7       0.18598812      46.8652675
2011    8       0.2388605       56.97955375
2011    9       0.22384472      54.02994
2011    10      0.19682712      48.60120375
2011    11      0.19075192      47.382275
2011    12      0.20804013      50.81194625
2011    13      0.19416001      48.11772375
2011    14      0.18077602      45.63719375
2011    15      0.18771676      47.1212975
2011    16      0.17488199      45.1402075
2011    17      0.28006723      65.4950075
2011    18      0.26140239      62.38055375
2011    19      0.22610802      55.099245
2011    20      0.18827759      47.30355375
2011    21      0.18795871      47.28491
2011    22      0.18784305      47.41399625
2011    23      0.17883935      45.83056875
2011    24      0.16090997      41.9662475
2011    25      0.15518028      40.6890275
2011    26      0.14960391      39.4917875
2011    27      0.1597994       41.47745375
2011    28      0.13346679      35.81331125
2012    1       0.19975078      49.33584875
2012    2       0.18805289      47.02489375
2012    3       0.1661586       42.443085
2012    4       0.16590116      42.5544725
2012    5       0.25830254      60.57962625
2012    6       0.24261918      57.8047425
2012    7       0.18548571      46.8817725
2012    8       0.1727722       44.2459525
2012    9       0.15262504      40.12172125
2012    10      0.15025605      39.70865375
2012    11      0.15910259      41.48961125
2012    12      0.23161232      55.63391375
2012    13      0.22330922      54.06078375
2012    14      0.19065052      47.5933375
2012    15      0.16415285      42.1597625
2012    16      0.14563926      38.342685
2012    17      0.15752745      41.02973625
2012    18      0.34311614      76.15030375
2012    19      0.30041551      68.63744125
2012    20      0.10068122      29.25026625
2012    21      0.13216684      35.6845075
2012    22      0.18062135      45.39643375
2012    23      0.2069904       50.60447
2012    24      0.26179209      61.1005575
2012    25      0.2164168       52.60400375
2012    26      0.14782935      38.98818625
2012    27      0.13451454      35.91660875
2012    28      0.1395239       36.93357375
2012    29      0.15765701      40.62695
2013    1       0.20638532      51.10339
2013    2       0.22001941      53.4548925
2013    3       0.18718008      46.770445
2013    4       0.15572036      40.36308625
2013    5       0.15509636      40.26568
2013    6       0.15668201      40.52962375
2013    7       0.15275649      39.77791125
2013    8       0.16085184      41.37268625
2013    9       0.1493078       38.92669625
2013    10      0.14388051      37.815975
2013    11      0.14528333      38.12633875
2013    12      0.14317851      37.6891575
2013    13      0.13741845      36.47744625
2013    14      0.13799563      36.506715
2013    15      0.13562662      36.1562425
2013    16      0.13990375      37.2439975
2013    17      0.13784444      36.91706875
2013    18      0.13419351      36.17929125
2013    19      0.1488404       39.18095625
2013    20      0.18482653      46.194725
2013    21      0.25784292      60.3556825
2013    22      0.21731432      52.87701875
2013    23      0.18461192      46.70743125
2013    24      0.19293569      48.12004125
2013    25      0.17145172      43.74395625
2013    26      0.13741961      36.58659125
2013    27      0.13699961      36.409125
2013    28      0.17054795      43.21838875
2014    1       0.14881549      38.854955
2014    2       0.14477248      38.01265375
2014    3       0.14866849      38.83951125
2014    4       0.16044215      41.34697375
2014    5       0.15132901      39.5739275
2014    6       0.16445076      42.18404125
2014    7       0.1672707       43.07876375
2014    8       0.16404225      42.4946825
2014    9       0.16034798      41.5777775
2014    10      0.1694537       43.40589375
2014    11      0.15916982      41.33958125
2014    12      0.16136203      41.80679125
2014    13      0.160587        41.54137375
2014    14      0.16310242      41.90496375
2014    15      0.16125648      41.50514
2014    16      0.15465169      40.25009375
2014    17      0.13964769      37.11904375
2014    18      0.16365274      41.94319625
2014    19      0.15823694      40.8171175
2014    20      0.15356414      39.98052
2014    21      0.13883291      37.002345
2014    22      0.14426345      37.93899625
2014    23      0.17222217      43.80872125
2014    24      0.17073878      43.3720025
2014    25      0.15527885      40.3411575
2014    26      0.15664146      40.56375
2014    27      0.15595657      40.35416
2014    28      0.14168669      37.5525025
2015    1       0.19314339      48.6676925
2015    2       0.20036664      49.80601875
2015    3       0.21132382      51.88862
2015    4       0.20928696      51.2199125
2015    5       0.16923681      43.4347175
2015    6       0.15162276      40.05536375
2015    7       0.16741214      43.27658875
2015    8       0.17596064      45.0024325
2015    9       0.1997969       49.4070875
2015    10      0.19972631      49.3428875
2015    11      0.16792112      43.107505
2015    12      0.15637352      40.92273125
2015    13      0.2037473       50.07168625
2015    14      0.19000055      47.20190875
2015    15      0.17001085      43.26125375
2015    16      0.15647169      40.6506875
2015    17      0.18264761      46.0493675
2015    18      0.24391674      58.10518125
2015    19      0.22781097      54.95506125
2015    20      0.20599225      50.5717425
2015    21      0.32366451      72.32887875
2015    22      0.21683698      52.47151375
2015    23      0.17832524      45.0179075
2015    24      0.14175216      37.8833975
2015    25      0.15229162      39.6523475
2015    26      0.16509162      42.157945
2015    27      0.14704925      38.63187375
2015    28      0.12993868      35.10145
2016    1       0.1571946       40.843435
2016    2       0.18633176      46.70924375
2016    3       0.20938246      51.46172625
2016    4       0.19985225      49.4867075
2016    5       0.17585142      44.4570025
2016    6       0.16901306      43.10524625
2016    7       0.18527991      46.39051875
2016    8       0.16751755      42.900535
2016    9       0.17549222      44.585765
2016    10      0.18612319      46.70266375
2016    11      0.17269272      44.0605075
2016    12      0.18377581      46.1026675
2016    13      0.17706662      44.864205
2016    14      0.16807371      43.21677875
2016    15      0.1869601       46.78608375
2016    16      0.1617168       41.6143175
2016    17      0.1490499       38.99227625
2016    18      0.1539657       40.0249925
2016    19      0.14082125      37.4531025
2016    20      0.16859858      42.90281375
2016    21      0.19024161      47.23657
2016    22      0.22388174      54.0627825
2016    23      0.19505998      48.64182375
2016    24      0.21897208      53.2322825
2016    25      0.19162875      47.97997625
2016    26      0.2359172       56.7559675
2016    27      0.25113168      59.42622625
2016    28      0.2358955       56.7525225
2016    29      0.21615812      52.908645
2017    1       0.23032549      55.8620275
2017    2       0.25129611      59.674185
2017    3       0.21704028      53.24197625
2017    4       0.2399037       57.32694125
2017    5       0.22175526      53.8672825
2017    6       0.23486011      56.373245
2017    7       0.21452772      52.4252825
2017    8       0.12734458      34.8249325
2017    9       0.13173892      35.45600875
2017    10      0.16185976      41.6138075
2017    11      0.19115005      47.69328
2017    12      0.1887507       47.63386875
2017    13      0.19430028      48.2860225
2017    14      0.1681172       43.02046875
2017    15      0.17819974      45.13822875
2017    16      0.16672669      42.54950375
2017    17      0.15830998      40.87589
2017    18      0.15862775      40.99723625
2017    19      0.14218696      37.7649275
2017    20      0.13429315      36.13285875
2017    21      0.17759575      44.92172125
2017    22      0.20809298      50.99840875
2017    23      0.19658862      49.08383625
2017    24      0.24308201      57.7901925
2017    25      0.20700898      51.01312875
2017    26      0.17532404      44.42130875
2017    27      0.1924887       47.6962425
2017    28      0.189212        46.99570125
2018    1       0.18656915      46.8125
2018    2       0.18720299      46.9053325
2018    3       0.1824851       45.89989625
2018    4       0.17801129      44.94517875
2018    5       0.17058572      43.74023625
2018    6       0.24918236      58.9341575
2018    7       0.21790391      53.0538125
2018    8       0.205572        51.027525
2018    9       0.20756156      51.33178375
2018    10      0.23757423      56.8568175
2018    11      0.21724671      52.9850075
2018    12      0.19165434      48.0016
2018    13      0.18082609      45.55924375
2018    14      0.19813764      48.88812375
2018    15      0.24146034      57.41793
2018    16      0.19519926      48.25753625
2018    17      0.17398162      44.067455
2018    18      0.15799756      40.8454425
2018    19      0.1520087       39.66936875
2018    20      0.14400584      37.91090625
2018    21      0.14477286      38.2615325
2018    22      0.15163468      39.6326225
2018    23      0.15008081      39.31515875
2018    24      0.13624642      36.41147
2018    25      0.1394871       36.84732375
2018    26      0.11932105      32.73256875
2018    27      0.11728396      32.47907375
2018    28      0.13299989      35.84002875
