####################################################################################################
# Month: 01Jan                                                                                     #
# Station: FAIR                                                                                    #
# Frequency: 230 GHz                                                                               #
# Columns are: year    day     segment         tau     Tb (K)                                      #
####################################################################################################
2009    1       0       0.09186901      25.99035
2009    1       1       0.09205934      26.00495
2009    1       2       0.09095616      25.75642
2009    1       3       0.09290993      26.2352
2009    1       4       0.09793332      27.34193
2009    1       5       0.1046606       28.74703
2009    1       6       0.1069031       29.21674
2009    1       7       0.1079574       29.40071
2009    2       0       0.1085626       29.50067
2009    2       1       0.1090584       29.57043
2009    2       2       0.1077981       29.25698
2009    2       3       0.1049601       28.60574
2009    2       4       0.101912        27.91635
2009    2       5       0.09732427      26.91208
2009    2       6       0.09186661      25.69293
2009    2       7       0.08954661      25.15851
2009    3       0       0.0888633       25.03425
2009    3       1       0.08826858      24.93939
2009    3       2       0.08692345      24.64535
2009    3       3       0.08655709      24.5525
2009    3       4       0.08460918      24.1564
2009    3       5       0.08287373      23.80755
2009    3       6       0.08329071      23.90625
2009    3       7       0.08151819      23.78389
2009    4       0       0.08393662      24.0608
2009    4       1       0.08069741      23.35703
2009    4       2       0.07461587      22.01083
2009    4       3       0.07386775      21.86301
2009    4       4       0.07301155      21.6942
2009    4       5       0.07580581      22.32675
2009    4       6       0.08278324      23.88367
2009    4       7       0.07925128      23.11398
2009    5       0       0.07473478      22.09255
2009    5       1       0.07714044      22.58591
2009    5       2       0.07963822      23.30256
2009    5       3       0.07616558      22.55227
2009    5       4       0.07198918      21.6371
2009    5       5       0.07188208      21.40555
2009    5       6       0.07638834      22.41443
2009    5       7       0.07797778      22.78125
2009    6       0       0.07479112      22.05375
2009    6       1       0.07474127      22.0274
2009    6       2       0.07349463      21.9696
2009    6       3       0.07334799      21.92273
2009    6       4       0.07324675      21.89001
2009    6       5       0.07857289      23.07401
2009    6       6       0.08770825      25.07825
2009    6       7       0.09140127      25.91049
2009    7       0       0.09122199      25.90521
2009    7       1       0.09167014      26.0562
2009    7       2       0.1282454       34.14174
2009    7       3       0.0986001       27.37539
2009    7       4       0.09765325      27.16106
2009    7       5       0.09751363      27.12783
2009    7       6       0.09794372      27.18548
2009    7       7       0.09507628      26.56336
2009    8       0       0.08887118      25.34955
2009    8       1       0.07474149      22.28708
2009    8       2       0.0765839       22.40651
2009    8       3       0.07715247      22.52855
2009    8       4       0.07710726      22.53315
2009    8       5       0.07813092      22.79284
2009    8       6       0.08176808      23.65537
2009    8       7       0.0841672       24.25104
2009    9       0       0.08434704      24.34597
2009    9       1       0.08296533      24.08613
2009    9       2       0.08113881      23.727
2009    9       3       0.07717274      22.88859
2009    9       4       0.07354272      22.07274
2009    9       5       0.07102495      21.4856
2009    9       6       0.07365874      22.12847
2009    9       7       0.07612913      22.72513
2009    10      0       0.07714372      22.95049
2009    10      1       0.07901286      23.36341
2009    10      2       0.07289035      21.93559
2009    10      3       0.068771        20.96885
2009    10      4       0.06893415      21.01089
2009    10      5       0.06988996      21.2416
2009    10      6       0.0681428       20.85626
2009    10      7       0.06608969      20.39799
2009    11      0       0.06235852      19.50373
2009    11      1       0.06866048      21.0095
2009    11      2       0.08563582      24.98922
2009    11      3       0.08732449      25.38607
2009    11      4       0.07210344      21.80826
2009    11      5       0.06535995      20.195
2009    11      6       0.0649417       20.10777
2009    11      7       0.06099761      19.20612
2009    12      0       0.06226493      19.5835
2009    12      1       0.06450198      20.16985
2009    12      2       0.05867244      18.81271
2009    12      3       0.05757252      18.52325
2009    12      4       0.08181617      24.26849
2009    12      5       0.1829668       46.89321
2009    12      6       0.2282961       56.03705
2009    12      7       0.2556619       61.26427
2009    13      0       0.2711542       64.2113
2009    13      1       0.2854514       66.89115
2009    13      2       0.2912129       68.00232
2009    13      3       0.2874235       67.37265
2009    13      4       0.256231        61.50468
2009    13      5       0.2549898       61.35719
2009    13      6       0.2808132       66.28453
2009    13      7       0.3588054       80.43089
2009    14      0       0.3187295       73.82195
2009    14      1       0.4049216       89.33167
2009    14      2       0.5028155       105.5521
2009    14      3       0.6730541       130.3437
2009    14      4       0.6104355       123.1555
2009    14      5       0.7067972       137.7056
2009    14      6       0.7204455       139.8892
2009    14      7       0.7000003       136.5706
2009    15      0       0.7508815       142.4665
2009    15      1       0.5369066       113.1584
2009    15      2       0.6370798       127.7868
2009    15      3       0.5583359       116.0735
2009    15      4       0.5949799       121.4554
2009    15      5       0.4799251       103.584
2009    15      6       0.3632477       84.0334
2009    15      7       0.3730411       84.73655
2009    16      0       0.4700243       101.0465
2009    16      1       0.5057446       107.0752
2009    16      2       0.564778        115.9504
2009    16      3       0.6710249       131.3113
2009    16      4       0.6837581       133.687
2009    16      5       0.5066093       109.0665
2009    16      6       0.3564979       83.53755
2009    16      7       0.3185298       75.82332
2009    17      0       0.4688          102.5308
2009    17      1       0.656436        129.9825
2009    17      2       0.617232        124.7866
2009    17      3       0.4929114       105.1704
2009    17      4       0.2692252       66.27734
2009    17      5       0.3605718       82.6213
2009    17      6       0.3133528       74.09253
2009    17      7       0.3187219       74.91953
2009    18      0       0.3032776       72.14463
2009    18      1       0.2664445       65.05948
2009    18      2       0.229123        57.58332
2009    18      3       0.2489922       61.47663
2009    18      4       0.3179511       74.72881
2009    18      5       0.576635        116.5547
2009    18      6       0.7509402       140.1351
2009    18      7       0.5492336       114.7093
2009    19      0       0.4534441       99.55655
2009    19      1       0.4700336       101.9663
2009    19      2       0.489617        104.6111
2009    19      3       0.5246058       109.606
2009    19      4       0.4897609       104.8149
2009    19      5       0.6056886       121.2691
2009    19      6       0.7811703       144.6712
2009    19      7       0.5932403       120.3267
2009    20      0       0.5679644       116.3155
2009    20      1       0.5722073       116.2458
2009    20      2       0.661742        128.3399
2009    20      3       0.591557        118.4446
2009    20      4       0.5998711       119.446
2009    20      5       0.5066471       105.2852
2009    20      6       0.3123985       72.30068
2009    20      7       0.2334158       57.02639
2009    21      0       0.1913574       48.42747
2009    21      1       0.1350774       36.43735
2009    21      2       0.1182198       32.66816
2009    21      3       0.1065223       30.01842
2009    21      4       0.09803939      28.06608
2009    21      5       0.08897557      25.99383
2009    21      6       0.07735492      23.32692
2009    21      7       0.0609503       19.46019
2009    22      0       0.05107572      17.09484
2009    22      1       0.04012938      14.40563
2009    22      2       0.04128761      14.71056
2009    22      3       0.04674314      16.07832
2009    22      4       0.04416866      15.43882
2009    22      5       0.0407318       14.58994
2009    22      6       0.04144758      14.88377
2009    22      7       0.03885403      14.16997
2009    23      0       0.03837662      14.05898
2009    23      1       0.03840615      14.0679
2009    23      2       0.0401859       14.52322
2009    23      3       0.04344139      15.34953
2009    23      4       0.04672124      16.17635
2009    23      5       0.04882767      16.70669
2009    23      6       0.04995785      16.98347
2009    23      7       0.06469253      20.59696
2009    24      0       0.1225168       34.12913
2009    24      1       0.1665415       43.7391
2009    24      2       0.2687766       64.31153
2009    24      3       0.2887041       68.0342
2009    24      4       0.2918199       68.47195
2009    24      5       0.2838188       66.95905
2009    24      6       0.2900345       68.10975
2009    24      7       0.299644        69.79384
2009    25      0       0.2524876       61.00657
2009    25      1       0.2351955       57.61649
2009    25      2       0.2379943       58.11286
2009    25      3       0.2354014       57.39748
2009    25      4       0.2223954       54.76938
2009    25      5       0.2133471       52.95087
2009    25      6       0.232982        56.79807
2009    25      7       0.2776544       65.40992
2009    26      0       0.3342626       75.87704
2009    26      1       0.2959078       68.83455
2009    26      2       0.3744584       82.79995
2009    26      3       0.4593003       96.69011
2009    26      4       0.4200673       90.46908
2009    26      5       0.306286        70.63958
2009    26      6       0.4002097       86.94026
2009    26      7       0.4111294       88.5183
2009    27      0       0.4021288       87.18018
2009    27      1       0.3789332       83.32058
2009    27      2       0.4116369       88.53219
2009    27      3       0.3434564       76.7313
2009    27      4       0.3183823       72.31716
2009    27      5       0.2840123       65.89209
2009    27      6       0.2010631       49.52341
2009    27      7       0.1366145       35.96972
2009    28      0       0.1123979       30.6632
2009    28      1       0.098629        27.49071
2009    28      2       0.07684241      22.58364
2009    28      3       0.06921912      20.82083
2009    28      4       0.06821354      20.58986
2009    28      5       0.06993694      21.01145
2009    28      6       0.06094819      19.00337
2009    28      7       0.05622425      17.97241
2009    29      0       0.05725348      18.28518
2009    29      1       0.05895294      18.70209
2009    29      2       0.0643997       19.94465
2009    29      3       0.08142886      23.75629
2009    29      4       0.1226257       32.94242
2009    29      5       0.2244318       54.09717
2009    29      6       0.2881056       66.56816
2009    29      7       0.2900522       67.07107
2009    30      0       0.2952588       68.28771
2009    30      1       0.3406534       76.64652
2009    30      2       0.3130979       71.64157
2009    30      3       0.3179217       72.63842
2009    30      4       0.3143206       72.00908
2009    30      5       0.2873779       67.03843
2009    30      6       0.3207657       72.9263
2009    30      7       0.3405171       76.16145
2009    31      0       0.3252299       73.13668
2009    31      1       0.283773        66.70135
2009    31      2       0.2249328       54.97494
2009    31      3       0.1993932       49.50102
2009    31      4       0.155025        40.06852
2009    31      5       0.1462128       38.08052
2009    31      6       0.1244998       33.3254
2009    31      7       0.1103883       30.23451
2010    1       0       0.1692132       43.77793
2010    1       1       0.1977455       49.42163
2010    1       2       0.2102153       51.75048
2010    1       3       0.2201065       53.58984
2010    1       4       0.2231502       54.0563
2010    1       5       0.3035957       69.1965
2010    1       6       0.1306766       34.81889
2010    1       7       0.09556742      27.0119
2010    2       0       0.0842002       24.38786
2010    2       1       0.07144098      21.37444
2010    2       2       0.09730876      27.28412
2010    2       3       0.1043071       28.89611
2010    2       4       0.1064521       29.45253
2010    2       5       0.108101        29.87243
2010    2       6       0.1115558       30.62784
2010    2       7       0.1125184       30.8545
2010    3       0       0.1056229       29.37184
2010    3       1       0.09412238      26.83353
2010    3       2       0.08600006      25.01086
2010    3       3       0.07586808      22.71692
2010    3       4       0.06835753      21.03529
2010    3       5       0.06432652      20.13444
2010    3       6       0.08450289      24.81008
2010    3       7       0.1665364       42.88927
2010    4       0       0.1880313       47.51733
2010    4       1       0.222126        54.51657
2010    4       2       0.2374217       57.56658
2010    4       3       0.251604        60.33016
2010    4       4       0.2933757       68.60917
2010    4       5       0.3159217       72.8549
2010    4       6       0.3178393       73.16905
2010    4       7       0.3645992       81.4654
2010    5       0       0.3961319       87.28092
2010    5       1       0.409267        90.03403
2010    5       2       0.4211302       92.26118
2010    5       3       0.4271343       93.41086
2010    5       4       0.4278214       93.73228
2010    5       5       0.3576814       82.04462
2010    5       6       0.3556646       81.54732
2010    5       7       0.3419609       79.04657
2010    6       0       0.3166968       74.31086
2010    6       1       0.3064957       72.44598
2010    6       2       0.3028334       71.58912
2010    6       3       0.3539099       80.5841
2010    6       4       0.3841312       86.54147
2010    6       5       0.4845406       102.8829
2010    6       6       0.5008656       105.43
2010    6       7       0.4032428       89.6531
2010    7       0       0.3883215       86.76743
2010    7       1       0.3741752       84.31094
2010    7       2       0.3844607       86.37082
2010    7       3       0.4080389       90.39253
2010    7       4       0.4309967       94.13259
2010    7       5       0.4139431       91.57975
2010    7       6       0.4128745       91.64885
2010    7       7       0.4309889       95.02223
2010    8       0       0.4315894       95.20557
2010    8       1       0.4033676       90.4539
2010    8       2       0.3569971       82.61376
2010    8       3       0.339829        79.42045
2010    8       4       0.306881        72.94053
2010    8       5       0.2972486       70.9638
2010    8       6       0.2758202       66.50657
2010    8       7       0.2028008       52.73485
2010    9       0       0.1726288       46.11786
2010    9       1       0.1371018       38.05432
2010    9       2       0.100685        29.32525
2010    9       3       0.09292361      27.16072
2010    9       4       0.09831424      28.04918
2010    9       5       0.07303614      22.38969
2010    9       6       0.06884029      21.3089
2010    9       7       0.07100156      21.71961
2010    10      0       0.07509396      22.58203
2010    10      1       0.06464768      20.35551
2010    10      2       0.05940883      19.09312
2010    10      3       0.05545353      18.10002
2010    10      4       0.05311412      17.56719
2010    10      5       0.05177915      17.23205
2010    10      6       0.05016381      16.79774
2010    10      7       0.04945512      16.58825
2010    11      0       0.05054354      16.83219
2010    11      1       0.05125043      17.01222
2010    11      2       0.05294937      17.4531
2010    11      3       0.05572013      18.1021
2010    11      4       0.05589458      18.06654
2010    11      5       0.05571326      17.92012
2010    11      6       0.0545518       17.74403
2010    11      7       0.05404428      17.68101
2010    12      0       0.0540328       17.66359
2010    12      1       0.05354129      17.53751
2010    12      2       0.05196424      17.23286
2010    12      3       0.05183137      17.26225
2010    12      4       0.05392828      17.75505
2010    12      5       0.05648894      18.36245
2010    12      6       0.05808901      18.76908
2010    12      7       0.05593932      18.28507
2010    13      0       0.05557075      18.19215
2010    13      1       0.05880619      18.93041
2010    13      2       0.06438433      20.1176
2010    13      3       0.07964181      23.71234
2010    13      4       0.1190015       32.7266
2010    13      5       0.1905384       48.29804
2010    13      6       0.2548038       61.42132
2010    13      7       0.2932344       68.95184
2010    14      0       0.2972541       69.70455
2010    14      1       0.3797526       84.46887
2010    14      2       0.3991436       87.79564
2010    14      3       0.3945192       87.08473
2010    14      4       0.5186146       106.6898
2010    14      5       0.4628513       97.61353
2010    14      6       0.2830656       66.4408
2010    14      7       0.2227186       54.64134
2010    15      0       0.2089308       51.75861
2010    15      1       0.216202        53.17079
2010    15      2       0.2215497       54.27203
2010    15      3       0.2175325       53.40161
2010    15      4       0.2076944       51.26399
2010    15      5       0.2103752       51.70656
2010    15      6       0.2315805       55.76119
2010    15      7       0.205324        50.50938
2010    16      0       0.2023411       49.84464
2010    16      1       0.2370456       56.55224
2010    16      2       0.284417        65.66233
2010    16      3       0.3300839       74.14595
2010    16      4       0.309077        70.40262
2010    16      5       0.2458347       58.44695
2010    16      6       0.1874836       46.77584
2010    16      7       0.1906524       47.49204
2010    17      0       0.2128636       51.93176
2010    17      1       0.2561528       60.50985
2010    17      2       0.2965378       68.24127
2010    17      3       0.3177957       72.31978
2010    17      4       0.3558682       79.72301
2010    17      5       0.3859054       85.57218
2010    17      6       0.3098128       72.14545
2010    17      7       0.281546        66.89885
2010    18      0       0.3003154       70.25129
2010    18      1       0.2892074       68.18639
2010    18      2       0.2739107       65.24542
2010    18      3       0.2670303       63.87564
2010    18      4       0.2725309       64.85539
2010    18      5       0.2982855       69.79567
2010    18      6       0.3246839       74.60309
2010    18      7       0.3121138       72.23151
2010    19      0       0.3113949       72.20693
2010    19      1       0.308052        71.62572
2010    19      2       0.3083277       71.69429
2010    19      3       0.3025528       70.59757
2010    19      4       0.2715098       64.85514
2010    19      5       0.2244387       55.69273
2010    19      6       0.2049523       51.76156
2010    19      7       0.1992309       50.59852
2010    20      0       0.1966736       50.01972
2010    20      1       0.2084261       52.42628
2010    20      2       0.2433613       59.51528
2010    20      3       0.1979388       50.15244
2010    20      4       0.1763266       45.5941
2010    20      5       0.178251        46.17398
2010    20      6       0.189683        48.61127
2010    20      7       0.1928321       49.29293
2010    21      0       0.1898926       48.77814
2010    21      1       0.200114        50.97487
2010    21      2       0.220835        55.26087
2010    21      3       0.2187368       54.79768
2010    21      4       0.2088856       52.78615
2010    21      5       0.2075223       52.4154
2010    21      6       0.2127838       53.3203
2010    21      7       0.2163977       53.93526
2010    22      0       0.2155708       53.63081
2010    22      1       0.2277287       56.01818
2010    22      2       0.2933173       68.75154
2010    22      3       0.3248561       74.47136
2010    22      4       0.2911593       68.14196
2010    22      5       0.3019854       70.09516
2010    22      6       0.2950812       68.96854
2010    22      7       0.282855        66.70614
2010    23      0       0.2910884       68.25368
2010    23      1       0.279549        66.37491
2010    23      2       0.2727672       65.28316
2010    23      3       0.2633487       63.68258
2010    23      4       0.2523177       61.64724
2010    23      5       0.2367263       58.72366
2010    23      6       0.2103821       53.36147
2010    23      7       0.194965        50.32386
2010    24      0       0.2023989       52.06564
2010    24      1       0.2050845       52.71581
2010    24      2       0.1880798       49.06994
2010    24      3       0.1761275       46.43702
2010    24      4       0.1859147       48.66937
2010    24      5       0.1871965       48.93223
2010    24      6       0.1946427       50.46441
2010    24      7       0.2212174       56.03189
2010    25      0       0.2310407       57.92641
2010    25      1       0.2393501       59.30783
2010    25      2       0.2505143       61.24502
2010    25      3       0.2383537       58.85745
2010    25      4       0.2294936       57.14524
2010    25      5       0.2360222       58.2691
2010    25      6       0.2473139       60.38364
2010    25      7       0.2417438       59.30074
2010    26      0       0.225919        56.20107
2010    26      1       0.2130244       53.67085
2010    26      2       0.20122         51.25067
2010    26      3       0.1969416       50.28928
2010    26      4       0.1981013       50.43692
2010    26      5       0.2070773       52.20703
2010    26      6       0.2124805       53.24853
2010    26      7       0.2108084       52.88244
2010    27      0       0.2184756       54.39575
2010    27      1       0.2261011       55.89136
2010    27      2       0.2339472       57.36943
2010    27      3       0.2476337       59.98054
2010    27      4       0.2611858       62.52157
2010    27      5       0.2831803       66.55649
2010    27      6       0.2973206       69.05754
2010    27      7       0.2999101       69.54964
2010    28      0       0.2694671       64.1159
2010    28      1       0.2438301       59.38052
2010    28      2       0.2656098       63.87339
2010    28      3       0.3127944       72.93882
2010    28      4       0.3154358       73.33464
2010    28      5       0.2854625       67.65633
2010    28      6       0.3682648       83.20023
2010    28      7       0.3679292       83.34226
2010    29      0       0.3783468       85.00348
2010    29      1       0.3743206       84.36247
2010    29      2       0.3886716       86.99897
2010    29      3       0.38047         85.8208
2010    29      4       0.3525479       81.3148
2010    29      5       0.3305801       77.57927
2010    29      6       0.308578        73.4792
2010    29      7       0.2993892       71.72796
2010    30      0       0.3312821       77.60762
2010    30      1       0.3582767       82.59975
2010    30      2       0.3643572       83.53274
2010    30      3       0.3506655       80.87419
2010    30      4       0.3266302       76.40965
2010    30      5       0.341174        78.91398
2010    30      6       0.3680449       83.50692
2010    30      7       0.3666441       83.20163
2010    31      0       0.3618839       82.48791
2010    31      1       0.3487793       80.20015
2010    31      2       0.3060342       72.47317
2010    31      3       0.3057046       72.66237
2010    31      4       0.3045034       72.30036
2010    31      5       0.2972533       70.62994
2010    31      6       0.2911497       69.26767
2010    31      7       0.2998315       70.83929
2011    1       0       0.4997174       105.3061
2011    1       1       0.6848563       130.9479
2011    1       2       0.3215082       74.39286
2011    1       3       0.3011324       70.76374
2011    1       4       0.2925279       69.6486
2011    1       5       0.3194464       74.67477
2011    1       6       0.4741365       100.832
2011    1       7       0.4952519       105.2311
2011    2       0       0.4341162       95.47008
2011    2       1       0.3617078       82.96824
2011    2       2       0.3550864       81.68359
2011    2       3       0.5533984       113.3836
2011    2       4       0.4291802       94.75028
2011    2       5       0.4909453       103.8151
2011    2       6       0.512347        107.0577
2011    2       7       0.4267862       94.0405
2011    3       0       0.3537272       81.66049
2011    3       1       0.3472989       80.44075
2011    3       2       0.3748197       85.49225
2011    3       3       0.3649787       83.80202
2011    3       4       0.4060084       90.84837
2011    3       5       0.4188721       93.12279
2011    3       6       0.4228991       93.67647
2011    3       7       0.4806709       103.4213
2011    4       0       0.4371184       96.53806
2011    4       1       0.3840171       87.69721
2011    4       2       0.3507174       81.95979
2011    4       3       0.3764483       86.50894
2011    4       4       0.6433529       128.5945
2011    4       5       0.4425431       96.7488
2011    4       6       0.5161869       108.734
2011    4       7       0.6567721       128.5065
2011    5       0       0.6165868       123.1535
2011    5       1       0.6993765       133.8026
2011    5       2       0.5398922       111.3042
2011    5       3       0.2904475       69.11359
2011    5       4       0.218311        54.8209
2011    5       5       0.1938012       49.68207
2011    5       6       0.1980202       50.68942
2011    5       7       0.2287089       57.12808
2011    6       0       0.1907486       49.08738
2011    6       1       0.1873823       48.15843
2011    6       2       0.2000749       50.71799
2011    6       3       0.2295635       56.62783
2011    6       4       0.2772389       65.96605
2011    6       5       0.326144        74.95844
2011    6       6       0.3085894       71.40387
2011    6       7       0.4222609       90.86094
2011    7       0       0.2891302       67.21156
2011    7       1       0.3232077       73.43321
2011    7       2       0.2591236       61.52239
2011    7       3       0.212839        52.49132
2011    7       4       0.1678997       43.36039
2011    7       5       0.157681        41.26517
2011    7       6       0.1567711       41.09957
2011    7       7       0.134856        36.43005
2011    8       0       0.1013685       29.02054
2011    8       1       0.0837548       24.98846
2011    8       2       0.1496759       39.80503
2011    8       3       0.158245        41.64653
2011    8       4       0.1864504       47.52119
2011    8       5       0.2280012       56.051
2011    8       6       0.2407372       58.7255
2011    8       7       0.2277391       56.30546
2011    9       0       0.2134331       53.66736
2011    9       1       0.2026958       51.59469
2011    9       2       0.1924459       49.41591
2011    9       3       0.2776635       66.60007
2011    9       4       0.3823267       85.72812
2011    9       5       0.3096983       72.54333
2011    9       6       0.3327793       76.68455
2011    9       7       0.5169422       108.1752
2011    10      0       0.4929866       105.0449
2011    10      1       0.5841576       119.1537
2011    10      2       0.6636728       130.362
2011    10      3       0.5174399       109.2517
2011    10      4       0.4302644       95.27458
2011    10      5       0.4087303       91.17682
2011    10      6       0.3756004       85.3667
2011    10      7       0.366491        83.62482
2011    11      0       0.3357003       78.10497
2011    11      1       0.2370514       59.09084
2011    11      2       0.2176042       54.95845
2011    11      3       0.1974888       50.66612
2011    11      4       0.179799        46.79681
2011    11      5       0.1427096       38.60895
2011    11      6       0.09507448      27.59978
2011    11      7       0.08652714      25.49223
2011    12      0       0.0903531       26.30818
2011    12      1       0.08184604      24.21071
2011    12      2       0.08017446      23.81066
2011    12      3       0.07303332      22.20556
2011    12      4       0.06535118      20.52198
2011    12      5       0.07084181      21.75519
2011    12      6       0.07929757      23.66847
2011    12      7       0.08581245      25.13148
2011    13      0       0.08241853      24.36711
2011    13      1       0.08120477      24.0892
2011    13      2       0.09989148      28.27671
2011    13      3       0.1078082       30.1124
2011    13      4       0.1220616       33.15818
2011    13      5       0.09776845      27.72473
2011    13      6       0.1030077       28.83739
2011    13      7       0.100452        28.69579
2011    14      0       0.09362534      27.08477
2011    14      1       0.09035709      26.0091
2011    14      2       0.0894293       25.84956
2011    14      3       0.09576203      27.2401
2011    14      4       0.08655605      25.10694
2011    14      5       0.08221957      24.15197
2011    14      6       0.07666442      22.9757
2011    14      7       0.07178077      21.88325
2011    15      0       0.07042816      21.58235
2011    15      1       0.07166668      21.85296
2011    15      2       0.069247        21.40226
2011    15      3       0.07125596      21.71397
2011    15      4       0.07353316      22.39157
2011    15      5       0.07272308      22.23708
2011    15      6       0.07674804      23.15877
2011    15      7       0.09184426      26.6397
2011    16      0       0.0980933       28.05209
2011    16      1       0.097766        27.89689
2011    16      2       0.09546038      27.62141
2011    16      3       0.1001124       28.8592
2011    16      4       0.1048684       29.81956
2011    16      5       0.1039929       29.65939
2011    16      6       0.1156887       32.33243
2011    16      7       0.1159862       32.39344
2011    17      0       0.1107329       31.22832
2011    17      1       0.09973123      28.70078
2011    17      2       0.08469042      25.16854
2011    17      3       0.07954193      23.93477
2011    17      4       0.08259233      24.84288
2011    17      5       0.08842464      26.21715
2011    17      6       0.09506198      27.58229
2011    17      7       0.1024844       28.94906
2011    18      0       0.1050993       29.40638
2011    18      1       0.1128501       31.29359
2011    18      2       0.1346739       35.77118
2011    18      3       0.1547696       39.97005
2011    18      4       0.14877         38.42602
2011    18      5       0.10825         29.75864
2011    18      6       0.08270679      24.05482
2011    18      7       0.07323918      21.89372
2011    19      0       0.08780391      25.20059
2011    19      1       0.08981595      25.64752
2011    19      2       0.08767283      25.19071
2011    19      3       0.07919568      23.33373
2011    19      4       0.0695074       21.14839
2011    19      5       0.0636787       19.81197
2011    19      6       0.0610424       19.1906
2011    19      7       0.06137095      19.28195
2011    20      0       0.06700212      20.66867
2011    20      1       0.08436433      24.80391
2011    20      2       0.09480379      27.23336
2011    20      3       0.09934132      28.1628
2011    20      4       0.0852439       24.9047
2011    20      5       0.06836904      20.99615
2011    20      6       0.06468117      20.12943
2011    20      7       0.05732837      18.37818
2011    21      0       0.05463921      17.70951
2011    21      1       0.05653835      18.13108
2011    21      2       0.06355732      19.80333
2011    21      3       0.0686719       21.00965
2011    21      4       0.0716877       21.687
2011    21      5       0.06825384      20.83644
2011    21      6       0.08121029      23.85287
2011    21      7       0.1828046       46.4698
2011    22      0       0.1757466       44.95386
2011    22      1       0.2165055       53.41244
2011    22      2       0.2551165       61.02495
2011    22      3       0.2728256       64.39599
2011    22      4       0.3226978       73.39805
2011    22      5       0.3250476       73.8496
2011    22      6       0.4115324       88.63114
2011    22      7       0.3551224       78.62971
2011    23      0       0.1675732       42.57696
2011    23      1       0.07457651      22.23309
2011    23      2       0.06888946      20.88499
2011    23      3       0.06476633      19.91968
2011    23      4       0.05957924      18.72529
2011    23      5       0.05898589      18.63956
2011    23      6       0.07169542      21.69038
2011    23      7       0.1211673       32.90129
2011    24      0       0.3148624       71.92138
2011    24      1       0.4224123       90.87394
2011    24      2       0.3793265       83.65538
2011    24      3       0.409673        88.95665
2011    24      4       0.4897827       102.542
2011    24      5       0.5152656       106.4434
2011    24      6       0.4801689       101.55
2011    24      7       0.3784833       85.04007
2011    25      0       0.363492        81.9163
2011    25      1       0.4514597       96.67287
2011    25      2       0.3925395       87.26412
2011    25      3       0.370793        83.70425
2011    25      4       0.3038251       71.8112
2011    25      5       0.2903819       69.05357
2011    25      6       0.4870173       102.552
2011    25      7       0.3205697       74.81682
2011    26      0       0.2770274       66.53313
2011    26      1       0.3967517       88.12544
2011    26      2       0.3505209       80.10502
2011    26      3       0.347618        79.51943
2011    26      4       0.3626864       82.20179
2011    26      5       0.3660104       82.77079
2011    26      6       0.3554837       80.84335
2011    26      7       0.3496528       79.68135
2011    27      0       0.3509887       79.88184
2011    27      1       0.3565396       80.79672
2011    27      2       0.3822769       85.02376
2011    27      3       0.3792071       84.47829
2011    27      4       0.4317065       93.34586
2011    27      5       0.393081        86.76077
2011    27      6       0.2939529       68.92392
2011    27      7       0.2801098       66.27566
2011    28      0       0.2648664       63.2768
2011    28      1       0.2491738       60.28728
2011    28      2       0.2391941       58.39494
2011    28      3       0.2410413       58.85928
2011    28      4       0.2329079       57.26622
2011    28      5       0.2311282       56.84543
2011    28      6       0.2963232       69.85169
2011    28      7       0.2885938       68.66989
2011    29      0       0.1890568       48.62031
2011    29      1       0.1669932       43.93479
2011    29      2       0.1692399       44.53533
2011    29      3       0.1856313       48.22057
2011    29      4       0.196648        50.51898
2011    29      5       0.1841776       47.72653
2011    29      6       0.1731159       45.27351
2011    29      7       0.176457        45.92121
2011    30      0       0.1752709       45.68906
2011    30      1       0.1751256       45.85696
2011    30      2       0.2003551       51.66734
2011    30      3       0.1405854       38.58537
2011    30      4       0.1261186       35.32878
2011    30      5       0.1387638       38.21132
2011    30      6       0.1404721       38.52234
2011    30      7       0.1330069       36.83241
2011    31      0       0.1250363       35.02513
2011    31      1       0.1288743       35.85465
2011    31      2       0.1354081       37.29698
2011    31      3       0.158763        42.32737
2011    31      4       0.1542308       41.15666
2011    31      5       0.2655455       64.3462
2011    31      6       0.3358456       77.60189
2011    31      7       0.2844778       68.23635
2012    1       0       0.1281575       33.67779
2012    1       1       0.1272749       33.52996
2012    1       2       0.1172491       31.52792
2012    1       3       0.1181916       31.78532
2012    1       4       0.1387912       36.18616
2012    1       5       0.1572349       40.19791
2012    1       6       0.1793947       44.88616
2012    1       7       0.3163676       71.58452
2012    2       0       0.3251093       73.05591
2012    2       1       0.3355065       74.94943
2012    2       2       0.2948046       67.92873
2012    2       3       0.2835827       66.03139
2012    2       4       0.3773377       82.88751
2012    2       5       0.4404285       93.24838
2012    2       6       0.2859458       66.0854
2012    2       7       0.1481335       38.20415
2012    3       0       0.2164087       51.85671
2012    3       1       0.179335        44.57549
2012    3       2       0.1004251       27.99215
2012    3       3       0.08855014      25.36982
2012    3       4       0.08947538      25.64156
2012    3       5       0.1012784       28.33024
2012    3       6       0.130868        34.80522
2012    3       7       0.1570272       40.41485
2012    4       0       0.1657801       42.33509
2012    4       1       0.170577        43.40946
2012    4       2       0.1670745       42.84812
2012    4       3       0.1764144       45.06648
2012    4       4       0.184902        47.04546
2012    4       5       0.2615873       62.48967
2012    4       6       0.3748841       82.9389
2012    4       7       0.4079938       89.71953
2012    5       0       0.4404646       95.62381
2012    5       1       0.5184975       108.5317
2012    5       2       0.4361105       95.09338
2012    5       3       0.3521951       79.9843
2012    5       4       0.1957591       49.14574
2012    5       5       0.1233602       33.25803
2012    5       6       0.06053152      19.06236
2012    5       7       0.04684166      15.87603
2012    6       0       0.1833767       46.36145
2012    6       1       0.2094002       51.81706
2012    6       2       0.2024475       50.4169
2012    6       3       0.240178        57.70327
2012    6       4       0.2825118       66.06791
2012    6       5       0.2653567       62.88859
2012    6       6       0.2445493       58.83877
2012    6       7       0.442307        93.84664
2012    7       0       0.1933362       48.17984
2012    7       1       0.09098266      26.46263
2012    7       2       0.07065944      21.78372
2012    7       3       0.07206814      22.0596
2012    7       4       0.08868737      25.6969
2012    7       5       0.1268186       34.03206
2012    7       6       0.218274        53.08276
2012    7       7       0.239999        57.60013
2012    8       0       0.2920111       67.70543
2012    8       1       0.3067559       70.83776
2012    8       2       0.5117111       105.6783
2012    8       3       0.5372766       109.5163
2012    8       4       0.5263211       109.3984
2012    8       5       0.3754157       84.53858
2012    8       6       0.3753947       84.92821
2012    8       7       0.3354026       75.40894
2012    9       0       0.2500877       58.97787
2012    9       1       0.1276743       34.02664
2012    9       2       0.1033997       28.88839
2012    9       3       0.103429        28.45245
2012    9       4       0.09194757      25.83935
2012    9       5       0.08579964      24.41141
2012    9       6       0.08407116      24.02268
2012    9       7       0.08594709      24.44816
2012    10      0       0.07388763      21.83163
2012    10      1       0.07990703      23.32484
2012    10      2       0.08608455      24.66624
2012    10      3       0.111438        30.37328
2012    10      4       0.1574036       40.50537
2012    10      5       0.1981616       49.38283
2012    10      6       0.2405758       58.26102
2012    10      7       0.255543        61.27198
2012    11      0       0.2773628       65.62661
2012    11      1       0.3235871       74.46316
2012    11      2       0.3133355       72.79202
2012    11      3       0.2830252       67.38109
2012    11      4       0.2683787       64.74538
2012    11      5       0.2498122       61.11877
2012    11      6       0.2381517       58.705
2012    11      7       0.2897872       68.61184
2012    12      0       0.3156571       73.49712
2012    12      1       0.2782043       66.21205
2012    12      2       0.3633452       81.17779
2012    12      3       0.4383702       93.90477
2012    12      4       0.4139265       90.19299
2012    12      5       0.4347821       93.4398
2012    12      6       0.4758232       99.99402
2012    12      7       0.5218309       106.2617
2012    13      0       0.4248895       91.83445
2012    13      1       0.3061646       70.8598
2012    13      2       0.2602403       60.88372
2012    13      3       0.2358959       56.07112
2012    13      4       0.2013425       49.17223
2012    13      5       0.1145404       30.98865
2012    13      6       0.1348984       35.37111
2012    13      7       0.1283426       34.57021
2012    14      0       0.1168244       31.98706
2012    14      1       0.09165596      26.25754
2012    14      2       0.08485843      24.49328
2012    14      3       0.08440266      24.44128
2012    14      4       0.08664024      24.97185
2012    14      5       0.08085397      23.64483
2012    14      6       0.07582177      22.51793
2012    14      7       0.07428065      22.19012
2012    15      0       0.07177204      21.61179
2012    15      1       0.06968258      21.10724
2012    15      2       0.07417054      22.12044
2012    15      3       0.07852645      23.11428
2012    15      4       0.08090839      23.62635
2012    15      5       0.08119075      23.63187
2012    15      6       0.07892984      23.10328
2012    15      7       0.08465458      24.37002
2012    16      0       0.0930522       26.21367
2012    16      1       0.09695202      27.03604
2012    16      2       0.1052907       28.88193
2012    16      3       0.1091797       29.74615
2012    16      4       0.1073432       29.32856
2012    16      5       0.101713        28.09215
2012    16      6       0.1035802       28.47721
2012    16      7       0.09500853      26.56828
2012    17      0       0.09465093      26.52053
2012    17      1       0.09793542      27.24777
2012    17      2       0.1018041       28.07531
2012    17      3       0.1038833       28.5569
2012    17      4       0.1034129       28.56654
2012    17      5       0.09879592      27.59028
2012    17      6       0.078789        23.06966
2012    17      7       0.07828641      22.97526
2012    18      0       0.07728549      22.75678
2012    18      1       0.0744926       22.18325
2012    18      2       0.08079899      23.69652
2012    18      3       0.1019055       28.55374
2012    18      4       0.09328206      26.57997
2012    18      5       0.07896957      23.40131
2012    18      6       0.07332547      21.96519
2012    18      7       0.0937843       26.55729
2012    19      0       0.1063393       29.32862
2012    19      1       0.1212883       32.60145
2012    19      2       0.1321861       34.95162
2012    19      3       0.1473174       38.23498
2012    19      4       0.15496         39.8648
2012    19      5       0.1707555       43.05873
2012    19      6       0.1771389       44.40401
2012    19      7       0.199476        48.9877
2012    20      0       0.1548466       39.74862
2012    20      1       0.1402937       36.70691
2012    20      2       0.1194956       32.35165
2012    20      3       0.1051924       29.24867
2012    20      4       0.1002738       28.24857
2012    20      5       0.1097139       30.39342
2012    20      6       0.1108803       30.77616
2012    20      7       0.1113998       31.01789
2012    21      0       0.1236987       33.68722
2012    21      1       0.1430895       37.74875
2012    21      2       0.1570259       40.50618
2012    21      3       0.162433        41.51759
2012    21      4       0.1540876       39.72407
2012    21      5       0.1399687       36.70569
2012    21      6       0.1192268       32.14481
2012    21      7       0.1031993       28.57663
2012    22      0       0.10575         29.08928
2012    22      1       0.1076682       29.5367
2012    22      2       0.1144415       31.00635
2012    22      3       0.1197578       32.165
2012    22      4       0.1276458       33.94668
2012    22      5       0.130862        34.7536
2012    22      6       0.1765618       44.42983
2012    22      7       0.1879531       46.9839
2012    23      0       0.1933676       47.80483
2012    23      1       0.2009153       49.37736
2012    23      2       0.2140586       51.98199
2012    23      3       0.2475524       58.55438
2012    23      4       0.2393636       56.85493
2012    23      5       0.3310273       75.21986
2012    23      6       0.2484865       59.6882
2012    23      7       0.2493068       59.83686
2012    24      0       0.2423184       58.5459
2012    24      1       0.2429734       58.61886
2012    24      2       0.2360501       57.45908
2012    24      3       0.2469519       59.7968
2012    24      4       0.2256392       55.45648
2012    24      5       0.2363181       57.56206
2012    24      6       0.1909962       48.26553
2012    24      7       0.1595574       41.56632
2012    25      0       0.1597729       40.54898
2012    25      1       0.158762        40.33215
2012    25      2       0.1474296       37.93026
2012    25      3       0.1249191       34.03571
2012    25      4       0.1509342       39.59965
2012    25      5       0.1344207       35.18726
2012    25      6       0.1456137       37.45667
2012    25      7       0.133777        34.90541
2012    26      0       0.1176325       31.39568
2012    26      1       0.1002643       27.59525
2012    26      2       0.09944864      27.41618
2012    26      3       0.1036798       28.33472
2012    26      4       0.09745006      26.95412
2012    26      5       0.09015092      25.36162
2012    26      6       0.08569974      24.39443
2012    26      7       0.1041078       28.87314
2012    27      0       0.1077533       29.59577
2012    27      1       0.1143414       31.01514
2012    27      2       0.1026565       28.31546
2012    27      3       0.09519348      26.59669
2012    27      4       0.0938231       26.26451
2012    27      5       0.08697901      24.69979
2012    27      6       0.1059393       28.97649
2012    27      7       0.08002468      23.0142
2012    28      0       0.07671561      22.25952
2012    28      1       0.07835851      22.61854
2012    28      2       0.0783236       22.62154
2012    28      3       0.07754228      22.48245
2012    28      4       0.07843789      22.74307
2012    28      5       0.07557112      22.13642
2012    28      6       0.07395411      21.81266
2012    28      7       0.07191239      21.38752
2012    29      0       0.06964118      20.89552
2012    29      1       0.06568916      20.00461
2012    29      2       0.05937961      18.57534
2012    29      3       0.05244986      16.99325
2012    29      4       0.0494271       16.28707
2012    29      5       0.04850568      16.08337
2012    29      6       0.05135882      16.76574
2012    29      7       0.05969593      18.68543
2012    30      0       0.07071282      21.21362
2012    30      1       0.08429845      24.30214
2012    30      2       0.09196088      26.04915
2012    30      3       0.09845643      27.51432
2012    30      4       0.1039365       28.73245
2012    30      5       0.1142382       31.04475
2012    30      6       0.1603259       41.02859
2012    30      7       0.2213289       53.42742
2012    31      0       0.2361096       56.39708
2012    31      1       0.2424989       57.65343
2012    31      2       0.2225736       53.92444
2012    31      3       0.2329593       56.01746
2012    31      4       0.247778        58.8821
2012    31      5       0.2361264       56.60575
2012    31      6       0.2222902       53.88805
2012    31      7       0.158695        40.9816
2013    1       0       0.3636238       82.49868
2013    1       1       0.3377184       77.88732
2013    1       2       0.2441948       60.09934
2013    1       3       0.2001258       51.19394
2013    1       4       0.2098793       52.95126
2013    1       5       0.3812396       85.66639
2013    1       6       0.45653         98.47429
2013    1       7       0.4894834       103.4795
2013    2       0       0.5460375       111.4258
2013    2       1       0.5596443       113.9972
2013    2       2       0.5330551       109.8962
2013    2       3       0.3902521       87.19157
2013    2       4       0.5928512       118.5375
2013    2       5       0.4309206       93.56227
2013    2       6       0.3877913       86.43968
2013    2       7       0.3365341       77.43251
2013    3       0       0.3292494       75.94914
2013    3       1       0.3194953       74.19119
2013    3       2       0.3020855       70.97132
2013    3       3       0.3044567       71.2371
2013    3       4       0.3026686       70.90826
2013    3       5       0.318981        73.91663
2013    3       6       0.322046        74.70077
2013    3       7       0.2797534       67.02829
2013    4       0       0.2832966       67.78838
2013    4       1       0.2813073       67.34239
2013    4       2       0.2950442       69.9953
2013    4       3       0.3100081       72.74154
2013    4       4       0.3060678       71.68247
2013    4       5       0.3262926       75.23082
2013    4       6       0.3545488       80.2995
2013    4       7       0.4380282       94.16176
2013    5       0       0.4001148       88.14652
2013    5       1       0.3351546       76.84845
2013    5       2       0.3029203       71.17478
2013    5       3       0.250673        60.88796
2013    5       4       0.2932713       69.04107
2013    5       5       0.3455041       78.94736
2013    5       6       0.2471903       60.21075
2013    5       7       0.2277029       56.18069
2013    6       0       0.2274051       56.03315
2013    6       1       0.250932        60.99011
2013    6       2       0.3065792       71.96423
2013    6       3       0.3724063       83.99302
2013    6       4       0.4047144       89.75825
2013    6       5       0.4409499       95.74427
2013    6       6       0.4583988       98.25818
2013    6       7       0.4490044       96.50727
2013    7       0       0.3641909       82.23771
2013    7       1       0.3018966       70.94576
2013    7       2       0.2878809       68.17917
2013    7       3       0.2593155       62.73003
2013    7       4       0.2587481       62.47808
2013    7       5       0.3994638       87.93579
2013    7       6       0.3826223       85.12186
2013    7       7       0.3091338       72.25055
2013    8       0       0.2666849       64.4043
2013    8       1       0.2582506       62.74441
2013    8       2       0.247662        60.49338
2013    8       3       0.2463276       59.98532
2013    8       4       0.2591672       62.40144
2013    8       5       0.274885        65.3599
2013    8       6       0.3164963       72.89361
2013    8       7       0.3786782       83.62497
2013    9       0       0.3872839       84.65712
2013    9       1       0.3963276       85.89901
2013    9       2       0.2696907       63.20775
2013    9       3       0.2135904       52.25972
2013    9       4       0.2010819       49.76992
2013    9       5       0.1448835       38.05097
2013    9       6       0.1312397       35.14161
2013    9       7       0.1301382       34.96794
2013    10      0       0.1648864       42.63764
2013    10      1       0.1701286       43.96077
2013    10      2       0.1329174       36.08936
2013    10      3       0.1495296       39.53449
2013    10      4       0.2258835       54.90192
2013    10      5       0.273262        64.61338
2013    10      6       0.3680035       81.92073
2013    10      7       0.4921666       102.043
2013    11      0       0.5969201       117.743
2013    11      1       0.472759        99.59576
2013    11      2       0.1690089       43.84233
2013    11      3       0.1036161       29.48656
2013    11      4       0.09571732      27.58648
2013    11      5       0.1204192       33.11528
2013    11      6       0.1525915       40.12519
2013    11      7       0.3109485       71.53769
2013    12      0       0.6029436       119.1917
2013    12      1       0.5648347       113.7559
2013    12      2       0.5348945       109.1606
2013    12      3       0.3420856       77.53089
2013    12      4       0.208562        51.9521
2013    12      5       0.2837939       66.94313
2013    12      6       0.4702548       99.48407
2013    12      7       0.5321905       109.1754
2013    13      0       0.4528139       98.21057
2013    13      1       0.582172        117.4825
2013    13      2       0.5779046       117.6717
2013    13      3       0.6310282       125.7921
2013    13      4       0.8014544       147.6806
2013    13      5       0.8847808       158.2236
2013    13      6       1.059409        175.0257
2013    13      7       0.5487664       114.3502
2013    14      0       0.6538452       127.8115
2013    14      1       0.6462516       126.6181
2013    14      2       0.7900704       145.2094
2013    14      3       0.8862775       156.4921
2013    14      4       0.7569878       142.2951
2013    14      5       0.8245499       150.531
2013    14      6       0.8655336       155.125
2013    14      7       0.7511023       142.0166
2013    15      0       0.4639694       100.578
2013    15      1       0.8891267       155.6855
2013    15      2       0.941298        160.5395
2013    15      3       0.2829765       66.89062
2013    15      4       0.2622474       62.31846
2013    15      5       0.1828967       46.24715
2013    15      6       0.1339797       35.8981
2013    15      7       0.1370816       36.44258
2013    16      0       0.1279149       34.41592
2013    16      1       0.133615        35.62551
2013    16      2       0.1347053       35.84428
2013    16      3       0.201354        49.61745
2013    16      4       0.1754903       44.26235
2013    16      5       0.1883605       46.95033
2013    16      6       0.1942885       48.19933
2013    16      7       0.1828863       46.01001
2013    17      0       0.1841679       46.43879
2013    17      1       0.2446876       58.51405
2013    17      2       0.2582912       61.11037
2013    17      3       0.3142896       71.48197
2013    17      4       0.2841598       65.75394
2013    17      5       0.3011686       68.80321
2013    17      6       0.1866872       46.56291
2013    17      7       0.1556027       40.15115
2013    18      0       0.1336158       35.36295
2013    18      1       0.1165668       31.58876
2013    18      2       0.100847        28.07739
2013    18      3       0.09467838      26.66119
2013    18      4       0.08973039      25.51157
2013    18      5       0.08891631      25.34422
2013    18      6       0.0847352       24.45952
2013    18      7       0.08026111      23.51075
2013    19      0       0.07890813      23.23364
2013    19      1       0.07457366      22.27813
2013    19      2       0.06704017      20.59536
2013    19      3       0.06844811      20.91723
2013    19      4       0.07905455      23.35862
2013    19      5       0.09494947      26.99661
2013    19      6       0.132981        35.47203
2013    19      7       0.2350718       56.9047
2013    20      0       0.3117168       72.01108
2013    20      1       0.3788278       84.43153
2013    20      2       0.3508566       80.50567
2013    20      3       0.3770689       85.60563
2013    20      4       0.5603394       114.5667
2013    20      5       0.9333014       161.383
2013    20      6       0.5989564       121.2813
2013    20      7       0.5427081       112.9133
2013    21      0       0.6070412       121.5271
2013    21      1       0.7023125       134.3888
2013    21      2       0.8466467       151.3029
2013    21      3       0.8125139       146.7521
2013    21      4       0.5976204       118.9075
2013    21      5       0.5725449       115.8233
2013    21      6       0.5451075       114.3422
2013    21      7       0.4818464       105.5102
2013    22      0       0.4516422       100.81
2013    22      1       0.3018797       72.10532
2013    22      2       0.2698933       66.0735
2013    22      3       0.2525358       62.58713
2013    22      4       0.2793391       67.96516
2013    22      5       0.2981054       71.70072
2013    22      6       0.3103935       74.04659
2013    22      7       0.3223498       76.28373
2013    23      0       0.3234425       76.42808
2013    23      1       0.3139299       74.43443
2013    23      2       0.3103963       73.68129
2013    23      3       0.3097334       74.24236
2013    23      4       0.333764        78.47636
2013    23      5       0.2978499       71.23739
2013    23      6       0.2686361       65.68801
2013    23      7       0.262763        64.4895
2013    24      0       0.3880204       88.16212
2013    24      1       0.3824597       87.00423
2013    24      2       0.3213781       75.47949
2013    24      3       0.4808739       102.9602
2013    24      4       0.361358        81.59723
2013    24      5       0.4084999       89.83749
2013    24      6       0.358662        81.07293
2013    24      7       0.3682564       82.69796
2013    25      0       0.4037896       88.41058
2013    25      1       0.3722331       82.597
2013    25      2       0.313801        71.76065
2013    25      3       0.2336828       56.30227
2013    25      4       0.1735225       44.15792
2013    25      5       0.172259        43.97354
2013    25      6       0.1245342       33.63577
2013    25      7       0.0904474       25.88721
2013    26      0       0.08067379      23.64019
2013    26      1       0.07610013      22.66003
2013    26      2       0.07224516      21.66621
2013    26      3       0.06853045      20.68996
2013    26      4       0.06762175      20.45352
2013    26      5       0.07094043      21.15662
2013    26      6       0.07408179      21.83926
2013    26      7       0.07297231      21.56209
2013    27      0       0.06805832      20.41852
2013    27      1       0.06326918      19.30442
2013    27      2       0.05969803      18.50243
2013    27      3       0.0583003       18.18429
2013    27      4       0.05971031      18.49352
2013    27      5       0.06216844      19.04171
2013    27      6       0.0639618       19.47844
2013    27      7       0.06588915      19.94801
2013    28      0       0.07332099      21.6119
2013    28      1       0.07423475      21.83437
2013    28      2       0.07653581      22.35345
2013    28      3       0.08053273      23.29644
2013    28      4       0.08635628      24.66501
2013    28      5       0.08647028      24.75507
2013    28      6       0.08214669      23.83916
2013    28      7       0.07759736      22.86562
2013    29      0       0.07194783      21.55817
2013    29      1       0.06420708      19.92012
2013    29      2       0.06967096      21.21469
2013    29      3       0.09078824      26.0636
2013    29      4       0.1294354       34.56952
2013    29      5       0.1323984       35.32834
2013    29      6       0.1895489       47.66382
2013    29      7       0.228544        55.76352
2013    30      0       0.2771054       65.21153
2013    30      1       0.3659281       81.36459
2013    30      2       0.3880356       85.95645
2013    30      3       0.3531914       80.39266
2013    30      4       0.4305288       93.04873
2013    30      5       0.4017067       88.82321
2013    30      6       0.3970153       88.41274
2013    30      7       0.4504876       97.21572
2013    31      0       0.5652675       115.0835
2013    31      1       0.6083668       121.5268
2013    31      2       0.5620221       115.0767
2013    31      3       0.5013262       106.3376
2013    31      4       0.5735021       116.9551
2013    31      5       0.4747542       101.2892
2013    31      6       0.423486        92.76306
2013    31      7       0.4016512       88.98885
2014    1       0       0.2831374       67.62857
2014    1       1       0.2916582       69.68131
2014    1       2       0.3374557       78.18132
2014    1       3       0.3655785       82.67795
2014    1       4       0.4116502       91.66215
2014    1       5       0.6193508       123.5265
2014    1       6       0.660198        128.2262
2014    1       7       0.6741355       129.7411
2014    2       0       0.4801625       101.5202
2014    2       1       0.3647036       82.53607
2014    2       2       0.3024556       71.10798
2014    2       3       0.3127246       72.88723
2014    2       4       0.3147156       73.17407
2014    2       5       0.3047925       71.1773
2014    2       6       0.335574        76.58445
2014    2       7       0.4778624       100.4594
2014    3       0       0.3745806       83.29518
2014    3       1       0.2894576       67.83774
2014    3       2       0.2821254       66.49189
2014    3       3       0.2599344       62.67347
2014    3       4       0.2956186       69.44173
2014    3       5       0.3822654       84.35637
2014    3       6       0.3746543       83.08083
2014    3       7       0.3022026       70.31221
2014    4       0       0.2992289       69.83233
2014    4       1       0.3000854       69.75115
2014    4       2       0.2933158       68.4032
2014    4       3       0.269554        64.17517
2014    4       4       0.2741046       65.20461
2014    4       5       0.2535974       61.36704
2014    4       6       0.261537        63.06664
2014    4       7       0.254965        61.89116
2014    5       0       0.2685962       64.2673
2014    5       1       0.3585554       80.24891
2014    5       2       0.4465144       95.55934
2014    5       3       0.609328        120.3135
2014    5       4       0.477377        101.6571
2014    5       5       0.4199822       92.82475
2014    5       6       0.5209045       109.37
2014    5       7       0.5293588       110.7533
2014    6       0       0.4877866       104.1352
2014    6       1       0.485428        103.5209
2014    6       2       0.496607        104.9343
2014    6       3       0.5253849       109.4542
2014    6       4       0.4403587       96.41774
2014    6       5       0.3846587       87.12442
2014    6       6       0.4003625       89.30196
2014    6       7       0.3969635       89.13016
2014    7       0       0.4777233       102.4729
2014    7       1       0.5042265       106.4972
2014    7       2       0.4885044       103.853
2014    7       3       0.4030067       89.86889
2014    7       4       0.3465889       79.74059
2014    7       5       0.3132617       73.52868
2014    7       6       0.298156        70.6195
2014    7       7       0.3035606       71.56595
2014    8       0       0.3225517       74.96045
2014    8       1       0.3394722       77.93205
2014    8       2       0.3717112       83.47688
2014    8       3       0.3978236       88.02608
2014    8       4       0.4478644       96.1683
2014    8       5       0.4220242       92.06974
2014    8       6       0.3970402       87.97587
2014    8       7       0.3762441       84.38153
2014    9       0       0.3583046       81.09437
2014    9       1       0.3516444       79.81945
2014    9       2       0.356699        80.57759
2014    9       3       0.3596009       80.79015
2014    9       4       0.3356869       76.38323
2014    9       5       0.332537        75.61671
2014    9       6       0.3312824       75.50829
2014    9       7       0.4563968       96.75042
2014    10      0       0.3771035       83.229
2014    10      1       0.2647918       62.59403
2014    10      2       0.2011399       50.0544
2014    10      3       0.1680053       43.13758
2014    10      4       0.1558995       40.42516
2014    10      5       0.143751        37.67791
2014    10      6       0.1201462       32.54089
2014    10      7       0.1021664       28.6268
2014    11      0       0.09745928      27.5293
2014    11      1       0.1002949       28.06912
2014    11      2       0.1063248       29.26192
2014    11      3       0.1043715       28.77742
2014    11      4       0.09500931      26.73148
2014    11      5       0.08623558      24.79464
2014    11      6       0.08235601      23.88605
2014    11      7       0.0803437       23.42539
2014    12      0       0.07702944      22.68985
2014    12      1       0.07501931      22.2671
2014    12      2       0.07843904      23.04451
2014    12      3       0.07751461      22.87482
2014    12      4       0.07540266      22.42423
2014    12      5       0.07191274      21.64555
2014    12      6       0.06880286      20.94549
2014    12      7       0.06871609      20.92808
2014    13      0       0.06907339      20.98579
2014    13      1       0.06837622      20.80638
2014    13      2       0.07041382      21.22176
2014    13      3       0.06906671      20.93939
2014    13      4       0.06228047      19.41869
2014    13      5       0.09284818      26.59038
2014    13      6       0.1761954       44.73585
2014    13      7       0.2477338       59.41881
2014    14      0       0.2772938       65.31933
2014    14      1       0.3220211       73.50268
2014    14      2       0.2803899       66.07771
2014    14      3       0.2731427       64.97836
2014    14      4       0.2557371       61.22987
2014    14      5       0.3511277       79.18084
2014    14      6       0.3169818       73.61391
2014    14      7       0.3701817       83.14152
2014    15      0       0.3814687       84.98366
2014    15      1       0.3845485       85.49748
2014    15      2       0.4643986       98.16014
2014    15      3       0.3187341       73.0266
2014    15      4       0.3128638       71.61952
2014    15      5       0.2747026       64.51604
2014    15      6       0.2696698       63.70083
2014    15      7       0.2720183       64.62801
2014    16      0       0.2750212       64.97968
2014    16      1       0.3545322       79.22441
2014    16      2       0.4370646       93.6932
2014    16      3       0.6455452       125.672
2014    16      4       0.5612596       114.8558
2014    16      5       0.5300797       110.2545
2014    16      6       0.5740496       116.5462
2014    16      7       0.6428573       126.127
2014    17      0       0.6504637       127.6966
2014    17      1       0.5909344       119.5788
2014    17      2       0.5114233       107.4844
2014    17      3       0.4493798       97.91647
2014    17      4       0.4717851       101.6243
2014    17      5       0.6010798       121.9271
2014    17      6       0.6000069       121.3007
2014    17      7       0.7646388       144.8401
2014    18      0       0.7207503       139.4161
2014    18      1       0.6432799       128.8591
2014    18      2       0.5974186       121.9729
2014    18      3       0.713602        136.5581
2014    18      4       0.6184294       124.1207
2014    18      5       0.4600281       100.6254
2014    18      6       0.3828792       87.18951
2014    18      7       0.3200098       75.29239
2014    19      0       0.364714        83.07195
2014    19      1       0.4742901       101.159
2014    19      2       0.6515718       126.7598
2014    19      3       0.2978965       69.72351
2014    19      4       0.4342766       93.25234
2014    19      5       0.3380807       76.6661
2014    19      6       0.1957142       49.55669
2014    19      7       0.166282        43.37875
2014    20      0       0.2335253       57.46861
2014    20      1       0.3387108       77.65431
2014    20      2       0.3827029       85.23931
2014    20      3       0.364755        82.74024
2014    20      4       0.3763732       85.09335
2014    20      5       0.3659123       83.59048
2014    20      6       0.3551617       81.84516
2014    20      7       0.3767779       85.89869
2014    21      0       0.3149153       74.88529
2014    21      1       0.2131468       54.64979
2014    21      2       0.2367706       59.50189
2014    21      3       0.232279        58.73398
2014    21      4       0.1882939       49.65384
2014    21      5       0.1213764       34.73613
2014    21      6       0.4941343       107.0355
2014    21      7       0.5464725       114.3548
2014    22      0       0.4354557       96.97409
2014    22      1       0.4703949       102.3259
2014    22      2       0.4927964       106.3193
2014    22      3       0.48074         104.1746
2014    22      4       0.4209098       94.03117
2014    22      5       0.3830595       87.36076
2014    22      6       0.452422        98.75988
2014    22      7       0.51398         109.3696
2014    23      0       0.4454542       98.33573
2014    23      1       0.7118186       136.7961
2014    23      2       0.606025        123.7801
2014    23      3       0.5393672       113.9343
2014    23      4       0.6080706       123.6401
2014    23      5       0.8834303       158.0062
2014    23      6       0.7031771       137.1037
2014    23      7       0.6154159       125.0444
2014    24      0       0.5229482       111.6082
2014    24      1       0.4876281       105.9659
2014    24      2       0.4880559       105.5844
2014    24      3       0.5829316       119.2216
2014    24      4       0.9970578       169.8169
2014    24      5       0.9904048       168.585
2014    24      6       0.7647023       143.9914
2014    24      7       0.5200623       111.3275
2014    25      0       0.4321979       97.1369
2014    25      1       0.4086125       93.031
2014    25      2       0.4067612       92.66373
2014    25      3       0.3832646       88.40296
2014    25      4       0.4321956       95.73406
2014    25      5       0.6742527       132.272
2014    25      6       0.7265257       140.4551
2014    25      7       0.6293366       128.5042
2014    26      0       0.5050355       110.5607
2014    26      1       0.4654936       104.5971
2014    26      2       0.291985        72.7413
2014    26      3       0.2345317       61.01633
2014    26      4       0.2411991       61.83505
2014    26      5       0.3216924       77.82127
2014    26      6       0.3091779       75.74312
2014    26      7       0.2871247       71.08089
2014    27      0       0.4288909       97.68627
2014    27      1       0.4743071       105.4568
2014    27      2       0.516882        112.0613
2014    27      3       0.5026444       109.7698
2014    27      4       0.4741444       104.8957
2014    27      5       0.4558261       101.7413
2014    27      6       0.3969301       91.72834
2014    27      7       0.3663807       86.33003
2014    28      0       0.3078574       74.7939
2014    28      1       0.4153379       94.81794
2014    28      2       0.3768514       87.62313
2014    28      3       0.3711512       86.23353
2014    28      4       0.3671741       85.43785
2014    28      5       0.348448        81.94773
2014    28      6       0.3422664       81.04644
2014    28      7       0.3526888       83.13905
2014    29      0       0.3667012       85.72492
2014    29      1       0.3792483       87.75605
2014    29      2       0.4183883       94.3942
2014    29      3       0.4842148       105.1865
2014    29      4       0.5248317       111.3309
2014    29      5       0.4795773       104.046
2014    29      6       0.4300236       95.7273
2014    29      7       0.4364938       96.7162
2014    30      0       0.4271494       95.09131
2014    30      1       0.3880182       88.29085
2014    30      2       0.3743494       85.85216
2014    30      3       0.3799763       86.79849
2014    30      4       0.3993667       90.14975
2014    30      5       0.3976399       89.81149
2014    30      6       0.3810011       86.88147
2014    30      7       0.359279        82.9529
2014    31      0       0.3186562       75.33992
2014    31      1       0.2844769       68.63302
2014    31      2       0.2825257       68.11674
2014    31      3       0.2982288       71.10413
2014    31      4       0.3022743       71.89854
2014    31      5       0.2895786       69.37044
2014    31      6       0.2768852       66.73563
2014    31      7       0.2470099       60.93176
2015    1       0       0.4285325       93.2692
2015    1       1       0.3712139       83.09574
2015    1       2       0.2859619       67.5454
2015    1       3       0.2400376       58.51255
2015    1       4       0.2285703       56.17572
2015    1       5       0.2386849       58.13904
2015    1       6       0.2312264       56.63657
2015    1       7       0.2353846       57.63654
2015    2       0       0.2444263       59.45275
2015    2       1       0.1851792       47.52198
2015    2       2       0.05199775      17.28105
2015    2       3       0.05790369      18.71124
2015    2       4       0.05582454      18.21501
2015    2       5       0.0604888       19.32661
2015    2       6       0.0622651       19.77574
2015    2       7       0.0609953       19.48446
2015    3       0       0.06074267      19.37524
2015    3       1       0.0560053       18.23281
2015    3       2       0.0486524       16.44803
2015    3       3       0.04902489      16.5119
2015    3       4       0.055612        18.09759
2015    3       5       0.06238407      19.75702
2015    3       6       0.07481591      22.79625
2015    3       7       0.08722307      25.76703
2015    4       0       0.0926136       27.07178
2015    4       1       0.09360324      27.36093
2015    4       2       0.08948405      26.46131
2015    4       3       0.08599441      25.68913
2015    4       4       0.08476223      25.41733
2015    4       5       0.08626754      25.74412
2015    4       6       0.08608043      25.67324
2015    4       7       0.08626844      25.69316
2015    5       0       0.08236677      24.80643
2015    5       1       0.07985393      24.23211
2015    5       2       0.07906471      24.01457
2015    5       3       0.07470088      23.01331
2015    5       4       0.07133345      22.23426
2015    5       5       0.07100414      22.10101
2015    5       6       0.07465525      22.87142
2015    5       7       0.07584371      23.14286
2015    6       0       0.07613987      23.26412
2015    6       1       0.07311736      22.60524
2015    6       2       0.06478262      20.63888
2015    6       3       0.06211044      20.03465
2015    6       4       0.0581379       19.09241
2015    6       5       0.05510208      18.32979
2015    6       6       0.05689942      18.76783
2015    6       7       0.05729014      18.88893
2015    7       0       0.06064368      19.70998
2015    7       1       0.06495636      20.88707
2015    7       2       0.06543718      21.04273
2015    7       3       0.06348391      20.58297
2015    7       4       0.06360385      20.64167
2015    7       5       0.0587159       19.22737
2015    7       6       0.05341502      17.93493
2015    7       7       0.04729905      16.44014
2015    8       0       0.04083421      14.8012
2015    8       1       0.03752252      13.94097
2015    8       2       0.03844101      14.13007
2015    8       3       0.07292144      22.71055
2015    8       4       0.1435995       39.56833
2015    8       5       0.2156715       55.92666
2015    8       6       0.2832415       69.84411
2015    8       7       0.4057447       92.78532
2015    9       0       0.609203        125.4859
2015    9       1       0.6408077       129.7452
2015    9       2       0.6507992       130.8143
2015    9       3       0.6425809       129.772
2015    9       4       0.5756902       120.3964
2015    9       5       0.5696346       118.9378
2015    9       6       0.6314964       127.2444
2015    9       7       0.708575        137.0744
2015    10      0       0.8073694       148.915
2015    10      1       0.7753201       145.3097
2015    10      2       0.7070225       137.0833
2015    10      3       0.6810025       133.7261
2015    10      4       0.8472355       154.2466
2015    10      5       0.6043345       122.5216
2015    10      6       0.5005268       106.5454
2015    10      7       0.4657436       100.7339
2015    11      0       0.4544248       98.84452
2015    11      1       0.4459367       97.43377
2015    11      2       0.4338978       95.34784
2015    11      3       0.4282006       94.23353
2015    11      4       0.4426877       96.38618
2015    11      5       0.4455926       96.71879
2015    11      6       0.4332504       94.73348
2015    11      7       0.4084996       90.6798
2015    12      0       0.3873878       87.24513
2015    12      1       0.3702876       84.46745
2015    12      2       0.3723175       85.1116
2015    12      3       0.4013976       90.10346
2015    12      4       0.4471786       97.78678
2015    12      5       0.6485505       128.0729
2015    12      6       0.4911103       104.5752
2015    12      7       0.410005        91.17188
2015    13      0       0.3618958       82.89619
2015    13      1       0.325871        76.75257
2015    13      2       0.2819126       68.62812
2015    13      3       0.2801409       68.46043
2015    13      4       0.2856451       69.62564
2015    13      5       0.3322196       78.3407
2015    13      6       0.6195817       123.737
2015    13      7       0.7882197       145.1747
2015    14      0       0.6126062       122.8658
2015    14      1       0.5616212       115.9338
2015    14      2       0.5475202       113.9222
2015    14      3       0.5053018       107.5166
2015    14      4       0.4302815       95.68769
2015    14      5       0.340289        79.3431
2015    14      6       0.352512        81.60168
2015    14      7       0.353374        82.00114
2015    15      0       0.3247956       75.92794
2015    15      1       0.3867553       86.31111
2015    15      2       0.7182878       136.8291
2015    15      3       0.537426        112.5802
2015    15      4       0.4696883       102.1645
2015    15      5       0.4229528       94.13597
2015    15      6       0.4682623       101.1869
2015    15      7       0.5152718       108.845
2015    16      0       0.5397093       112.943
2015    16      1       0.5664554       116.6203
2015    16      2       0.5177034       109.4569
2015    16      3       0.5646205       116.2693
2015    16      4       0.6209269       123.7677
2015    16      5       0.5722369       116.9381
2015    16      6       0.4223171       93.33855
2015    16      7       0.35651         81.97348
2015    17      0       0.3241691       75.98021
2015    17      1       0.3269582       76.33514
2015    17      2       0.3810048       85.66112
2015    17      3       0.3461466       79.56551
2015    17      4       0.2684632       65.20642
2015    17      5       0.1941805       50.1264
2015    17      6       0.1750906       45.92312
2015    17      7       0.1573659       41.84714
2015    18      0       0.1801499       46.51353
2015    18      1       0.2483439       60.29188
2015    18      2       0.2710937       64.40798
2015    18      3       0.2722822       64.80747
2015    18      4       0.2811112       66.72061
2015    18      5       0.2644632       63.47292
2015    18      6       0.2410608       58.84143
2015    18      7       0.2341371       57.51701
2015    19      0       0.2633355       63.3097
2015    19      1       0.3014852       70.65815
2015    19      2       0.3133864       72.97182
2015    19      3       0.3025452       71.01307
2015    19      4       0.2767962       66.14114
2015    19      5       0.2486265       60.63947
2015    19      6       0.2405824       59.0101
2015    19      7       0.2452108       60.01457
2015    20      0       0.2260349       56.1902
2015    20      1       0.2156557       54.09106
2015    20      2       0.1919536       49.10278
2015    20      3       0.1845057       47.39876
2015    20      4       0.1972328       50.0436
2015    20      5       0.2187772       54.50717
2015    20      6       0.2250905       55.88404
2015    20      7       0.2262508       56.02737
2015    21      0       0.2229398       55.02368
2015    21      1       0.2484717       59.82125
2015    21      2       0.2912825       67.75455
2015    21      3       0.2947616       68.47303
2015    21      4       0.3076206       70.78626
2015    21      5       0.3046302       70.34335
2015    21      6       0.2824915       66.32158
2015    21      7       0.2604733       62.069
2015    22      0       0.2133864       52.75716
2015    22      1       0.2121628       52.55253
2015    22      2       0.2036167       50.87884
2015    22      3       0.1807625       46.26285
2015    22      4       0.2005691       50.34991
2015    22      5       0.2125707       52.82082
2015    22      6       0.180052        46.25776
2015    22      7       0.1772701       45.78021
2015    23      0       0.1772933       45.92177
2015    23      1       0.278732        65.83604
2015    23      2       0.5666328       113.5931
2015    23      3       0.7983729       146.1435
2015    23      4       0.6147211       122.7853
2015    23      5       0.6366675       126.4295
2015    23      6       0.4810716       102.7003
2015    23      7       0.4566968       98.36003
2015    24      0       0.6867354       133.0404
2015    24      1       0.5331376       110.8221
2015    24      2       0.4759383       101.3364
2015    24      3       0.4419465       95.59972
2015    24      4       0.4710024       100.7186
2015    24      5       0.4086177       90.76516
2015    24      6       0.3396858       77.7695
2015    24      7       0.3071292       71.79848
2015    25      0       0.3517935       79.39339
2015    25      1       0.3279399       75.03827
2015    25      2       0.3060243       70.40773
2015    25      3       0.2819648       64.97165
2015    25      4       0.2666975       62.07957
2015    25      5       0.2340352       55.71776
2015    25      6       0.1572669       40.24306
2015    25      7       0.1084743       29.71743
2015    26      0       0.09971995      27.87357
2015    26      1       0.08638925      24.74442
2015    26      2       0.08041773      23.39634
2015    26      3       0.07911694      23.15073
2015    26      4       0.07147241      21.50417
2015    26      5       0.06689736      20.34544
2015    26      6       0.06486802      19.93012
2015    26      7       0.06641905      20.33739
2015    27      0       0.06642336      20.36335
2015    27      1       0.06266416      19.5167
2015    27      2       0.06083239      19.10581
2015    27      3       0.06117195      19.18755
2015    27      4       0.06028836      19.0108
2015    27      5       0.06404495      19.92721
2015    27      6       0.0638686       19.90996
2015    27      7       0.06704959      20.63772
2015    28      0       0.06999047      21.31023
2015    28      1       0.06748643      20.75232
2015    28      2       0.06513932      20.23631
2015    28      3       0.06480981      20.17474
2015    28      4       0.06465234      20.17013
2015    28      5       0.06599481      20.52234
2015    28      6       0.06681429      20.73982
2015    28      7       0.0660535       20.59124
2015    29      0       0.06733069      20.91083
2015    29      1       0.07094618      21.75282
2015    29      2       0.07374656      22.39563
2015    29      3       0.07583593      22.88323
2015    29      4       0.07748338      23.26366
2015    29      5       0.07983042      23.79424
2015    29      6       0.08076332      23.98379
2015    29      7       0.07931646      23.62655
2015    30      0       0.07864239      23.42814
2015    30      1       0.08167082      24.07331
2015    30      2       0.07557312      22.69269
2015    30      3       0.07133666      21.78282
2015    30      4       0.06177733      19.58636
2015    30      5       0.06930036      21.34089
2015    30      6       0.07952946      23.65153
2015    30      7       0.0995679       28.17042
2015    31      0       0.1167538       32.01361
2015    31      1       0.1407576       37.37649
2015    31      2       0.1861098       47.17706
2015    31      3       0.2135646       52.93907
2015    31      4       0.1725402       44.58069
2015    31      5       0.1514585       40.26548
2015    31      6       0.2348464       57.82455
2015    31      7       0.2190885       54.58223
2016    1       0       0.3560909       81.58276
2016    1       1       0.3162444       73.54871
2016    1       2       0.3861558       85.51027
2016    1       3       0.2671941       63.99262
2016    1       4       0.2450098       59.83465
2016    1       5       0.2211749       55.13156
2016    1       6       0.3095905       72.62258
2016    1       7       0.2843655       68.19372
2016    5       0       0.3133859       73.47189
2016    5       1       0.4744186       102.8245
2016    5       2       0.3608652       83.7397
2016    5       3       0.3398219       80.23555
2016    5       4       0.3093945       74.4335
2016    5       5       0.1766936       46.8802
2016    5       6       0.2344574       59.20453
2016    5       7       0.3046835       73.25593
2016    6       0       0.3036542       72.93442
2016    6       1       0.2814257       68.38618
2016    6       2       0.259452        63.87795
2016    6       3       0.2811876       68.07925
2016    6       4       0.3036459       72.44354
2016    6       5       0.3082185       73.3688
2016    6       6       0.2751716       66.9632
2016    6       7       0.220047        55.80803
2016    7       0       0.1978562       51.07827
2016    7       1       0.1963746       50.71034
2016    7       2       0.193731        50.24489
2016    7       3       0.1863987       48.77347
2016    7       4       0.1978355       51.20627
2016    7       5       0.204148        52.50317
2016    7       6       0.2091771       53.43119
2016    7       7       0.2188721       55.1812
2016    8       0       0.2224702       55.76004
2016    8       1       0.2237745       55.88289
2016    8       2       0.2303845       57.13849
2016    8       3       0.2456314       60.19525
2016    8       4       0.2371599       58.63453
2016    8       5       0.2258491       56.55074
2016    8       6       0.2204131       55.68221
2016    8       7       0.2016624       51.96246
2016    9       0       0.1948889       50.5798
2016    9       1       0.1969217       50.99585
2016    9       2       0.2093635       53.58009
2016    9       3       0.2144484       54.67183
2016    9       4       0.213703        54.42891
2016    9       5       0.1962639       50.74383
2016    9       6       0.1863509       48.55672
2016    9       7       0.2061006       52.412
2016    10      0       0.3831722       85.26218
2016    10      1       0.5494735       111.9149
2016    10      2       0.4073537       89.62133
2016    10      3       0.2099613       52.55232
2016    10      4       0.1516676       40.65404
2016    10      5       0.1823024       47.38118
2016    10      6       0.2410252       59.54902
2016    10      7       0.2347734       58.29872
2016    11      0       0.2279792       56.89935
2016    11      1       0.2264594       56.47752
2016    11      2       0.2422017       59.77408
2016    11      3       0.2840953       68.20276
2016    11      4       0.4745614       102.3018
2016    11      5       0.4973672       105.8883
2016    11      6       0.4664884       100.7814
2016    11      7       0.469619        101.3027
2016    12      0       0.4905788       104.6412
2016    12      1       0.4897313       104.4132
2016    12      2       0.4719316       101.6945
2016    12      3       0.4987783       106.0537
2016    12      4       0.4793694       102.9638
2016    12      5       0.4645484       100.2396
2016    12      6       0.4404199       96.08107
2016    12      7       0.4637591       99.78273
2016    13      0       0.4161348       91.69025
2016    13      1       0.4276011       93.55267
2016    13      2       0.3995033       88.84029
2016    13      3       0.3608871       82.01404
2016    13      4       0.3277195       75.97267
2016    13      5       0.3117744       73.1599
2016    13      6       0.3597101       82.12758
2016    13      7       0.3860888       86.73807
2016    14      0       0.3828961       86.31358
2016    14      1       0.3743012       84.79279
2016    14      2       0.3754515       84.86224
2016    14      3       0.3879569       86.71713
2016    14      4       0.3876105       86.22886
2016    14      5       0.3799901       84.80913
2016    14      6       0.3584406       81.10036
2016    14      7       0.3477084       79.08774
2016    15      0       0.3351013       76.60772
2016    15      1       0.3077415       71.67033
2016    15      2       0.2948767       69.46286
2016    15      3       0.2878043       68.27926
2016    15      4       0.2795139       66.7073
2016    15      5       0.267338        64.46979
2016    15      6       0.2602016       63.24297
2016    15      7       0.2530102       61.90372
2016    16      0       0.2487841       60.93994
2016    16      1       0.2490131       60.88918
2016    16      2       0.2501348       61.05652
2016    16      3       0.237303        58.51146
2016    16      4       0.2194175       55.00947
2016    16      5       0.2224081       55.6917
2016    16      6       0.2074387       52.6199
2016    16      7       0.2322689       57.87229
2016    17      0       0.2372887       58.94889
2016    17      1       0.2205823       55.47115
2016    17      2       0.1905984       49.14582
2016    17      3       0.1790122       46.68155
2016    17      4       0.1908533       49.20134
2016    17      5       0.2500611       61.25356
2016    17      6       0.2991454       70.7084
2016    17      7       0.3468698       79.54385
2016    18      0       0.3040629       71.57397
2016    18      1       0.273772        65.73941
2016    18      2       0.2697275       64.84767
2016    18      3       0.2672313       64.31655
2016    18      4       0.2604465       62.91862
2016    18      5       0.2534388       61.46789
2016    18      6       0.2446972       59.73466
2016    18      7       0.2358634       58.05268
2016    19      0       0.2505467       60.95384
2016    19      1       0.2707256       64.79096
2016    19      2       0.2709402       64.78152
2016    19      3       0.3414886       77.74207
2016    19      4       0.4297397       92.59873
2016    19      5       0.5085076       105.0391
2016    19      6       0.5051889       104.6222
2016    19      7       0.4829332       101.2126
2016    20      0       0.537473        109.6065
2016    20      1       0.4745164       100.056
2016    20      2       0.4429373       95.00107
2016    20      3       0.46085         97.69421
2016    20      4       0.4672424       98.81309
2016    20      5       0.4510069       96.39823
2016    20      6       0.2805682       66.42612
2016    20      7       0.2716118       64.79663
2016    21      0       0.2925692       68.7661
2016    21      1       0.3135398       72.81624
2016    21      2       0.305205        71.46397
2016    21      3       0.2990069       70.31019
2016    21      4       0.2977664       70.10405
2016    21      5       0.2739944       65.58874
2016    21      6       0.2564947       62.09061
2016    21      7       0.2563801       62.03361
2016    22      0       0.2599597       62.48429
2016    22      1       0.2648424       63.32214
2016    22      2       0.2499916       60.43795
2016    22      3       0.2713563       64.61254
2016    22      4       0.3129841       72.38575
2016    22      5       0.3136494       72.41017
2016    22      6       0.3256395       74.56783
2016    22      7       0.3180421       73.31696
2016    23      0       0.4079781       88.67725
2016    23      1       0.4392211       94.13198
2016    23      2       0.5759566       115.5925
2016    23      3       0.6070384       120.119
2016    23      4       0.4029242       88.73921
2016    23      5       0.3604221       81.68492
2016    23      6       0.3122389       73.1325
2016    23      7       0.295814        70.2089
2016    24      0       0.301376        71.25239
2016    24      1       0.3327442       76.94238
2016    24      2       0.3697568       83.56409
2016    24      3       0.3241017       75.32823
2016    24      4       0.2217112       55.39366
2016    24      5       0.2307196       57.42131
2016    24      6       0.3377861       77.68206
2016    24      7       0.338475        77.9956
2016    25      0       0.3683562       83.6646
2016    25      1       0.3246195       75.82918
2016    25      2       0.2979397       70.82389
2016    25      3       0.2942307       70.22786
2016    25      4       0.2910151       69.57575
2016    25      5       0.2841888       68.12934
2016    25      6       0.2873517       68.58921
2016    25      7       0.3283886       76.47053
2016    26      0       0.3715326       84.96676
2016    26      1       0.3457828       80.28022
2016    26      2       0.4311238       94.95459
2016    26      3       0.4356282       95.98814
2016    26      4       0.4109401       91.42972
2016    26      5       0.4514109       97.52519
2016    26      6       0.4861458       103.5784
2016    26      7       0.6004158       120.8435
2016    27      0       0.679601        131.4511
2016    27      1       0.5147971       108.5539
2016    27      2       0.4754262       102.1525
2016    27      3       0.3997632       89.60817
2016    27      4       0.2964283       70.97343
2016    27      5       0.28733         69.11816
2016    27      6       0.2655366       64.66553
2016    27      7       0.5251857       109.6343
2016    28      0       0.5764244       117.1273
2016    28      1       0.4550197       98.962
2016    28      2       0.3723579       85.32042
2016    28      3       0.372452        85.28678
2016    28      4       0.354965        82.14599
2016    28      5       0.3607484       83.3183
2016    28      6       0.4090032       91.62153
2016    28      7       0.4029          90.3472
2016    29      0       0.3683152       84.13866
2016    29      1       0.3649334       83.5364
2016    29      2       0.4073821       90.9708
2016    29      3       0.411523        91.49213
2016    29      4       0.4144714       91.9568
2016    29      5       0.418406        92.39449
2016    29      6       0.373894        84.30858
2016    29      7       0.3364219       77.43202
2016    30      0       0.3042307       71.44257
2016    30      1       0.2983732       70.26162
2016    30      2       0.2925767       69.07975
2016    30      3       0.2647728       63.53965
2016    30      4       0.2289419       56.20874
2016    30      5       0.2068078       51.70476
2016    30      6       0.2076861       51.99285
2016    30      7       0.1941712       49.31164
2016    31      0       0.1872048       47.93354
2016    31      1       0.1712107       44.58532
2016    31      2       0.1534977       40.63304
2016    31      3       0.1475051       39.17355
2016    31      4       0.1386637       37.36043
2016    31      5       0.1530639       40.50698
2016    31      6       0.140944        37.94916
2016    31      7       0.1317277       35.87887
2017    1       0       0.1292349       35.34959
2017    1       1       0.1636197       42.28688
2017    1       2       0.1658592       43.22725
2017    1       3       0.2727759       65.81026
2017    1       4       0.3551776       81.34091
2017    1       5       0.257964        62.90146
2017    1       6       0.2195957       55.17288
2017    1       7       0.226385        57.48333
2017    2       0       0.1657579       44.32895
2017    2       1       0.1602204       43.1775
2017    2       2       0.1376244       38.10546
2017    2       3       0.1528591       41.18324
2017    2       4       0.1693301       44.75593
2017    2       5       0.2454598       60.64358
2017    2       6       0.2964829       70.89712
2017    2       7       0.2556642       62.74429
2017    3       0       0.2248979       56.30208
2017    3       1       0.1882259       48.80383
2017    3       2       0.1462474       39.7159
2017    3       3       0.1510311       40.79211
2017    3       4       0.1610424       43.00698
2017    3       5       0.1791837       46.89963
2017    3       6       0.2542486       61.78725
2017    3       7       0.3725743       84.00013
2017    4       0       0.486593        102.7021
2017    4       1       0.4801971       101.9691
2017    4       2       0.5166182       107.5132
2017    4       3       0.6074573       120.3341
2017    4       4       0.6983039       132.0981
2017    4       5       0.6125169       120.3007
2017    4       6       0.4832216       101.4013
2017    4       7       0.2507211       60.44711
2017    5       0       0.1908567       48.26633
2017    5       1       0.1326391       35.69177
2017    5       2       0.1245138       33.88095
2017    5       3       0.1452214       38.37713
2017    5       4       0.3651427       80.76751
2017    5       5       0.4771231       98.56651
2017    5       6       0.3666451       79.96161
2017    5       7       0.2509297       58.7046
2017    6       0       0.1181358       31.73525
2017    6       1       0.1003497       27.87441
2017    6       2       0.09317408      26.28992
2017    6       3       0.08490527      24.49133
2017    6       4       0.08369502      24.28052
2017    6       5       0.08542552      24.70282
2017    6       6       0.08063017      23.64947
2017    6       7       0.08254163      24.11726
2017    7       0       0.09770898      27.62226
2017    7       1       0.1174402       32.14771
2017    7       2       0.1026769       28.91161
2017    7       3       0.08572415      25.0509
2017    7       4       0.1417295       37.49957
2017    7       5       0.1773866       45.28623
2017    7       6       0.1760324       45.22293
2017    7       7       0.1527667       40.65759
2017    8       0       0.1785896       46.08011
2017    8       1       0.1901651       48.48584
2017    8       2       0.2252068       55.74538
2017    8       3       0.2925197       68.79968
2017    8       4       0.3288016       75.78873
2017    8       5       0.3305215       76.17858
2017    8       6       0.2873316       68.25427
2017    8       7       0.258787        62.87161
2017    9       0       0.2521427       61.51377
2017    9       1       0.2384326       58.84904
2017    9       2       0.2429297       59.86152
2017    9       3       0.2619368       63.69468
2017    9       4       0.2771957       66.93391
2017    9       5       0.2881755       69.12663
2017    9       6       0.3052034       72.35444
2017    9       7       0.2126795       54.41674
2017    10      0       0.1789741       47.5466
2017    10      1       0.1759727       47.01809
2017    10      2       0.1803835       48.02708
2017    10      3       0.1849228       48.94486
2017    10      4       0.1816418       48.01968
2017    10      5       0.2250283       56.76492
2017    10      6       0.2597521       63.54621
2017    10      7       0.2648685       64.4571
2017    11      0       0.2515214       61.89854
2017    11      1       0.2174132       55.09003
2017    11      2       0.1843312       47.97065
2017    11      3       0.1630681       43.23046
2017    11      4       0.1922104       49.37076
2017    11      5       0.2858086       68.17527
2017    11      6       0.2734063       64.98614
2017    11      7       0.2157951       53.41859
2017    12      0       0.1874039       47.58447
2017    12      1       0.2676196       63.56853
2017    12      2       0.2881792       67.08665
2017    12      3       0.2729477       63.97779
2017    12      4       0.3141318       71.3253
2017    12      5       0.2732386       63.52097
2017    12      6       0.2235357       53.77736
2017    12      7       0.1956501       48.14541
2017    13      0       0.1494356       38.70669
2017    13      1       0.1366101       36.01744
2017    13      2       0.1304039       34.80827
2017    13      3       0.1330248       35.4205
2017    13      4       0.1365513       36.43902
2017    13      5       0.1772486       45.14458
2017    13      6       0.2379756       57.53654
2017    13      7       0.2678316       63.80037
2017    14      0       0.3932553       86.27968
2017    14      1       0.3917586       86.26478
2017    14      2       0.5210742       107.424
2017    14      3       0.5973394       119.353
2017    14      4       0.5876761       117.4065
2017    14      5       0.5729252       116.0884
2017    14      6       0.6022932       120.2706
2017    14      7       0.662845        128.5771
2017    15      0       0.7994056       145.0887
2017    15      1       0.5857445       117.8042
2017    15      2       0.2333249       57.08924
2017    15      3       0.1308033       35.34266
2017    15      4       0.1116161       30.68224
2017    15      5       0.1374083       36.5179
2017    15      6       0.1357167       35.66566
2017    15      7       0.1017086       28.33282
2017    16      0       0.1042881       28.97492
2017    16      1       0.130033        34.64689
2017    16      2       0.2202348       53.47265
2017    16      3       0.2803029       65.4266
2017    16      4       0.2972689       68.90134
2017    16      5       0.3320224       74.47403
2017    16      6       0.3370167       75.49995
2017    16      7       0.370011        81.22577
2017    17      0       0.3564115       78.86116
2017    17      1       0.3402014       75.93086
2017    17      2       0.2111667       51.42706
2017    17      3       0.1687627       42.59352
2017    17      4       0.1173329       32.1789
2017    17      5       0.09399237      26.80853
2017    17      6       0.08040578      23.60289
2017    17      7       0.121374        32.53482
2017    18      0       0.07672025      22.63891
2017    18      1       0.07550775      22.40195
2017    18      2       0.0697468       21.10509
2017    18      3       0.06726726      20.59742
2017    18      4       0.06803797      20.70597
2017    18      5       0.0692814       20.98483
2017    18      6       0.07134912      21.46405
2017    18      7       0.07674536      22.65621
2017    19      0       0.08615695      24.73262
2017    19      1       0.1102597       30.1089
2017    19      2       0.151938        39.04314
2017    19      3       0.1681331       42.42993
2017    19      4       0.1907293       46.94385
2017    19      5       0.146874        38.03588
2017    19      6       0.1182452       31.92787
2017    19      7       0.09706364      27.29091
2017    20      0       0.08213567      23.85912
2017    20      1       0.07603761      22.46968
2017    20      2       0.0959809       26.9097
2017    20      3       0.1176762       31.83306
2017    20      4       0.1272562       34.01869
2017    20      5       0.145282        38.04343
2017    20      6       0.198678        49.06552
2017    20      7       0.1928235       48.00574
2017    21      0       0.2129833       52.03919
2017    21      1       0.2195884       53.46659
2017    21      2       0.2463334       58.78582
2017    21      3       0.2453148       58.45311
2017    21      4       0.3605335       79.40805
2017    21      5       0.3480289       77.02777
2017    21      6       0.2992642       68.21691
2017    21      7       0.2632084       61.59453
2017    22      0       0.1898611       47.28012
2017    22      1       0.1884154       47.02767
2017    22      2       0.1726622       43.71022
2017    22      3       0.1273284       33.99149
2017    22      4       0.1119801       30.60084
2017    22      5       0.1150252       31.29688
2017    22      6       0.1133011       30.9705
2017    22      7       0.107558        29.75724
2017    23      0       0.1050502       29.17785
2017    23      1       0.1121879       30.74356
2017    23      2       0.1400027       36.89101
2017    23      3       0.1893853       47.34271
2017    23      4       0.1784704       45.32096
2017    23      5       0.184693        46.70037
2017    23      6       0.1757252       44.97567
2017    23      7       0.1559448       40.92673
2017    24      0       0.2189495       53.78119
2017    24      1       0.3927934       86.20264
2017    24      2       0.4208312       91.08811
2017    24      3       0.3421183       77.78093
2017    24      4       0.2859471       67.71197
2017    24      5       0.2943012       69.41536
2017    24      6       0.2886567       68.50145
2017    24      7       0.3043529       71.60051
2017    25      0       0.2708721       65.26763
2017    25      1       0.2285579       56.67344
2017    25      2       0.2668731       64.18925
2017    25      3       0.2899673       68.8559
2017    25      4       0.3185959       74.5792
2017    25      5       0.2992371       70.84147
2017    25      6       0.3334972       76.81142
2017    25      7       0.4834192       102.3372
2017    26      0       0.4311371       94.15953
2017    26      1       0.3680334       83.47927
2017    26      2       0.3176531       74.23333
2017    26      3       0.3379638       77.99703
2017    26      4       0.3800712       85.73949
2017    26      5       0.3610069       82.69376
2017    26      6       0.3341619       77.71612
2017    26      7       0.3034153       71.84335
2017    27      0       0.3428611       78.49552
2017    27      1       0.4324457       93.77916
2017    27      2       0.3057807       71.87343
2017    27      3       0.247414        60.71253
2017    27      4       0.2725064       65.67298
2017    27      5       0.2216175       55.39225
2017    27      6       0.2570513       62.37489
2017    27      7       0.3161455       73.84114
2017    28      0       0.4329188       94.22119
2017    28      1       0.4428584       96.0378
2017    28      2       0.3398825       78.36493
2017    28      3       0.3837904       86.19774
2017    28      4       0.253079        62.3508
2017    28      5       0.218047        54.87837
2017    28      6       0.205889        51.90725
2017    28      7       0.2665632       64.08163
2017    29      0       0.3474412       78.89243
2017    29      1       0.4215022       91.26419
2017    29      2       0.5594988       112.3989
2017    29      3       0.404096        87.66647
2017    29      4       0.390683        85.4285
2017    29      5       0.218783        53.39748
2017    29      6       0.1764686       44.5975
2017    29      7       0.1564157       40.36325
2017    30      0       0.3935857       85.46745
2017    30      1       0.4164012       89.32488
2017    30      2       0.176967        44.953
2017    30      3       0.1453224       38.32281
2017    30      4       0.1529189       39.98641
2017    30      5       0.1430495       37.98882
2017    30      6       0.121361        33.36118
2017    30      7       0.1202235       33.2314
2017    31      0       0.1269937       34.81944
2017    31      1       0.147271        39.32229
2017    31      2       0.2179749       54.06403
2017    31      3       0.29523         69.10356
2017    31      4       0.304134        70.68926
2017    31      5       0.2789031       65.93765
2017    31      6       0.3036756       70.65672
2017    31      7       0.3020701       70.31169
2018    1       0       0.4229571       92.3161
2018    1       1       0.4017174       88.72101
2018    1       2       0.3861554       86.22833
2018    1       3       0.3862098       86.4006
2018    1       4       0.3703852       83.55678
2018    1       5       0.3284822       75.96781
2018    1       6       0.29825         70.51833
2018    1       7       0.2758061       66.45902
2018    2       0       0.2581101       63.10786
2018    2       1       0.2917897       69.28579
2018    2       2       0.5271322       108.7879
2018    2       3       0.5408357       111.2784
2018    2       4       0.381899        85.96254
2018    2       5       0.3506155       80.47733
2018    2       6       0.3852384       86.64461
2018    2       7       0.4364713       95.18583
2018    3       0       0.390097        87.41409
2018    3       1       0.2983639       70.81372
2018    3       2       0.260921        63.61571
2018    3       3       0.2742766       65.89806
2018    3       4       0.255692        62.16674
2018    3       5       0.2991048       70.60639
2018    3       6       0.454864        97.53116
2018    3       7       0.5454482       111.7556
2018    4       0       0.587819        118.1908
2018    4       1       0.4504413       97.35034
2018    4       2       0.3762534       84.56353
2018    4       3       0.4087053       89.76556
2018    4       4       0.5573341       113.1134
2018    4       5       0.5458013       111.4934
2018    4       6       0.3904575       86.38032
2018    4       7       0.3632882       81.70163
2018    5       0       0.3083463       71.87641
2018    5       1       0.2830898       67.25636
2018    5       2       0.2662328       64.14915
2018    5       3       0.2561733       62.23006
2018    5       4       0.2493995       61.0671
2018    5       5       0.2313783       57.61598
2018    5       6       0.2089779       53.09357
2018    5       7       0.1939219       50.10085
2018    6       0       0.1713015       45.40614
2018    6       1       0.1378328       37.84266
2018    6       2       0.1349423       37.10272
2018    6       3       0.1848638       48.2452
2018    6       4       0.2847659       68.73027
2018    6       5       0.3073414       73.00193
2018    6       6       0.3034937       72.26196
2018    6       7       0.3008991       71.81109
2018    7       0       0.3055991       72.7233
2018    7       1       0.3086086       73.15921
2018    7       2       0.3055201       72.34742
2018    7       3       0.2909652       69.4248
2018    7       4       0.2641584       64.13874
2018    7       5       0.2239874       56.09166
2018    7       6       0.1784262       46.46312
2018    7       7       0.1203643       33.59724
2018    8       0       0.08458593      25.27813
2018    8       1       0.07382353      22.69674
2018    8       2       0.0696949       21.71692
2018    8       3       0.05981379      19.32964
2018    8       4       0.05419898      17.9531
2018    8       5       0.04898369      16.64538
2018    8       6       0.05169196      17.27529
2018    8       7       0.05407134      17.82538
2018    9       0       0.05285712      17.51156
2018    9       1       0.05262634      17.47075
2018    9       2       0.05355706      17.70016
2018    9       3       0.05226235      17.39214
2018    9       4       0.0566708       18.42176
2018    9       5       0.06233051      19.78494
2018    9       6       0.06300629      19.93769
2018    9       7       0.06496113      20.32351
2018    10      0       0.06779654      20.97504
2018    10      1       0.06866916      21.1494
2018    10      2       0.06651425      20.62986
2018    10      3       0.06701004      20.77505
2018    10      4       0.06502563      20.32851
2018    10      5       0.06348665      20.08642
2018    10      6       0.06375346      19.97781
2018    10      7       0.06193864      19.54564
2018    11      0       0.06153871      19.4424
2018    11      1       0.0650742       20.26115
2018    11      2       0.07350505      22.22807
2018    11      3       0.1022294       28.87436
2018    11      4       0.1450522       38.44745
2018    11      5       0.1527633       40.22749
2018    11      6       0.1553634       40.88221
2018    11      7       0.1675534       43.58385
2018    12      0       0.191369        48.6179
2018    12      1       0.2040416       51.20252
2018    12      2       0.2028089       51.07875
2018    12      3       0.2206348       54.86612
2018    12      4       0.2365804       58.21792
2018    12      5       0.2328431       57.53655
2018    12      6       0.2282538       56.75101
2018    12      7       0.223904        55.93782
2018    13      0       0.2193919       55.04679
2018    13      1       0.2480778       60.95791
2018    13      2       0.2763738       66.55589
2018    13      3       0.3246552       75.79613
2018    13      4       0.3297327       76.93768
2018    13      5       0.3317581       77.47314
2018    13      6       0.3235236       76.02461
2018    13      7       0.3189173       75.17424
2018    14      0       0.2512968       62.56665
2018    14      1       0.3586713       82.24183
2018    14      2       0.6793998       132.5205
2018    14      3       0.5410813       112.4115
2018    14      4       0.1148091       32.10116
2018    14      5       0.1345509       36.37361
2018    14      6       0.2776573       66.51318
2018    14      7       0.4723473       101.9211
2018    15      0       0.4432817       97.27566
2018    15      1       0.4717709       102.0616
2018    15      2       0.4767559       103.0054
2018    15      3       0.6116169       122.3244
2018    15      4       0.7486263       140.6859
2018    15      5       0.6861427       133.6298
2018    15      6       0.4866264       104.9177
2018    15      7       0.4892907       105.0835
2018    16      0       0.484164        104.3702
2018    16      1       0.4722852       102.2541
2018    16      2       0.476389        102.7305
2018    16      3       0.5255232       110.0887
2018    16      4       0.5012423       106.7611
2018    16      5       0.6100816       122.3277
2018    16      6       0.7768366       144.9032
2018    16      7       0.7142358       137.8763
2018    17      0       0.6121969       124.1572
2018    17      1       0.7525798       142.3186
2018    17      2       0.4766819       102.8878
2018    17      3       0.4064073       90.69286
2018    17      4       0.3592769       82.3036
2018    17      5       0.3162961       74.35746
2018    17      6       0.2914444       69.75402
2018    17      7       0.2883129       69.08596
2018    18      0       0.2924658       69.84585
2018    18      1       0.2722836       65.79393
2018    18      2       0.2907978       69.30988
2018    18      3       0.3706374       83.50975
2018    18      4       0.3797149       85.3507
2018    18      5       0.3964099       88.14712
2018    18      6       0.4605833       98.31143
2018    18      7       0.4474091       96.1422
2018    19      0       0.4261434       92.60652
2018    19      1       0.4154129       90.77443
2018    19      2       0.3960215       87.57747
2018    19      3       0.3459223       78.94799
2018    19      4       0.346229        78.90891
2018    19      5       0.3453888       78.63075
2018    19      6       0.3488032       79.09811
2018    19      7       0.3837072       85.21936
2018    20      0       0.4026073       88.26939
2018    20      1       0.452897        96.33451
2018    20      2       0.3934645       86.2874
2018    20      3       0.3401788       76.81026
2018    20      4       0.3689435       81.67337
2018    20      5       0.3714666       81.80164
2018    20      6       0.3604224       79.5747
2018    20      7       0.3119401       70.7684
2018    21      0       0.2949583       67.54774
2018    21      1       0.2534482       59.74535
2018    21      2       0.2609889       61.15524
2018    21      3       0.2573808       60.60336
2018    21      4       0.2919866       68.266
2018    21      5       0.2768571       65.6748
2018    21      6       0.1604202       42.10843
2018    21      7       0.1545387       40.89823
2018    22      0       0.1759465       45.5958
2018    22      1       0.2319078       57.38603
2018    22      2       0.2748136       65.86677
2018    22      3       0.2466136       60.0344
2018    22      4       0.247438        60.26405
2018    22      5       0.2599738       61.85193
2018    22      6       0.2813899       65.94188
2018    22      7       0.2674434       63.23256
2018    23      0       0.2350155       56.88749
2018    23      1       0.2418978       58.23009
2018    23      2       0.2469375       59.13241
2018    23      3       0.2480485       59.24182
2018    23      4       0.2659877       62.6057
2018    23      5       0.3159468       71.83595
2018    23      6       0.3489177       77.56917
2018    23      7       0.3576651       79.00092
2018    24      0       0.3281203       73.69474
2018    24      1       0.3113807       70.55137
2018    24      2       0.257333        60.47196
2018    24      3       0.2374621       57.59085
2018    24      4       0.2895264       67.91791
2018    24      5       0.2259346       55.40964
2018    24      6       0.2174665       53.55306
2018    24      7       0.1946687       48.73172
2018    25      0       0.2119556       52.50376
2018    25      1       0.2067967       51.49351
2018    25      2       0.1397248       37.26111
2018    25      3       0.1257097       34.34037
2018    25      4       0.1948064       48.74304
2018    25      5       0.1875793       47.73775
2018    25      6       0.1794489       46.36831
2018    25      7       0.1728064       44.89176
2018    26      0       0.1692705       44.01059
2018    26      1       0.1677682       43.69811
2018    26      2       0.2357328       58.25883
2018    26      3       0.2788206       67.10604
2018    26      4       0.168287        44.33109
2018    26      5       0.1754434       45.09338
2018    26      6       0.186037        47.18916
2018    26      7       0.1950861       48.89456
2018    27      0       0.2023861       50.28661
2018    27      1       0.2045843       50.64193
2018    27      2       0.2124204       52.24478
2018    27      3       0.2926553       67.76909
2018    27      4       0.2402506       57.76157
2018    27      5       0.2147921       52.74362
2018    27      6       0.2447847       59.91926
2018    27      7       0.1804278       46.54288
2018    28      0       0.1583185       41.16795
2018    28      1       0.1565979       40.84265
2018    28      2       0.1514201       39.79444
2018    28      3       0.1410994       37.59879
2018    28      4       0.1437126       38.12475
2018    28      5       0.1386957       36.9643
2018    28      6       0.1402255       37.2281
2018    28      7       0.1444512       38.01183
2018    29      0       0.153678        39.91996
2018    29      1       0.1447559       37.9624
2018    29      2       0.126851        34.17685
2018    29      3       0.1240525       33.58108
2018    29      4       0.1194217       32.5361
2018    29      5       0.10972         30.3529
2018    29      6       0.09800228      27.76049
2018    29      7       0.114571        31.57053
2018    30      0       0.1489526       39.07212
2018    30      1       0.1588592       41.08505
2018    30      2       0.1511564       39.34778
2018    30      3       0.1533313       39.70232
2018    30      4       0.1540809       39.7718
2018    30      5       0.1436024       37.567
2018    30      6       0.1290564       34.36264
2018    30      7       0.1201375       32.42136
2018    31      0       0.1157889       31.55504
2018    31      1       0.1083864       29.98908
2018    31      2       0.1022436       28.66226
2018    31      3       0.1013591       28.4256
2018    31      4       0.1008349       28.28836
2018    31      5       0.09475025      26.95859
2018    31      6       0.08832849      25.5404
2018    31      7       0.08295762      24.37098
2019    1       0       0.4238726       92.62293
2019    1       1       0.4246489       92.97859
2019    1       2       0.3737361       84.12609
2019    1       3       0.3662886       83.12777
2019    1       4       0.2281941       56.77039
2019    1       5       0.2869543       68.14249
2019    1       6       0.4134276       91.31775
2019    1       7       0.5224862       108.6862
