####################################################################################################
# Month: 04Apr                                                                                     #
# Station: KP                                                                                      #
# Frequency: 230 GHz                                                                               #
# Columns are: year    day     tau     Tb (K)                                                      #
####################################################################################################
2009    1       0.194659        50.67185125
2009    2       0.30626189      75.44849875
2009    3       0.23752714      61.74860125
2009    4       0.18943351      50.70544
2009    5       0.08446505      26.2273525
2009    6       0.17752125      47.93796125
2009    7       0.19156168      51.894285
2009    8       0.23333411      60.25507375
2009    9       0.16836242      45.71872875
2009    10      0.25827702      64.13374625
2009    11      0.64828012      126.31852125
2009    12      0.3970475       90.4470225
2009    13      0.25551941      65.362325
2009    14      0.3200144       77.47916
2009    15      0.30984545      74.73661625
2009    16      0.14798931      40.75643
2009    17      0.19757192      51.75437375
2009    18      0.1781979       48.71003375
2009    19      0.18918716      51.85733
2009    20      0.19104998      52.34441375
2009    21      0.15286762      43.2269675
2009    22      0.29027892      71.49592125
2009    23      0.26705211      67.7705775
2009    24      0.32788536      78.50664
2009    25      0.49274318      107.0944125
2009    26      0.23688574      60.68202125
2009    27      0.16175422      44.60946875
2009    28      0.28287328      69.6492575
2009    29      0.30267968      74.88624125
2009    30      0.21240936      56.98828125
2010    1       0.4236589       94.7343275
2010    2       0.24591795      60.98380125
2010    3       0.26433758      66.61995875
2010    4       0.26254091      66.8383875
2010    5       0.20866918      55.16451625
2010    6       0.26399036      66.530605
2010    7       0.10924259      32.277115
2010    8       0.12885576      37.0964275
2010    9       0.1385285       39.45681
2010    10      0.13178489      37.7929375
2010    11      0.17017805      46.66655625
2010    12      0.13082984      37.4207125
2010    13      0.18117646      49.4873825
2010    14      0.16720074      46.0304925
2010    15      0.18828993      50.7447
2010    16      0.31095321      75.171135
2010    17      0.25081835      63.93553625
2010    18      0.30707384      76.477885
2010    19      0.51196321      109.82783
2010    20      0.60414694      126.8022375
2010    21      0.50073164      111.041435
2010    22      0.4148264       90.876455
2010    23      0.52361195      109.18701625
2010    24      0.31017621      75.77907
2010    25      0.1545691       43.49898375
2010    26      0.19226892      52.36864625
2010    27      0.30191794      75.14664625
2010    28      0.43615651      98.83542125
2010    29      0.37743746      88.86912375
2010    30      0.21285534      54.81392875
2011    1       0.2913767       74.2199725
2011    2       0.29081539      73.6682325
2011    3       0.34318172      82.28440125
2011    4       0.21282436      56.4270825
2011    5       0.2657883       66.37495125
2011    6       0.50576968      110.122455
2011    7       0.46964428      103.98429125
2011    8       0.17326434      46.42643625
2011    9       0.56626233      115.2418675
2011    10      0.24982848      61.1679825
2011    11      0.11053058      32.64156625
2011    12      0.18143985      48.93939375
2011    13      0.18877174      51.02529875
2011    14      0.18177885      48.977135
2011    15      0.23822815      61.73107125
2011    16      0.23761504      62.05774625
2011    17      0.23397646      61.37869375
2011    18      0.18424064      50.058305
2011    19      0.34005984      82.5218675
2011    20      0.32991568      80.32994875
2011    21      0.34546153      83.9549175
2011    22      0.3311535       80.72484
2011    23      0.494991        108.8929125
2011    24      0.39758841      93.011505
2011    25      0.35171558      83.6705325
2011    26      0.24522311      62.89977125
2011    27      0.22559756      59.1963225
2011    28      0.25673725      66.18403125
2011    29      0.22604368      59.81769
2011    30      0.28240588      70.7916375
2012    1       0.18903342      51.5655825
2012    2       0.15706189      43.434045
2012    3       0.15879629      43.7151575
2012    4       0.21883562      56.52959
2012    5       0.24954292      63.18897375
2012    6       0.22631554      58.857825
2012    7       0.26323941      66.11259875
2012    8       0.27831889      69.96813
2012    9       0.27075449      68.85120125
2012    10      0.27005173      67.917065
2012    11      0.3152548       77.26801625
2012    12      0.3188681       77.200145
2012    13      0.2080687       52.9561625
2012    14      0.33228587      77.72603
2012    15      0.25490931      63.6693825
2012    16      0.20242765      53.78842875
2012    17      0.16905092      46.7920275
2012    18      0.14027684      40.2259175
2012    19      0.21664288      55.7282475
2012    20      0.31538206      78.1868025
2012    21      0.27749968      70.86077375
2012    22      0.2518945       65.54071875
2012    23      0.43832602      100.701165
2012    24      0.17543346      47.90787125
2012    25      0.47688331      103.8413275
2012    26      0.6397525       129.41510125
2012    27      0.21624088      58.22239125
2012    28      0.27243282      69.46386625
2012    29      0.32621056      79.9887525
2012    30      0.33791105      82.44148875
2013    1       0.17511788      47.7971875
2013    2       0.18077099      48.9715125
2013    3       0.19068152      51.57938
2013    4       0.15105002      42.5371525
2013    5       0.3410361       80.4131625
2013    6       0.28162452      70.4281925
2013    7       0.34458482      83.6932875
2013    8       0.30936988      76.3999625
2013    9       0.34114094      80.36269375
2013    10      0.24589605      61.57101875
2013    11      0.20593526      54.41850625
2013    12      0.41033801      91.95719375
2013    13      0.34524674      81.4661
2013    14      0.24618179      63.561305
2013    15      0.26384725      67.536115
2013    16      0.20060126      53.86012625
2013    17      0.1649544       45.5234275
2013    18      0.09690358      29.26593125
2013    19      0.07651102      24.16642875
2013    20      0.11955074      34.8772125
2013    21      0.15291696      42.8804375
2013    22      0.19156205      51.75008
2013    23      0.20101716      53.90381
2013    24      0.26747046      66.9149375
2013    25      0.3047804       71.90548875
2013    26      0.14837124      41.902075
2013    27      0.19021114      51.61716875
2013    28      0.23131271      60.81740625
2013    29      0.21926675      58.0138725
2013    30      0.2408947       62.89538875
2014    1       0.10955793      32.08164625
2014    2       0.21146321      55.097135
2014    3       0.21070574      53.78331375
2014    4       0.1626974       43.93523
2014    5       0.27092181      66.79445
2014    6       0.25872475      64.62494875
2014    7       0.15753308      44.03318625
2014    8       0.13536229      38.9914625
2014    9       0.10772884      32.24951375
2014    10      0.11893159      34.33489625
2014    11      0.31033879      73.79958125
2014    12      0.36848012      87.1837425
2014    13      0.24914812      63.9550925
2014    14      0.15426528      43.15605875
2014    15      0.10929452      32.68222375
2014    16      0.15416022      42.985955
2014    17      0.22862222      59.84422625
2014    18      0.43722406      94.89457375
2014    19      0.69464792      137.2767875
2014    20      0.5409933       116.2427875
2014    21      0.42853385      99.4486475
2014    22      0.37060589      89.0213725
2014    23      0.26829984      68.33675
2014    24      0.1575223       43.75712
2014    25      0.32120229      78.59477625
2014    26      0.47323791      103.23014625
2014    27      0.32537102      78.37761
2014    28      0.31950964      78.386305
2014    29      0.2279407       59.17760125
2014    30      0.10747821      32.07367625
2015    1       0.37908213      88.7647575
2015    2       0.1549994       42.97255875
2015    3       0.19779331      52.5265325
2015    4       0.26033498      64.90383125
2015    5       0.24189431      60.92704125
2015    6       0.12806452      36.85419375
2015    7       0.17006341      46.31456375
2015    8       0.18328819      49.49882375
2015    9       0.14281762      40.0627125
2015    10      0.21344934      56.04313125
2015    11      0.24553802      62.457255
2015    12      0.49056896      103.50394625
2015    13      0.30647239      73.641065
2015    14      0.39348002      92.1730375
2015    15      0.26406353      66.97980375
2015    16      0.13926682      38.8653225
2015    17      0.14089074      39.49861125
2015    18      0.20911401      54.31932875
2015    19      0.20439988      54.25281125
2015    20      0.28269151      70.46667
2015    21      0.22395295      58.14393125
2015    22      0.22392012      58.3466975
2015    23      0.32028864      77.860185
2015    24      0.53216528      110.06605
2015    25      0.42346549      96.78213125
2015    26      0.49262309      106.73858875
2015    27      0.31793266      77.535575
2015    28      0.3638458       87.22626625
2015    29      0.3421082       82.3075975
2015    30      0.179398        49.3099675
2016    1       0.3360089       78.687905
2016    2       0.26343216      65.94795875
2016    3       0.15777025      44.06828
2016    4       0.14657884      41.3739575
2016    5       0.21617672      56.435365
2016    6       0.19777116      52.809035
2016    7       0.50997275      107.73265875
2016    8       0.64579185      130.452125
2016    9       0.33069496      77.87986
2016    10      0.45483832      97.02057375
2016    11      0.38599806      87.61502
2016    12      0.49278788      107.40271625
2016    13      0.30420949      75.17577
2016    14      0.31762048      78.15052
2016    15      0.3208219       78.47455875
2016    16      0.207703        54.735105
2016    17      0.27370059      67.65338625
2016    18      0.1885325       51.02777
2016    19      0.16779746      46.6657125
2016    20      0.21325336      56.788465
2016    21      0.18984081      51.62146625
2016    22      0.27773731      70.8002375
2016    23      0.32593164      80.68599125
2016    24      0.31190641      77.22754875
2016    25      0.28110302      70.4599625
2016    26      0.1786536       47.92232375
2016    27      0.31852375      76.97661625
2016    28      0.28602804      69.90411
2016    29      0.33100018      78.85279125
2016    30      0.3774928       88.2621675
2017    1       0.34576629      80.91131125
2017    2       0.26070951      65.1291925
2017    3       0.28731729      71.80322875
2017    4       0.21226252      55.368155
2017    5       0.35073524      83.4009975
2017    6       0.28759529      72.092285
2017    7       0.31952862      78.02703625
2017    8       0.24633544      63.08182625
2017    9       0.2374749       60.0783175
2017    10      0.1785196       47.68947875
2017    11      0.18848817      50.93852125
2017    12      0.20438466      54.53897125
2017    13      0.1834172       50.266475
2017    14      0.20190879      53.76552375
2017    15      0.13476067      38.6258475
2017    16      0.14663581      41.2428525
2017    17      0.25735661      64.4396275
2017    18      0.29375294      73.53204
2017    19      0.28936144      73.687025
2017    20      0.1910268       52.15845625
2017    21      0.128033        37.6732
2017    22      0.19721318      53.68398875
2017    23      0.17380891      48.68587625
2017    24      0.2275011       59.62086875
2017    25      0.61934638      128.25469375
2017    26      0.39319395      91.8471375
2017    27      0.5731758       123.6664625
2017    28      0.59772575      127.1954125
2017    29      0.22720429      57.0699225
2017    30      0.19770298      52.7100875
2018    1       0.3022985       73.76800625
2018    2       0.25802982      64.86695375
2018    3       0.32033935      77.50732875
2018    4       0.28868624      71.95098
2018    5       0.33194246      80.64890875
2018    6       0.5065007       109.44440125
2018    7       0.67596802      138.753125
2018    8       0.57355986      121.84794125
2018    9       0.2168747       57.6246525
2018    10      0.15746621      44.61648625
2018    11      0.19872648      53.83827375
2018    12      0.25097322      64.5629325
2018    13      0.10509445      31.18124875
2018    14      0.09565449      28.82964625
2018    15      0.12542148      36.11939625
2018    16      0.16676436      44.73320375
2018    17      0.20579138      52.69856375
2018    18      0.09958169      30.30725875
2018    19      0.20835716      54.4975525
2018    20      0.1632779       44.7102225
2018    21      0.20010518      53.8222075
2018    22      0.3353229       79.87466875
2018    23      0.32775128      79.94548
2018    24      0.23337536      61.0989675
2018    25      0.34379009      82.43163875
2018    26      0.45108381      101.59941
2018    27      0.66362746      134.9771875
2018    28      0.48606252      108.690565
2018    29      0.17994678      48.899315
2018    30      0.21025539      55.69317875
