####################################################################################################
# Month: 11Nov                                                                                     #
# Station: SAN                                                                                     #
# Frequency: 345 GHz                                                                               #
# Columns are: year    day     segment         tau     Tb (K)                                      #
####################################################################################################
2009    1       0       0.2139848       57.29967
2009    1       1       0.2312113       60.85192
2009    1       2       0.3069402       75.9511
2009    1       3       0.3506033       84.17352
2009    1       4       0.3368715       81.62853
2009    1       5       0.3031968       75.22772
2009    1       6       0.2832901       71.49795
2009    1       7       0.2661572       68.21648
2009    2       0       0.2665334       68.25726
2009    2       1       0.287417        72.39882
2009    2       2       0.334824        81.78961
2009    2       3       0.3776265       89.8852
2009    2       4       0.3992854       93.78669
2009    2       5       0.4125986       96.15159
2009    2       6       0.4150697       96.62163
2009    2       7       0.419843        97.43162
2009    3       0       0.3952464       93.24427
2009    3       1       0.3724287       88.93337
2009    3       2       0.3700276       88.42102
2009    3       3       0.3580559       86.21612
2009    3       4       0.3852606       90.92634
2009    3       5       0.3971264       92.75085
2009    3       6       0.3697477       87.77682
2009    3       7       0.3712217       88.2181
2009    4       0       0.3845281       90.64003
2009    4       1       0.3312974       80.47776
2009    4       2       0.330701        80.35736
2009    4       3       0.3391895       82.04801
2009    4       4       0.3079472       76.08922
2009    4       5       0.4446285       100.4126
2009    4       6       0.6583891       131.6127
2009    4       7       0.9357832       163.7284
2009    5       0       0.7093607       139.6177
2009    5       1       0.6290435       129.3893
2009    5       2       0.411872        95.40921
2009    5       3       0.2830136       70.6264
2009    5       4       0.2949561       73.23614
2009    5       5       0.3406557       82.56485
2009    5       6       0.4556866       103.1895
2009    5       7       0.3653542       87.45774
2009    6       0       0.3201569       77.98326
2009    6       1       0.79812         149.5144
2009    6       2       1.137867        184.8554
2009    6       3       1.263177        196.3476
2009    6       4       0.8014374       152.7767
2009    6       5       1.027802        175.9526
2009    6       6       1.233991        194.5436
2009    6       7       1.459035        210.3713
2009    7       0       1.102071        183.5388
2009    7       1       0.7692756       148.4791
2009    7       2       0.7300957       143.8292
2009    7       3       0.6650289       134.9574
2009    7       4       0.5411402       116.4815
2009    7       5       0.46663         103.6321
2009    7       6       0.3916137       90.32944
2009    7       7       0.3422495       80.83488
2009    8       0       0.3196616       76.78613
2009    8       1       0.3172823       76.77494
2009    8       2       0.2810857       69.76246
2009    8       3       0.2535576       64.31796
2009    8       4       0.2480194       62.99912
2009    8       5       0.236315        60.70009
2009    8       6       0.2722074       67.3477
2009    8       7       0.2953834       72.38724
2009    9       0       0.3113558       76.14493
2009    9       1       0.3197292       77.28127
2009    9       2       0.3207492       77.28201
2009    9       3       0.3155042       76.33856
2009    9       4       0.3133834       76.26355
2009    9       5       0.3241282       78.22843
2009    9       6       0.3735362       87.16843
2009    9       7       0.4013028       92.02536
2009    10      0       0.4358169       98.12051
2009    10      1       0.4479277       98.3091
2009    10      2       0.4506184       98.09572
2009    10      3       0.4646207       100.0429
2009    10      4       0.3910852       88.47189
2009    10      5       0.3852107       87.61676
2009    10      6       0.4080971       91.35475
2009    10      7       0.4267345       94.75836
2009    11      0       0.5792991       119.9462
2009    11      1       0.5605965       116.2178
2009    11      2       0.5446648       114.2637
2009    11      3       0.6517789       129.6431
2009    11      4       0.613008        123.9173
2009    11      5       0.599293        123.3696
2009    11      6       0.5967635       125.38
2009    11      7       0.5916332       124.4219
2009    12      0       0.6854923       137.002
2009    12      1       0.5669258       119.5671
2009    12      2       0.5327041       114.4146
2009    12      3       0.5832431       120.336
2009    12      4       0.9613298       165.4143
2009    12      5       0.9586855       167.0786
2009    12      6       0.6841811       136.2396
2009    12      7       0.8330151       154.1934
2009    13      0       0.8979926       160.4394
2009    13      1       1.020764        172.322
2009    13      2       1.14597         183.6593
2009    13      3       1.054234        175.782
2009    13      4       0.8538614       156.0312
2009    13      5       0.5035596       109.6134
2009    13      6       0.4430262       99.64072
2009    13      7       0.5439141       115.4891
2009    14      0       0.6130747       125.6529
2009    14      1       0.536044        114.4913
2009    14      2       0.4625532       102.244
2009    14      3       0.4355964       97.28419
2009    14      4       0.5143285       109.4068
2009    14      5       0.4662693       102.7409
2009    14      6       0.3164704       76.60589
2009    14      7       0.4015979       91.14536
2009    15      0       0.4582645       101.1095
2009    15      1       0.4305994       97.00155
2009    15      2       0.4358665       98.25465
2009    15      3       0.3889632       89.86241
2009    15      4       0.368324        85.86165
2009    15      5       0.397361        91.08582
2009    15      6       0.3864805       89.65918
2009    15      7       0.3937494       91.4538
2009    16      0       0.433396        98.7532
2009    16      1       0.4723677       105.5507
2009    16      2       0.4830278       107.4142
2009    16      3       0.4876467       108.1443
2009    16      4       0.4962254       109.3648
2009    16      5       0.4950065       109.1418
2009    16      6       0.4962047       109.4326
2009    16      7       0.4842171       107.7487
2009    17      0       0.4396328       100.5305
2009    17      1       0.3996909       93.56272
2009    17      2       0.3731921       88.9214
2009    17      3       0.3602692       86.57504
2009    17      4       0.3298224       80.92873
2009    17      5       0.3014655       75.40686
2009    17      6       0.2957681       74.21652
2009    17      7       0.3180412       78.49926
2009    18      0       0.3161102       78.10394
2009    18      1       0.2992185       74.67244
2009    18      2       0.3330538       80.657
2009    18      3       0.3778584       88.64286
2009    18      4       0.4103792       94.42568
2009    18      5       0.4451129       100.2251
2009    18      6       0.4219419       95.86025
2009    18      7       0.3602957       84.52807
2009    19      0       0.2574543       65.57475
2009    19      1       0.1974892       53.34967
2009    19      2       0.178817        49.16911
2009    19      3       0.1896318       50.98719
2009    19      4       0.1951517       52.41257
2009    19      5       0.1978511       53.13682
2009    19      6       0.2041299       54.60161
2009    19      7       0.2164096       57.14362
2009    20      0       0.2225329       58.4724
2009    20      1       0.2129775       56.34351
2009    20      2       0.2122275       56.21149
2009    20      3       0.2317483       60.289
2009    20      4       0.2324269       60.57322
2009    20      5       0.2220195       58.76471
2009    20      6       0.2444025       63.35811
2009    20      7       0.2293996       60.05267
2009    21      0       0.204471        54.27575
2009    21      1       0.2183159       56.74519
2009    21      2       0.3532208       82.46455
2009    21      3       0.4953099       107.2351
2009    21      4       0.5513281       116.7388
2009    21      5       0.397978        91.84194
2009    21      6       0.3870667       89.58614
2009    21      7       0.4861763       106.439
2009    22      0       0.1711298       47.78326
2009    22      1       0.1609267       45.33363
2009    22      2       0.1898647       51.65926
2009    22      3       0.2374263       61.01878
2009    22      4       0.3280939       77.80251
2009    22      5       0.4674084       103.4782
2009    22      6       0.4467408       101.8291
2009    22      7       0.3969126       92.43642
2009    23      0       0.5551181       117.6154
2009    23      1       0.5623755       119.8738
2009    23      2       0.5288875       114.5329
2009    23      3       0.5920981       123.5805
2009    23      4       0.563655        119.7647
2009    23      5       0.6124132       126.5298
2009    23      6       0.6314553       128.5562
2009    23      7       0.6087926       125.0994
2009    24      0       0.5143801       111.3084
2009    24      1       0.4784437       105.579
2009    24      2       0.533387        114.1858
2009    24      3       0.5696057       119.7428
2009    24      4       0.5251368       113.3187
2009    24      5       0.4876506       107.488
2009    24      6       0.4566477       102.5414
2009    24      7       0.4516314       101.5449
2009    25      0       0.446993        100.6502
2009    25      1       0.4475667       100.628
2009    25      2       0.4600789       102.3752
2009    25      3       0.4785662       104.9737
2009    25      4       0.4569641       101.176
2009    25      5       0.4386342       97.82904
2009    25      6       0.4350681       97.23987
2009    25      7       0.4262158       95.73713
2009    26      0       0.4066347       92.3491
2009    26      1       0.3810251       87.85357
2009    26      2       0.3648201       85.24776
2009    26      3       0.3463773       82.23398
2009    26      4       0.325639        78.68866
2009    26      5       0.2991783       73.96123
2009    26      6       0.277218        69.81385
2009    26      7       0.2556082       65.6206
2009    27      0       0.2407117       62.75375
2009    27      1       0.2386297       62.34454
2009    27      2       0.2356795       61.59853
2009    27      3       0.2371441       61.78753
2009    27      4       0.2477936       63.61377
2009    27      5       0.2946987       72.4607
2009    27      6       0.3617167       84.10977
2009    27      7       0.4102791       93.14001
2009    28      0       0.4899266       106.1939
2009    28      1       0.4987549       107.4674
2009    28      2       0.5360429       113.2056
2009    28      3       0.09268927      29.21429
2009    28      4       0.2398173       60.95215
2009    28      5       0.4694756       101.2334
2009    28      6       0.7074381       133.5798
2009    28      7       0.7590499       140.6024
2009    29      0       0.7969523       144.6825
2009    29      1       0.5233868       109.0744
2009    29      2       0.5396049       111.4898
2009    29      3       0.5656648       115.418
2009    29      4       0.5065381       106.5286
2009    29      5       0.9408652       161.4277
2009    29      6       0.2138432       55.26621
2009    29      7       0.4083329       91.68604
2009    30      0       0.5691442       118.1388
2009    30      1       0.4023715       92.08673
2009    30      2       0.2457526       62.55548
2009    30      3       0.2568689       64.82843
2009    30      4       0.2599918       65.73287
2009    30      5       0.2656347       67.19069
2009    30      6       0.23292         60.67878
2009    30      7       0.204735        54.60775
2010    1       0       0.4893543       108.523
2010    1       1       0.4039486       93.98533
2010    1       2       0.3761856       89.44594
2010    1       3       0.4056321       94.69314
2010    1       4       0.4669321       105.3791
2010    1       5       0.5966518       125.8484
2010    1       6       0.7531626       147.3208
2010    1       7       0.8405884       158.3461
2010    2       0       0.8586762       161.2458
2010    2       1       0.8531065       161.2666
2010    2       2       0.8698438       163.3922
2010    2       3       0.840144        160.0254
2010    2       4       0.7615953       150.5359
2010    2       5       0.706321        143.3983
2010    2       6       0.7562249       149.9209
2010    2       7       0.7977546       155.1809
2010    3       0       0.7194612       145.4046
2010    3       1       0.6431329       134.8367
2010    3       2       0.6772721       139.2676
2010    3       3       0.6842467       140.0492
2010    3       4       0.6573312       136.4075
2010    3       5       0.6521791       135.6671
2010    3       6       0.7198391       144.9271
2010    3       7       0.7652121       150.8533
2010    4       0       0.7198016       144.7424
2010    4       1       0.684876        139.8067
2010    4       2       0.7160485       144.0094
2010    4       3       0.7938794       153.8057
2010    4       4       0.8110008       155.7256
2010    4       5       0.8102762       155.5971
2010    4       6       1.083147        184.6793
2010    4       7       1.363655        207.3615
2010    5       0       1.089323        185.5607
2010    5       1       0.7896609       153.3716
2010    5       2       0.7171105       143.7384
2010    5       3       0.5815835       124.5274
2010    5       4       0.4708146       107.1537
2010    5       5       0.3555864       86.60465
2010    5       6       0.2674155       69.19704
2010    5       7       0.2994815       75.75115
2010    6       0       0.3476087       85.10812
2010    6       1       0.3697347       88.35264
2010    6       2       0.372256        88.95989
2010    6       3       0.3812626       90.26767
2010    6       4       0.4483315       101.0766
2010    6       5       0.5880057       122.6709
2010    6       6       0.7911639       149.6671
2010    6       7       0.9427202       166.7558
2010    7       0       0.5232841       113.5117
2010    7       1       0.37573         88.97895
2010    7       2       0.2735388       69.17494
2010    7       3       0.3798273       90.14875
2010    7       4       0.6166105       127.1596
2010    7       5       0.9158733       164.8493
2010    7       6       1.195081        192.2879
2010    7       7       1.226259        194.7213
2010    8       0       1.180135        190.4741
2010    8       1       0.8748985       160.8553
2010    8       2       1.020716        173.9302
2010    8       3       1.365818        202.635
2010    8       4       0.705511        140.361
2010    8       5       0.2037634       53.09504
2010    8       6       0.1353696       38.70131
2010    8       7       0.1057171       32.22967
2010    9       0       0.1335545       38.39718
2010    9       1       0.1866221       49.73337
2010    9       2       0.3216438       77.05437
2010    9       3       0.3653166       85.75851
2010    9       4       0.4042849       92.25292
2010    9       5       0.47999         104.7195
2010    9       6       0.5029331       108.7736
2010    9       7       0.463166        103.0664
2010    10      0       0.5007806       109.4245
2010    10      1       0.5918825       123.0233
2010    10      2       0.5290722       113.9437
2010    10      3       0.3233678       78.62106
2010    10      4       0.251563        63.97462
2010    10      5       0.1819613       49.32769
2010    10      6       0.1536119       43.09276
2010    10      7       0.1460383       41.34393
2010    11      0       0.1423943       40.66866
2010    11      1       0.1915991       51.59493
2010    11      2       0.216423        57.05176
2010    11      3       0.276418        69.23965
2010    11      4       0.2682327       67.73684
2010    11      5       0.1603239       44.76027
2010    11      6       0.08759022      27.72049
2010    11      7       0.1112062       33.08032
2010    12      0       0.1184967       34.66981
2010    12      1       0.1590323       43.20904
2010    12      2       0.2418004       60.215
2010    12      3       0.2468125       62.31566
2010    12      4       0.2265384       59.02694
2010    12      5       0.2956937       72.55841
2010    12      6       0.4138671       93.95775
2010    12      7       0.4959944       107.8347
2010    13      0       0.587926        122.4924
2010    13      1       0.6501606       131.4031
2010    13      2       0.5992699       124.2039
2010    13      3       0.5975136       123.4707
2010    13      4       0.6547323       130.7471
2010    13      5       0.7044458       138.4971
2010    13      6       0.3842379       90.66024
2010    13      7       0.3081509       75.89112
2010    14      0       0.3122097       75.75825
2010    14      1       0.5308702       112.4377
2010    14      2       0.7469555       142.554
2010    14      3       0.4953979       109.176
2010    14      4       0.3649432       85.91139
2010    14      5       0.3736983       85.77346
2010    14      6       0.5409191       113.5991
2010    14      7       0.8301829       153.763
2010    15      0       1.025881        175.1531
2010    15      1       1.076381        179.9801
2010    15      2       0.8682219       158.9762
2010    15      3       0.6830337       136.9501
2010    15      4       0.6704145       135.646
2010    15      5       0.5630873       120.924
2010    15      6       0.516713        113.8814
2010    15      7       0.5387766       117.27
2010    16      0       0.5578816       120.1783
2010    16      1       0.5559035       119.6723
2010    16      2       0.5721065       121.943
2010    16      3       0.6471589       131.9239
2010    16      4       0.5035416       110.9101
2010    16      5       0.3741174       89.13159
2010    16      6       0.3470016       83.78209
2010    16      7       0.3650413       86.41678
2010    17      0       0.3591577       85.20373
2010    17      1       0.3757856       87.90364
2010    17      2       0.3510585       83.2808
2010    17      3       0.3322161       79.53401
2010    17      4       0.3208163       76.87036
2010    17      5       0.306545        74.10476
2010    17      6       0.2984111       72.95307
2010    17      7       0.3076473       75.35761
2010    18      0       0.3195931       77.95138
2010    18      1       0.2979386       74.09322
2010    18      2       0.2721201       69.00752
2010    18      3       0.2631529       67.21542
2010    18      4       0.2645288       67.50264
2010    18      5       0.2779575       69.98887
2010    18      6       0.2937118       72.9044
2010    18      7       0.2951047       73.23054
2010    19      0       0.301637        74.39397
2010    19      1       0.2972901       73.34441
2010    19      2       0.3013014       73.58498
2010    19      3       0.3061346       74.1608
2010    19      4       0.268878        67.0808
2010    19      5       0.2768457       68.67895
2010    19      6       0.4559235       100.6771
2010    19      7       0.615728        125.1681
2010    20      0       0.5529313       114.6992
2010    20      1       0.6636332       129.4356
2010    20      2       0.9300229       163.3683
2010    20      3       1.079563        179.1869
2010    20      4       1.254258        192.757
2010    20      5       1.160723        185.1001
2010    20      6       1.048385        173.8517
2010    20      7       1.196452        186.4645
2010    21      0       0.77861         146.3684
2010    21      1       0.3940065       90.8785
2010    21      2       0.198142        52.51998
2010    21      3       0.1645444       45.23523
2010    21      4       0.1535499       43.10866
2010    21      5       0.2704574       67.67832
2010    21      6       0.3469332       81.89357
2010    21      7       0.118163        35.08868
2010    22      0       0.1469579       41.60311
2010    22      1       0.155528        43.28506
2010    22      2       0.2168197       56.33074
2010    22      3       0.2204597       57.34471
2010    22      4       0.2078374       54.76806
2010    22      5       0.1972151       52.76426
2010    22      6       0.1925765       51.60505
2010    22      7       0.1764761       48.22248
2010    23      0       0.1687295       46.54501
2010    23      1       0.1765955       48.26828
2010    23      2       0.1801959       49.12265
2010    23      3       0.1699928       46.9548
2010    23      4       0.1721601       47.10842
2010    23      5       0.191663        50.98411
2010    23      6       0.2481289       61.79121
2010    23      7       0.3000485       72.01081
2010    24      0       0.3996217       90.49795
2010    24      1       0.2290573       58.92264
2010    24      2       0.1918854       50.52191
2010    24      3       0.3050707       72.91095
2010    24      4       0.5028713       107.3235
2010    24      5       0.6523784       128.4771
2010    24      6       0.7382315       138.7162
2010    24      7       0.6841831       131.7246
2010    25      0       0.414391        92.54843
2010    25      1       0.2442196       61.86115
2010    25      2       0.1792568       48.50073
2010    25      3       0.1232147       36.07088
2010    25      4       0.1292413       37.53837
2010    25      5       0.1366491       39.43537
2010    25      6       0.1340403       38.84534
2010    25      7       0.1622561       45.25169
2010    26      0       0.1900773       51.47897
2010    26      1       0.2228045       58.42087
2010    26      2       0.236319        61.37425
2010    26      3       0.243897        62.81401
2010    26      4       0.2492071       63.72535
2010    26      5       0.2378516       61.29572
2010    26      6       0.2151486       56.72784
2010    26      7       0.1874819       51.07799
2010    27      0       0.1602955       45.30233
2010    27      1       0.1319607       38.90624
2010    27      2       0.1346313       39.5001
2010    27      3       0.1527333       43.57413
2010    27      4       0.1730991       47.84745
2010    27      5       0.174113        47.91824
2010    27      6       0.1965213       51.6641
2010    27      7       0.2645804       63.97804
2010    28      0       0.2770028       69.1228
2010    28      1       0.2572789       64.5257
2010    28      2       0.2274044       58.85486
2010    28      3       0.09263053      28.83379
2010    28      4       0.1081982       32.09846
2010    28      5       0.1106786       32.73639
2010    28      6       0.1223089       35.30294
2010    28      7       0.1704635       45.88964
2010    29      0       0.2498594       62.21627
2010    29      1       0.2305029       58.51804
2010    29      2       0.1918782       50.37279
2010    29      3       0.1417921       39.97298
2010    29      4       0.1094286       32.72274
2010    29      5       0.1327535       37.99978
2010    29      6       0.2040965       53.35412
2010    29      7       0.2521611       63.34547
2010    30      0       0.2742914       67.70195
2010    30      1       0.2772929       68.31656
2010    30      2       0.289441        71.04967
2010    30      3       0.3602245       84.36905
2010    30      4       0.4174543       94.43629
2010    30      5       0.4621741       101.958
2010    30      6       0.5710983       118.9017
2010    30      7       0.695978        135.8624
2011    1       0       0.6177977       127.2253
2011    1       1       0.6212805       127.2232
2011    1       2       0.6387005       129.3346
2011    1       3       0.6290192       128.2984
2011    1       4       0.5342623       114.9985
2011    1       5       0.3801677       90.11742
2011    1       6       0.2819196       71.44853
2011    1       7       0.1741554       48.95853
2011    2       0       0.1929936       52.97054
2011    2       1       0.1926503       52.64848
2011    2       2       0.1983535       53.98301
2011    2       3       0.2187871       58.44165
2011    2       4       0.2253134       59.57516
2011    2       5       0.2356561       61.59483
2011    2       6       0.2589602       66.49674
2011    2       7       0.3047292       75.87131
2011    3       0       0.3171826       78.2484
2011    3       1       0.2682509       68.73721
2011    3       2       0.2559302       66.23443
2011    3       3       0.2867994       72.58237
2011    3       4       0.3119358       76.86664
2011    3       5       0.5547108       118.3621
2011    3       6       0.8147595       153.6689
2011    3       7       0.7359996       144.0379
2011    4       0       0.6420785       131.4581
2011    4       1       0.5418143       116.679
2011    4       2       0.3883474       90.94091
2011    4       3       0.2573808       65.37925
2011    4       4       0.3464579       82.35141
2011    4       5       0.6213685       127.1618
2011    4       6       1.045343        174.1889
2011    4       7       1.226377        186.4661
2011    5       0       1.228388        184.8668
2011    5       1       0.8642903       152.8526
2011    5       2       0.5527729       114.2888
2011    5       3       0.347381        81.22755
2011    5       4       0.4045236       91.26278
2011    5       5       0.6859982       133.0482
2011    5       6       0.9348694       161.7871
2011    5       7       1.014407        170.7931
2011    6       0       0.7624971       145.5252
2011    6       1       0.4543176       102.1631
2011    6       2       0.3163931       77.40137
2011    6       3       0.2715963       68.23456
2011    6       4       0.3993743       91.31067
2011    6       5       0.5556095       115.9376
2011    6       6       0.9617747       165.0837
2011    6       7       0.9086576       159.4769
2011    7       0       0.7825244       144.4045
2011    7       1       0.5874525       118.7673
2011    7       2       0.35361         82.19835
2011    7       3       0.3465011       81.01222
2011    7       4       0.4189756       93.5157
2011    7       5       0.3850374       87.5624
2011    7       6       0.3200534       76.01347
2011    7       7       0.2885639       70.80867
2011    8       0       0.2184495       57.02871
2011    8       1       0.1497203       41.94576
2011    8       2       0.1625783       44.73792
2011    8       3       0.1838784       49.49204
2011    8       4       0.2070486       54.02182
2011    8       5       0.2448701       61.25424
2011    8       6       0.2400342       60.37679
2011    8       7       0.2075111       54.05959
2011    9       0       0.2041175       53.66784
2011    9       1       0.1814189       49.24959
2011    9       2       0.1830874       49.64558
2011    9       3       0.1762705       48.2977
2011    9       4       0.1514538       42.79725
2011    9       5       0.1464004       41.61188
2011    9       6       0.176657        48.07106
2011    9       7       0.184076        49.61475
2011    10      0       0.1730436       47.19668
2011    10      1       0.1685857       46.09238
2011    10      2       0.1762789       47.42073
2011    10      3       0.1862783       49.16289
2011    10      4       0.1596727       43.37184
2011    10      5       0.2061231       52.35435
2011    10      6       0.3073321       71.60553
2011    10      7       0.3756708       84.04697
2011    11      0       0.6541979       126.3245
2011    11      1       0.952465        161.9144
2011    11      2       1.067516        173.3421
2011    11      3       1.182755        183.2128
2011    11      4       1.61649         212.6642
2011    11      5       1.717924        217.4792
2011    11      6       1.725295        218.574
2011    11      7       1.466896        206.2982
2011    12      0       0.6802946       134.1614
2011    12      1       0.5188082       110.6919
2011    12      2       0.9304747       163.3071
2011    12      3       1.093065        179.3612
2011    12      4       1.119949        182.0552
2011    12      5       1.920876        229.7535
2011    12      6       1.727337        221.1242
2011    12      7       1.740847        220.9618
2011    13      0       1.881045        225.9476
2011    13      1       1.825028        223.3246
2011    13      2       0.9392635       163.9106
2011    13      3       1.00119         169.6497
2011    13      4       0.6338409       127.7034
2011    13      5       0.5484121       115.4685
2011    13      6       0.6899016       134.2486
2011    13      7       1.047017        175.2212
2011    14      0       1.25701         193.6367
2011    14      1       0.9307736       165.796
2011    14      2       0.7449002       143.3179
2011    14      3       0.7773394       146.2861
2011    14      4       0.8272614       152.259
2011    14      5       1.13512         184.5971
2011    14      6       1.0859          180.9873
2011    14      7       1.116068        184.7183
2011    15      0       0.9783559       172.2824
2011    15      1       0.8878507       163.1345
2011    15      2       0.7727389       149.3621
2011    15      3       0.5749694       122.0256
2011    15      4       0.5082643       112.2656
2011    15      5       0.4255522       99.04083
2011    15      6       0.3467611       84.71029
2011    15      7       0.2492289       65.15382
2011    16      0       0.2206661       58.67391
2011    16      1       0.2858354       71.98737
2011    16      2       0.4749573       106.5086
2011    16      3       0.57227         121.672
2011    16      4       0.4944502       109.5704
2011    16      5       0.4980166       110.3573
2011    16      6       0.5703645       121.7534
2011    16      7       0.5829134       123.7569
2011    17      0       0.4774407       107.5938
2011    17      1       0.3808177       90.53655
2011    17      2       0.3643765       87.22473
2011    17      3       0.3481265       84.13432
2011    17      4       0.320027        78.76018
2011    17      5       0.2923679       72.91252
2011    17      6       0.3098756       76.4062
2011    17      7       0.3237355       78.74568
2011    18      0       0.2829881       70.43406
2011    18      1       0.2812576       69.7563
2011    18      2       0.2884898       70.53521
2011    18      3       0.400111        91.04513
2011    18      4       0.659025        130.3526
2011    18      5       0.7529639       142.232
2011    18      6       0.463982        102.0629
2011    18      7       0.2873046       70.30178
2011    19      0       0.1818328       49.19758
2011    19      1       0.1642396       45.80598
2011    19      2       0.1578851       44.46936
2011    19      3       0.1822514       49.85706
2011    19      4       0.1991632       53.55785
2011    19      5       0.2457212       63.52019
2011    19      6       0.3209129       78.5219
2011    19      7       0.3364873       81.61297
2011    20      0       0.4119664       95.18749
2011    20      1       0.5258686       113.0786
2011    20      2       0.6700879       132.7529
2011    20      3       0.5873451       120.2311
2011    20      4       0.5346611       112.5496
2011    20      5       0.6531823       129.36
2011    20      6       0.8796883       156.2522
2011    20      7       0.9943424       167.0281
2011    21      0       0.9687764       164.6376
2011    21      1       1.201583        184.7654
2011    21      2       1.502279        204.2863
2011    21      3       0.9216982       159.7217
2011    21      4       0.2733555       67.65729
2011    21      5       0.2189048       56.27991
2011    21      6       0.2144659       56.2405
2011    21      7       0.2403799       62.12838
2011    22      0       0.3054001       75.10839
2011    22      1       0.3373964       81.26329
2011    22      2       0.3710848       87.65692
2011    22      3       0.3708552       87.72829
2011    22      4       0.312181        76.88403
2011    22      5       0.2501026       64.36202
2011    22      6       0.2470368       63.26261
2011    22      7       0.2203977       57.8443
2011    23      0       0.2046081       54.11677
2011    23      1       0.1891735       50.75696
2011    23      2       0.1874412       50.58795
2011    23      3       0.2001036       53.61392
2011    23      4       0.1970708       53.03399
2011    23      5       0.2120697       56.14994
2011    23      6       0.2078719       55.19727
2011    23      7       0.2204369       57.76332
2011    24      0       0.207883        55.15774
2011    24      1       0.227857        58.79669
2011    24      2       0.3093531       74.51147
2011    24      3       0.3737094       86.08271
2011    24      4       0.3793647       87.08887
2011    24      5       0.3902135       89.49028
2011    24      6       0.4386978       98.10855
2011    24      7       0.498742        107.7436
2011    25      0       0.4789042       104.4883
2011    25      1       0.4222516       95.17537
2011    25      2       0.3790284       88.15272
2011    25      3       0.3558311       84.07689
2011    25      4       0.3987677       92.03313
2011    25      5       0.4352873       98.59716
2011    25      6       0.3301459       80.20074
2011    25      7       0.2334735       60.48384
2011    26      0       0.3691858       86.31747
2011    26      1       0.506193        109.7854
2011    26      2       0.5358871       114.7865
2011    26      3       0.5608312       118.917
2011    26      4       0.561497        118.9299
2011    26      5       0.4919495       108.5131
2011    26      6       0.4298934       98.37664
2011    26      7       0.4262211       97.82941
2011    27      0       0.4791221       106.6316
2011    27      1       0.5211283       113.222
2011    27      2       0.5595347       118.8149
2011    27      3       0.5984412       124.4839
2011    27      4       0.6356815       129.9608
2011    27      5       0.6426923       131.1198
2011    27      6       0.5902676       123.8583
2011    27      7       0.5397773       116.2862
2011    28      0       0.4758656       105.9785
2011    28      1       0.4169179       95.75656
2011    28      2       0.4204121       95.99617
2011    28      3       0.4049713       93.45538
2011    28      4       0.3831834       89.13557
2011    28      5       0.3756427       87.5179
2011    28      6       0.408907        93.163
2011    28      7       0.4193042       94.82967
2011    29      0       0.4159454       93.88874
2011    29      1       0.4343783       97.1023
2011    29      2       0.5244855       111.9994
2011    29      3       0.5762844       120.3449
2011    29      4       0.5198328       111.1215
2011    29      5       0.5274857       111.4321
2011    29      6       0.5965821       121.2207
2011    29      7       0.6335277       126.1187
2011    30      0       0.6703585       131.333
2011    30      1       0.6538982       130.1124
2011    30      2       0.5577219       117.6703
2011    30      3       0.5061508       109.8457
2011    30      4       0.4258018       96.95707
2011    30      5       0.3310872       79.98487
2011    30      6       0.3581325       84.40233
2011    30      7       0.3084046       76.17586
2012    1       0       0.4048317       94.21707
2012    1       1       0.3932218       91.42863
2012    1       2       0.4166291       94.55189
2012    1       3       0.4293346       96.86758
2012    1       4       0.4789023       104.3124
2012    1       5       0.5700133       117.5589
2012    1       6       0.4474164       99.459
2012    1       7       0.3742751       87.26666
2012    2       0       0.3487635       82.69163
2012    2       1       0.3431308       81.60756
2012    2       2       0.3550201       84.06228
2012    2       3       0.3939471       91.39711
2012    2       4       0.4101167       94.54282
2012    2       5       0.3998292       92.83199
2012    2       6       0.3813411       89.49359
2012    2       7       0.4140931       95.07585
2012    3       0       0.5194743       112.7107
2012    3       1       0.537102        115.2714
2012    3       2       0.5132802       111.2291
2012    3       3       0.5078462       110.0839
2012    3       4       0.5314735       113.8321
2012    3       5       0.5532965       117.2571
2012    3       6       0.5811413       121.3842
2012    3       7       0.5939474       123.6986
2012    4       0       0.5672305       119.8368
2012    4       1       0.5085566       110.8709
2012    4       2       0.4316342       98.88179
2012    4       3       0.3568719       85.81367
2012    4       4       0.3449729       83.62912
2012    4       5       0.3733878       88.70121
2012    4       6       0.4091586       95.01576
2012    4       7       0.5091818       111.7974
2012    5       0       0.5829253       123.1309
2012    5       1       0.5892961       124.1308
2012    5       2       0.5883117       124.308
2012    5       3       0.6133317       128.1398
2012    5       4       0.6308791       130.4026
2012    5       5       0.6399153       131.5313
2012    5       6       0.6626205       135.1089
2012    5       7       0.6807878       138.0236
2012    6       0       0.6862778       139.1222
2012    6       1       0.6477003       134.0463
2012    6       2       0.637047        132.5521
2012    6       3       0.6709949       137.155
2012    6       4       0.649526        133.9868
2012    6       5       0.5958886       126.1633
2012    6       6       0.5229479       114.9799
2012    6       7       0.4731962       106.9843
2012    7       0       0.4367525       101.0252
2012    7       1       0.3465328       84.68985
2012    7       2       0.3235723       79.68209
2012    7       3       0.2951977       73.90536
2012    7       4       0.29851         74.29977
2012    7       5       0.3095735       76.36112
2012    7       6       0.3405461       81.9313
2012    7       7       0.4134687       95.13994
2012    8       0       0.4029261       93.4584
2012    8       1       0.4209558       96.86292
2012    8       2       0.5341095       115.8411
2012    8       3       0.8019988       151.6521
2012    8       4       1.572242        215.9167
2012    8       5       1.77084         225.6875
2012    8       6       1.257557        194.5739
2012    8       7       0.981687        170.9464
2012    9       0       0.8911084       161.6151
2012    9       1       0.8450343       157.1844
2012    9       2       0.8258536       155.3121
2012    9       3       0.4052243       93.86715
2012    9       4       0.314628        74.68646
2012    9       5       0.3614646       83.46968
2012    9       6       0.3415532       80.1022
2012    9       7       0.3359393       79.08744
2012    10      0       0.5900256       120.1023
2012    10      1       0.1564535       43.27649
2012    10      2       0.1974037       51.52998
2012    10      3       0.2949814       70.52076
2012    10      4       0.2430479       61.09964
2012    10      5       0.1979581       52.02474
2012    10      6       0.1699872       46.14358
2012    10      7       0.232747        59.1645
2012    11      0       0.2219435       57.18403
2012    11      1       0.1318398       38.09298
2012    11      2       0.1628189       45.14634
2012    11      3       0.2143489       56.08497
2012    11      4       0.3371601       79.7368
2012    11      5       0.426622        95.69106
2012    11      6       0.4630212       101.7736
2012    11      7       0.5355374       113.3358
2012    12      0       0.5946483       122.4387
2012    12      1       0.6077118       125.0441
2012    12      2       0.5479249       116.6675
2012    12      3       0.4676598       104.0405
2012    12      4       0.4384115       98.78853
2012    12      5       0.4561544       101.1537
2012    12      6       0.4598126       101.573
2012    12      7       0.4103446       93.83547
2012    13      0       0.4682483       103.6541
2012    13      1       0.3352629       81.78384
2012    13      2       0.2769019       70.13627
2012    13      3       0.2140356       56.91539
2012    13      4       0.1729334       47.85964
2012    13      5       0.1721848       47.6694
2012    13      6       0.1598408       45.06512
2012    13      7       0.1547423       44.21868
2012    14      0       0.158426        45.1044
2012    14      1       0.152899        43.53534
2012    14      2       0.1959531       52.39768
2012    14      3       0.2391276       61.10091
2012    14      4       0.2850289       70.11031
2012    14      5       0.3663702       85.18638
2012    14      6       0.4855986       104.8876
2012    14      7       0.5355351       111.5341
2012    15      0       0.6316207       125.5293
2012    15      1       0.7333074       138.4671
2012    15      2       0.7229583       137.3606
2012    15      3       0.8278503       149.3112
2012    15      4       0.895855        156.7013
2012    15      5       1.012841        169.7936
2012    15      6       1.475747        206.4436
2012    15      7       1.87862         226.8818
2012    16      0       1.709914        221.3094
2012    16      1       1.355417        202.4111
2012    16      2       1.038847        177.1927
2012    16      3       0.8435639       156.7577
2012    16      4       0.7414017       144.1616
2012    16      5       0.9989288       172.4113
2012    16      6       0.7813996       148.0863
2012    16      7       0.6737404       134.6173
2012    17      0       0.5611495       117.8285
2012    17      1       0.4405414       98.51082
2012    17      2       0.4186225       94.46564
2012    17      3       0.3641205       84.96354
2012    17      4       0.4498076       100.0261
2012    17      5       0.5674154       118.3734
2012    17      6       0.8006829       150.2973
2012    17      7       0.9074003       163.0085
2012    18      0       0.5698424       120.5704
2012    18      1       0.4989274       109.4522
2012    18      2       0.4233179       96.81881
2012    18      3       0.297905        73.59272
2012    18      4       0.2291163       59.61221
2012    18      5       0.2465138       63.108
2012    18      6       0.2514282       64.15564
2012    18      7       0.2531989       64.59687
2012    19      0       0.3158003       76.97092
2012    19      1       0.3871325       90.13586
2012    19      2       0.4234801       96.57684
2012    19      3       0.492439        108.0207
2012    19      4       0.5336464       113.8609
2012    19      5       0.6159183       125.3247
2012    19      6       0.6074185       124.1614
2012    19      7       0.5889223       121.5717
2012    20      0       0.639696        128.8258
2012    20      1       0.67502         133.7731
2012    20      2       0.6703849       133.0301
2012    20      3       0.592758        122.0966
2012    20      4       0.5441967       115.0193
2012    20      5       0.5051929       109.0754
2012    20      6       0.4725333       104.3057
2012    20      7       0.4243676       96.51728
2012    21      0       0.3844323       89.68003
2012    21      1       0.3480077       82.8702
2012    21      2       0.3524535       83.50872
2012    21      3       0.3965632       91.45077
2012    21      4       0.4706568       104.4691
2012    21      5       0.5702912       120.3025
2012    21      6       0.5821215       122.0941
2012    21      7       0.513266        111.3237
2012    22      0       0.4827227       106.3466
2012    22      1       0.6001994       125.0073
2012    22      2       0.7403788       144.5344
2012    22      3       0.8196412       154.3176
2012    22      4       0.7863262       150.2567
2012    22      5       0.7695387       147.8687
2012    22      6       0.7253721       142.1911
2012    22      7       0.6490722       132.0615
2012    23      0       0.5974472       124.9449
2012    23      1       0.5420201       116.7136
2012    23      2       0.5332632       115.3763
2012    23      3       0.5008373       110.5254
2012    23      4       0.469024        105.3741
2012    23      5       0.4514487       102.2621
2012    23      6       0.425373        97.94485
2012    23      7       0.4197294       97.09629
2012    24      0       0.4227765       97.68773
2012    24      1       0.4076126       95.01383
2012    24      2       0.3871167       91.36855
2012    24      3       0.3687219       88.01566
2012    24      4       0.3615067       86.66007
2012    24      5       0.3453593       83.70951
2012    24      6       0.3186611       78.67204
2012    24      7       0.3704319       88.69862
2012    25      0       0.4587316       104.0819
2012    25      1       0.3930626       92.75731
2012    25      2       0.3821367       90.67377
2012    25      3       0.3988346       93.52454
2012    25      4       0.4141326       96.10028
2012    25      5       0.4384025       100.2484
2012    25      6       0.4229162       97.61082
2012    25      7       0.4301919       98.80935
2012    26      0       0.4103212       95.35744
2012    26      1       0.3344508       81.60392
2012    26      2       0.2981473       73.95323
2012    26      3       0.3711605       87.13824
2012    26      4       0.364393        84.88417
2012    26      5       0.3386674       80.86712
2012    26      6       0.281732        70.69691
2012    26      7       0.2871272       72.52956
2012    27      0       0.3207967       79.20692
2012    27      1       0.304227        75.95714
2012    27      2       0.2891609       72.61893
2012    27      3       0.2979225       74.09661
2012    27      4       0.2939501       72.88043
2012    27      5       0.3158475       76.47308
2012    27      6       0.439785        98.59197
2012    27      7       0.5746722       119.1739
2012    28      0       0.8218952       150.7455
2012    28      1       0.7807262       146.8588
2012    28      2       0.6808387       134.6074
2012    28      3       0.6695444       133.8525
2012    28      4       0.6501631       131.9775
2012    28      5       0.7071216       139.4612
2012    28      6       0.8746001       159.4413
2012    28      7       0.6462432       131.735
2012    29      0       0.886852        161.3243
2012    29      1       0.5974319       124.1358
2012    29      2       0.5407641       115.4719
2012    29      3       0.6354098       129.2911
2012    29      4       0.5834031       122.34
2012    29      5       0.4295818       98.87624
2012    29      6       0.4638651       104.6443
2012    29      7       0.4222329       97.47741
2012    30      0       0.3684174       87.39523
2012    30      1       0.3474664       83.15016
2012    30      2       0.4081362       93.81366
2012    30      3       0.8499569       157.5607
2012    30      4       0.8016624       151.0942
2012    30      5       0.6216998       125.5939
2012    30      6       0.6015287       123.1601
2012    30      7       0.5902009       120.68
2013    1       0       0.3423531       83.27791
2013    1       1       0.3430052       83.58236
2013    1       2       0.3290123       80.83472
2013    1       3       0.3114406       77.48243
2013    1       4       0.2638218       67.96341
2013    1       5       0.23907         62.6126
2013    1       6       0.2310933       60.65321
2013    1       7       0.2247419       59.17728
2013    2       0       0.2393841       62.07124
2013    2       1       0.255248        65.10775
2013    2       2       0.2525633       64.57234
2013    2       3       0.2500115       63.94745
2013    2       4       0.2209575       58.08974
2013    2       5       0.1729186       47.71823
2013    2       6       0.208913        55.12281
2013    2       7       0.2911392       71.94817
2013    3       0       0.3889187       89.6975
2013    3       1       0.4122487       93.56543
2013    3       2       0.3209276       78.09917
2013    3       3       0.2826691       70.15023
2013    3       4       0.2550805       65.11528
2013    3       5       0.2078314       55.62558
2013    3       6       0.1404051       40.47908
2013    3       7       0.1355598       38.99974
2013    4       0       0.1494844       42.18445
2013    4       1       0.1564501       43.15567
2013    4       2       0.1678768       45.84805
2013    4       3       0.2339935       59.07851
2013    4       4       0.2803499       68.04221
2013    4       5       0.5677274       115.6391
2013    4       6       0.5120949       109.4884
2013    4       7       0.5102483       109.6659
2013    5       0       0.417508        95.02491
2013    5       1       0.3015225       74.18185
2013    5       2       0.1762007       48.08002
2013    5       3       0.173055        46.7905
2013    5       4       0.1670916       45.90466
2013    5       5       0.2213932       56.92694
2013    5       6       0.2103418       54.80682
2013    5       7       0.2448808       61.75312
2013    6       0       0.2744619       68.11626
2013    6       1       0.3285402       78.79006
2013    6       2       0.4391432       98.71463
2013    6       3       0.5510086       116.4798
2013    6       4       0.5450149       115.6922
2013    6       5       0.5502037       116.6891
2013    6       6       0.5825946       121.8858
2013    6       7       0.5996017       124.5583
2013    7       0       0.6038999       125.3533
2013    7       1       0.6107155       126.0401
2013    7       2       0.6321632       128.6986
2013    7       3       0.6265102       127.8985
2013    7       4       0.5955746       123.1994
2013    7       5       0.5725256       119.4815
2013    7       6       0.650923        130.2007
2013    7       7       0.6876414       135.3236
2013    8       0       0.7146581       138.9333
2013    8       1       0.7463575       143.2614
2013    8       2       0.7626741       145.2565
2013    8       3       0.73341         140.9424
2013    8       4       0.6312363       126.9819
2013    8       5       0.5415246       113.4102
2013    8       6       0.5963127       122.7274
2013    8       7       0.6345198       129.2913
2013    9       0       0.6841328       136.4707
2013    9       1       0.7379395       143.5669
2013    9       2       0.7124141       140.1558
2013    9       3       0.6965436       137.0761
2013    9       4       0.6614669       131.6964
2013    9       5       0.5551157       116.5396
2013    9       6       0.4779937       104.4064
2013    9       7       0.4693102       102.8309
2013    10      0       0.4948802       107.3202
2013    10      1       0.5959112       122.1712
2013    10      2       0.7110024       137.3045
2013    10      3       0.7081366       137.408
2013    10      4       0.7099692       137.7254
2013    10      5       0.7741447       145.4296
2013    10      6       0.9341337       162.8204
2013    10      7       0.9235195       162.6606
2013    11      0       0.9049029       161.4031
2013    11      1       0.9530645       166.5679
2013    11      2       0.9011705       161.3078
2013    11      3       0.7907772       149.236
2013    11      4       0.6698574       134.3504
2013    11      5       0.5782669       121.7119
2013    11      6       0.5560559       118.5841
2013    11      7       0.5360961       116.0239
2013    12      0       0.4723749       106.1268
2013    12      1       0.445337        100.9029
2013    12      2       0.4293201       97.77508
2013    12      3       0.5309886       113.044
2013    12      4       0.7259626       139.2385
2013    12      5       0.9172575       160.7084
2013    12      6       1.209866        186.8991
2013    12      7       1.395145        200.2063
2013    13      0       1.288367        195.49
2013    13      1       1.197937        189.1606
2013    13      2       0.8375929       155.9483
2013    13      3       0.6506999       133.0059
2013    13      4       0.5726398       122.0785
2013    13      5       0.6084188       127.8156
2013    13      6       0.506777        112.5021
2013    13      7       0.4592928       104.622
2013    14      0       0.5055927       112.1772
2013    14      1       0.4322006       99.71866
2013    14      2       0.5052216       111.7784
2013    14      3       0.537101        116.578
2013    14      4       0.4512491       102.3257
2013    14      5       0.4403579       99.97497
2013    14      6       0.4411222       99.81099
2013    14      7       0.4007801       93.335
2013    15      0       0.4556225       102.7449
2013    15      1       0.431233        97.59856
2013    15      2       0.3863356       88.36565
2013    15      3       0.4983608       105.293
2013    15      4       0.2979848       71.79221
2013    15      5       0.2611242       65.53077
2013    15      6       0.1270732       37.6004
2013    15      7       0.1458566       41.61872
2013    16      0       0.1652526       46.12445
2013    16      1       0.1331305       39.16263
2013    16      2       0.1222743       36.31859
2013    16      3       0.1785394       48.74965
2013    16      4       0.2413454       62.01982
2013    16      5       0.3437736       81.64852
2013    16      6       0.7353159       142.3162
2013    16      7       0.8788566       160.4177
2013    17      0       0.6421412       131.31
2013    17      1       0.6009169       125.6797
2013    17      2       0.4654316       105.3
2013    17      3       0.3951482       93.82427
2013    17      4       0.3871692       92.29956
2013    17      5       0.3567612       86.53704
2013    17      6       0.3448667       84.42352
2013    17      7       0.3819709       91.24396
2013    18      0       0.382111        90.66772
2013    18      1       0.3841148       90.40175
2013    18      2       0.3742426       88.84527
2013    18      3       0.3531109       85.02974
2013    18      4       0.3557532       85.4113
2013    18      5       0.3866013       90.47002
2013    18      6       0.5475553       116.0131
2013    18      7       0.5715308       120.8205
2013    19      0       0.5201622       113.0262
2013    19      1       0.5181426       111.6447
2013    19      2       0.7424211       142.0549
2013    19      3       0.6698266       132.758
2013    19      4       0.6911713       134.0123
2013    19      5       1.09066         177.7576
2013    19      6       1.544744        211.4315
2013    19      7       1.520581        211.7702
2013    20      0       1.576391        215.0086
2013    20      1       1.869937        229.2414
2013    20      2       2.124056        238.1787
2013    20      3       2.108277        236.6514
2013    20      4       2.090417        235.9565
2013    20      5       1.869908        228.0753
2013    20      6       1.382138        202.9718
2013    20      7       1.089169        181.222
2013    21      0       0.6162497       127.9324
2013    21      1       0.4164438       95.82528
2013    21      2       0.3837617       89.66698
2013    21      3       0.365514        84.47031
2013    21      4       0.5363244       114.6593
2013    21      5       0.8154132       152.0605
2013    21      6       1.076846        177.6989
2013    21      7       1.412095        202.7695
2013    22      0       1.508037        207.7701
2013    22      1       1.306693        194.2904
2013    22      2       1.028967        171.3683
2013    22      3       0.9146565       159.3506
2013    22      4       0.867027        153.8132
2013    22      5       0.9336609       160.384
2013    22      6       1.041813        170.6327
2013    22      7       1.159044        180.964
2013    23      0       1.150514        180.6622
2013    23      1       1.007791        168.4222
2013    23      2       0.8768762       155.4465
2013    23      3       0.6711322       131.1953
2013    23      4       0.5390587       112.6402
2013    23      5       0.4722098       102.2619
2013    23      6       0.6150546       123.2785
2013    23      7       0.9409077       162.1107
2013    24      0       0.8833136       156.2504
2013    24      1       0.6416673       127.0823
2013    24      2       0.604663        121.7001
2013    24      3       0.6168437       123.5093
2013    24      4       0.6520653       128.5324
2013    24      5       0.7465911       140.5138
2013    24      6       0.8002934       147.1896
2013    24      7       0.8101753       148.7728
2013    25      0       0.7259293       139.5537
2013    25      1       0.5222738       111.8307
2013    25      2       0.4810725       105.7504
2013    25      3       0.4794822       106.1605
2013    25      4       0.3560042       85.38002
2013    25      5       0.2143452       57.20975
2013    25      6       0.1583598       44.63215
2013    25      7       0.2239769       59.05916
2013    26      0       0.3985963       93.56805
2013    26      1       0.4772595       107.509
2013    26      2       0.45268         103.3706
2013    26      3       0.4414356       101.0317
2013    26      4       0.4655269       104.596
2013    26      5       0.4881743       107.9402
2013    26      6       0.5663218       119.8473
2013    26      7       0.625608        128.369
2013    27      0       0.6738044       134.9792
2013    27      1       0.7752676       147.3797
2013    27      2       0.7599301       145.0416
2013    27      3       0.6957147       136.4657
2013    27      4       0.6577935       130.5032
2013    27      5       0.7687887       144.0902
2013    27      6       0.7804679       146.1781
2013    27      7       0.8638592       154.7639
2013    28      0       0.6384101       127.4724
2013    28      1       0.4577065       101.3177
2013    28      2       0.4285723       96.2743
2013    28      3       0.3702391       86.11076
2013    28      4       0.4290949       95.54326
2013    28      5       0.4238925       94.31566
2013    28      6       0.5699484       116.148
2013    28      7       0.9210354       160.5776
2013    29      0       0.9730927       167.1539
2013    29      1       0.8954207       159.711
2013    29      2       0.8255205       152.3548
2013    29      3       0.8065034       150.142
2013    29      4       0.9985629       169.6058
2013    29      5       0.9587589       165.9203
2013    29      6       0.8776053       157.5768
2013    29      7       1.443662        203.6986
2013    30      0       1.275006        193.4986
2013    30      1       0.9780832       168.8826
2013    30      2       0.8495565       155.4843
2013    30      3       0.6197102       126.9627
2013    30      4       0.619632        126.7558
2013    30      5       0.6170732       126.3118
2013    30      6       0.5637304       118.6962
2013    30      7       0.5792678       120.9486
2014    1       0       0.8754039       159.2933
2014    1       1       0.7160405       140.4181
2014    1       2       0.3113686       77.2058
2014    1       3       0.3940168       92.61097
2014    1       4       0.4197269       96.33469
2014    1       5       0.2765759       68.72486
2014    1       6       0.5464423       115.6677
2014    1       7       0.6576738       131.0985
2014    2       0       0.6139477       123.4746
2014    2       1       0.3457229       81.09466
2014    2       2       0.3214928       77.23703
2014    2       3       0.3939133       90.40883
2014    2       4       0.3937763       90.14527
2014    2       5       0.5023297       107.2675
2014    2       6       0.6053693       122.9123
2014    2       7       0.4101982       93.33546
2014    3       0       0.338443        80.79709
2014    3       1       0.2260413       58.95716
2014    3       2       0.1990249       53.18006
2014    3       3       0.2153426       56.67074
2014    3       4       0.2238513       58.04556
2014    3       5       0.1872442       50.10674
2014    3       6       0.2129041       55.29191
2014    3       7       0.2749036       67.82944
2014    4       0       0.3481424       82.02623
2014    4       1       0.3988676       91.38135
2014    4       2       0.3711428       86.68476
2014    4       3       0.3533114       83.08903
2014    4       4       0.3040632       73.95747
2014    4       5       0.3065815       74.55783
2014    4       6       0.3435376       81.27927
2014    4       7       0.4375684       97.4433
2014    5       0       0.5656911       118.4792
2014    5       1       0.8403696       155.4582
2014    5       2       0.9479558       168.1159
2014    5       3       0.939601        167.8426
2014    5       4       0.7450925       146.0715
2014    5       5       0.577879        123.5106
2014    5       6       0.6443499       133.2369
2014    5       7       0.6786043       137.964
2014    6       0       0.7188384       143.6208
2014    6       1       0.7472045       147.2608
2014    6       2       0.7549443       147.9368
2014    6       3       0.7229757       143.8982
2014    6       4       0.6612096       135.7947
2014    6       5       0.6251936       130.548
2014    6       6       0.6203301       129.5986
2014    6       7       0.5958904       126.0673
2014    7       0       0.4875381       109.3664
2014    7       1       0.4238985       98.5776
2014    7       2       0.3706571       88.75269
2014    7       3       0.3570299       86.36686
2014    7       4       0.3726523       89.18654
2014    7       5       0.4034787       94.80482
2014    7       6       0.3830115       92.12138
2014    7       7       0.3688113       90.00345
2014    8       0       0.3290776       82.24718
2014    8       1       0.3482725       85.17919
2014    8       2       0.4563637       103.4475
2014    8       3       0.5103622       111.6894
2014    8       4       0.487362        107.6771
2014    8       5       0.4979478       109.3665
2014    8       6       0.6600564       134.0671
2014    8       7       0.8285727       155.5238
2014    9       0       0.8854381       162.422
2014    9       1       0.8743483       161.3143
2014    9       2       0.8622872       160.1592
2014    9       3       0.8278278       156.3877
2014    9       4       0.793953        152.3505
2014    9       5       0.7925531       152.2849
2014    9       6       0.8711334       162.3203
2014    9       7       0.8664078       162.4672
2014    10      0       0.8710942       163.1926
2014    10      1       0.9188565       168.2482
2014    10      2       0.9244423       168.8357
2014    10      3       0.805131        154.6823
2014    10      4       0.6677348       135.9121
2014    10      5       0.6770587       135.2897
2014    10      6       0.6668016       134.2728
2014    10      7       0.586884        123.8919
2014    11      0       0.4945655       109.6741
2014    11      1       0.4864407       108.3919
2014    11      2       0.4518411       102.5034
2014    11      3       0.4558161       103.0672
2014    11      4       0.4836303       107.2494
2014    11      5       0.5527691       117.7316
2014    11      6       0.5817447       121.6366
2014    11      7       0.6486042       130.1288
2014    12      0       0.750967        145.2236
2014    12      1       0.7398433       143.4337
2014    12      2       0.5813195       120.7212
2014    12      3       0.6324          128.3606
2014    12      4       0.6233075       127.3361
2014    12      5       0.5577222       118.8108
2014    12      6       0.6315707       128.895
2014    12      7       0.7075425       138.94
2014    13      0       0.7158927       141.1137
2014    13      1       0.7736568       149.0411
2014    13      2       0.8719083       160.7106
2014    13      3       0.8146566       153.6637
2014    13      4       0.834576        155.2771
2014    13      5       0.7485696       146.008
2014    13      6       0.8021494       151.7514
2014    13      7       0.6274505       127.262
2014    14      0       0.4189262       93.81244
2014    14      1       0.4784257       102.7514
2014    14      2       0.616419        122.1008
2014    14      3       0.7802856       142.652
2014    14      4       0.9942211       166.8747
2014    14      5       1.127729        179.6869
2014    14      6       0.8008292       148.6074
2014    14      7       0.5663304       118.6533
2014    15      0       0.4366028       98.39664
2014    15      1       0.425384        94.83387
2014    15      2       0.6045168       122.4905
2014    15      3       0.8012427       147.2035
2014    15      4       0.8144319       149.9239
2014    15      5       1.093776        179.0408
2014    15      6       1.043494        175.6244
2014    15      7       0.9340658       164.853
2014    16      0       0.9505026       166.2402
2014    16      1       0.7609844       144.7798
2014    16      2       0.7763518       146.2563
2014    16      3       0.6655972       131.1208
2014    16      4       0.5065793       108.0886
2014    16      5       0.2993499       72.09868
2014    16      6       0.3356247       77.81061
2014    16      7       0.4331808       94.24012
2014    17      0       0.4586766       98.88959
2014    17      1       0.4952804       104.5805
2014    17      2       0.6973344       132.7589
2014    17      3       0.7267947       137.0805
2014    17      4       0.7108016       135.4141
2014    17      5       0.6649721       129.8028
2014    17      6       0.6710508       131.7809
2014    17      7       0.6162714       125.1669
2014    18      0       0.4452228       99.77968
2014    18      1       0.363479        85.75785
2014    18      2       0.3171914       76.49803
2014    18      3       0.2709959       67.21513
2014    18      4       0.2123592       54.89444
2014    18      5       0.2548843       63.3519
2014    18      6       0.4394479       96.66364
2014    18      7       0.6419941       126.7506
2014    19      0       0.8249814       149.6859
2014    19      1       0.8311468       152.4095
2014    19      2       0.8062508       150.0587
2014    19      3       0.8044242       149.6671
2014    19      4       0.7726969       146.161
2014    19      5       1.091132        178.9199
2014    19      6       1.105555        181.3468
2014    19      7       0.7079611       139.7354
2014    20      0       0.5646209       119.8524
2014    20      1       0.4535035       101.8302
2014    20      2       0.4054841       92.72701
2014    20      3       0.4016337       91.17523
2014    20      4       0.3345556       78.52992
2014    20      5       0.1505483       42.44161
2014    20      6       0.1641839       45.18422
2014    20      7       0.2049959       53.8031
2014    21      0       0.2934831       70.91983
2014    21      1       0.4653293       100.3675
2014    21      2       0.7979936       146.0318
2014    21      3       0.5952043       121.2253
2014    21      4       0.5182078       109.7019
2014    21      5       0.3482396       82.17179
2014    21      6       0.3986516       91.27219
2014    21      7       0.4513827       100.4406
2014    22      0       0.4880555       105.8201
2014    22      1       0.6727824       131.9542
2014    22      2       0.9092386       159.8832
2014    22      3       0.989433        170.1346
2014    22      4       1.03864         176.0658
2014    22      5       0.92023         165.503
2014    22      6       1.242096        196.4545
2014    22      7       1.359692        204.6656
2014    23      0       0.4461093       98.10059
2014    23      1       0.3514108       84.24023
2014    23      2       0.5449147       115.2673
2014    23      3       0.69177         136.3543
2014    23      4       0.7199129       141.0068
2014    23      5       0.5059665       109.4677
2014    23      6       0.5681958       117.947
2014    23      7       0.5625387       117.308
2014    24      0       0.5426443       114.9253
2014    24      1       0.6331503       128.5575
2014    24      2       0.5636019       119.0007
2014    24      3       0.5383371       114.7578
2014    24      4       0.5056659       109.6541
2014    24      5       0.6266215       127.0902
2014    24      6       0.5087482       109.8166
2014    24      7       0.33426         79.74141
2014    25      0       0.3452054       82.2972
2014    25      1       0.3615383       85.40845
2014    25      2       0.4820826       106.5806
2014    25      3       0.5033486       110.0647
2014    25      4       0.4833505       107.049
2014    25      5       0.4438251       100.4874
2014    25      6       0.4993037       109.6205
2014    25      7       0.5931197       124.0788
2014    26      0       0.6439896       131.8227
2014    26      1       0.6098757       126.8804
2014    26      2       0.6350594       130.0812
2014    26      3       0.6809107       136.1346
2014    26      4       0.6243777       128.4831
2014    26      5       0.496552        109.3613
2014    26      6       0.4793134       106.4274
2014    26      7       0.5222203       113.1597
2014    27      0       0.5417931       116.5093
2014    27      1       0.5342201       115.6422
2014    27      2       0.541719        116.7843
2014    27      3       0.539968        116.5633
2014    27      4       0.4859903       107.8068
2014    27      5       0.4446524       100.4943
2014    27      6       0.4743621       104.968
2014    27      7       0.5125134       111.197
2014    28      0       0.4578086       102.0727
2014    28      1       0.3969001       91.72832
2014    28      2       0.3659306       86.30792
2014    28      3       0.376277        88.23265
2014    28      4       0.352359        84.67352
2014    28      5       0.3133          77.51495
2014    28      6       0.254391        65.73109
2014    28      7       0.2281744       60.17018
2014    29      0       0.2200688       58.4995
2014    29      1       0.2290675       60.33692
2014    29      2       0.2264374       59.64782
2014    29      3       0.228418        59.96148
2014    29      4       0.2649468       67.26135
2014    29      5       0.2850456       71.21342
2014    29      6       0.3371895       80.60935
2014    29      7       0.3386667       81.00989
2014    30      0       0.4027168       91.66249
2014    30      1       0.423274        94.27633
2014    30      2       0.4129277       92.68918
2014    30      3       0.457534        100.1338
2014    30      4       0.4630856       101.3902
2014    30      5       0.4356665       97.56367
2014    30      6       0.2879933       71.90882
2014    30      7       0.515569        112.5683
2015    1       0       0.4040577       94.35398
2015    1       1       0.3306428       80.5226
2015    1       2       0.3540302       84.91796
2015    1       3       0.4076102       94.74435
2015    1       4       0.4240805       97.62647
2015    1       5       0.4366126       100.015
2015    1       6       0.4353596       99.81792
2015    1       7       0.4268139       98.33075
2015    2       0       0.4570516       103.6128
2015    2       1       0.4256402       98.1478
2015    2       2       0.4564233       103.5471
2015    2       3       0.4652531       104.7775
2015    2       4       0.4091063       94.75735
2015    2       5       0.39494         92.20971
2015    2       6       0.4217721       96.69527
2015    2       7       0.5581539       118.8202
2015    3       0       0.7969876       150.1928
2015    3       1       0.9781163       170.0074
2015    3       2       0.2048334       54.7703
2015    3       3       0.1703218       46.4046
2015    3       4       0.2373303       59.9021
2015    3       5       0.3012879       71.8711
2015    3       6       0.2543028       63.31965
2015    3       7       0.3498457       81.92872
2015    4       0       0.6855401       133.1894
2015    4       1       0.6917445       133.6822
2015    4       2       0.6483768       127.7397
2015    4       3       0.5514664       114.2501
2015    4       4       0.3662406       84.74739
2015    4       5       0.2807218       69.01205
2015    4       6       0.4244123       94.6472
2015    4       7       0.4076279       91.5077
2015    5       0       0.3483488       81.39485
2015    5       1       0.250455        63.21855
2015    5       2       0.1843041       49.80252
2015    5       3       0.1740578       47.51883
2015    5       4       0.2008611       52.9872
2015    5       5       0.3311627       77.92985
2015    5       6       0.4527495       98.82931
2015    5       7       0.5724515       117.5003
2015    6       0       0.8149313       150.0901
2015    6       1       0.9013313       160.2746
2015    6       2       0.9905205       169.5509
2015    6       3       1.145466        183.4851
2015    6       4       0.9537665       166.9478
2015    6       5       0.6353649       129.8767
2015    6       6       0.4020855       93.30272
2015    6       7       0.3219772       78.03879
2015    7       0       0.3189501       77.46242
2015    7       1       0.318164        77.88539
2015    7       2       0.3120632       76.97213
2015    7       3       0.2910899       72.90654
2015    7       4       0.2688546       68.41749
2015    7       5       0.2526176       65.09909
2015    7       6       0.2351395       61.52712
2015    7       7       0.2409377       62.254
2015    8       0       0.269491        67.63933
2015    8       1       0.2832235       70.54692
2015    8       2       0.3068294       74.84179
2015    8       3       0.292489        72.15304
2015    8       4       0.2607681       66.17443
2015    8       5       0.2894058       71.73937
2015    8       6       0.3568832       84.59083
2015    8       7       0.3862999       89.98076
2015    9       0       0.4103114       93.58661
2015    9       1       0.4630787       102.4465
2015    9       2       0.5692108       119.7477
2015    9       3       0.736928        142.3464
2015    9       4       0.7329041       141.4965
2015    9       5       0.5668813       119.4345
2015    9       6       0.2371857       61.49298
2015    9       7       0.1588883       44.24914
2015    10      0       0.277269        69.23027
2015    10      1       0.2955057       73.19233
2015    10      2       0.3228847       78.11474
2015    10      3       0.3271627       78.90171
2015    10      4       0.3846816       89.62053
2015    10      5       0.3027495       73.23703
2015    10      6       0.2104414       54.98931
2015    10      7       0.2553364       64.26501
2015    11      0       0.203482        53.94574
2015    11      1       0.2195173       57.44399
2015    11      2       0.1505192       42.6298
2015    11      3       0.09504524      29.67233
2015    11      4       0.08984319      28.37877
2015    11      5       0.1112975       33.39464
2015    11      6       0.1219531       35.89012
2015    11      7       0.119474        35.41509
2015    12      0       0.1176814       35.07005
2015    12      1       0.1171047       34.9806
2015    12      2       0.1176818       35.163
2015    12      3       0.1227995       36.29692
2015    12      4       0.1161335       34.6298
2015    12      5       0.1130254       33.78387
2015    12      6       0.1268657       36.99744
2015    12      7       0.1588702       44.31534
2015    13      0       0.1931869       52.07947
2015    13      1       0.2385248       61.90412
2015    13      2       0.2623801       66.7852
2015    13      3       0.2654346       67.46578
2015    13      4       0.2438152       63.25221
2015    13      5       0.199394        54.06496
2015    13      6       0.1786804       49.60708
2015    13      7       0.173791        48.44016
2015    14      0       0.1652877       46.35632
2015    14      1       0.1818067       49.61676
2015    14      2       0.2077244       55.18579
2015    14      3       0.2258903       59.16415
2015    14      4       0.2479055       63.81015
2015    14      5       0.2762216       69.53782
2015    14      6       0.3040335       75.16625
2015    14      7       0.3092434       76.46499
2015    15      0       0.2904243       73.06246
2015    15      1       0.2160754       56.94768
2015    15      2       0.2987913       73.22777
2015    15      3       0.3684935       86.92468
2015    15      4       0.4774975       105.1486
2015    15      5       0.5765832       120.7709
2015    15      6       0.5500054       116.9988
2015    15      7       0.2705046       67.76254
2015    16      0       0.6478966       129.5466
2015    16      1       0.6161002       124.6184
2015    16      2       0.2074136       54.12625
2015    16      3       0.2400689       60.0473
2015    16      4       0.3141744       73.93189
2015    16      5       0.1941205       51.19098
2015    16      6       0.1963994       51.76554
2015    16      7       0.2196015       56.65716
2015    17      0       0.2096128       54.59052
2015    17      1       0.2108311       55.54859
2015    17      2       0.3131406       76.79155
2015    17      3       0.3952935       92.04275
2015    17      4       0.4262221       98.24728
2015    17      5       0.5176301       113.0844
2015    17      6       0.6727219       135.0044
2015    17      7       0.8356344       154.6897
2015    18      0       0.729352        141.7146
2015    18      1       0.5382314       115.0984
2015    18      2       0.4946981       108.2779
2015    18      3       0.4338795       98.98562
2015    18      4       0.3760491       88.96028
2015    18      5       0.4834785       106.7301
2015    18      6       0.4719279       104.757
2015    18      7       0.5137281       112.0787
2015    19      0       0.5685893       121.1731
2015    19      1       0.5830859       123.2357
2015    19      2       0.5071925       111.4304
2015    19      3       0.4420338       100.6293
2015    19      4       0.5025537       111.2255
2015    19      5       0.5756402       122.9073
2015    19      6       0.4346565       100.693
2015    19      7       0.232948        62.37011
2015    20      0       0.1389514       40.77664
2015    20      1       0.1145469       34.67601
2015    20      2       0.1426055       41.52909
2015    20      3       0.2037351       55.39604
2015    20      4       0.2577513       66.95629
2015    20      5       0.3941311       93.43397
2015    20      6       0.4322717       100.4277
2015    20      7       0.3561843       86.35762
2015    21      0       0.3176712       78.56656
2015    21      1       0.3052288       75.75903
2015    21      2       0.3400926       82.58029
2015    21      3       0.4069509       94.54318
2015    21      4       0.4811033       106.9368
2015    21      5       0.5546944       118.6784
2015    21      6       0.6119835       127.5948
2015    21      7       0.5969607       125.7729
2015    22      0       0.594045        125.6934
2015    22      1       0.5838297       124.2645
2015    22      2       0.4216009       98.14722
2015    22      3       0.2743071       70.29028
2015    22      4       0.2221773       59.43301
2015    22      5       0.2196932       58.85246
2015    22      6       0.2508815       65.1629
2015    22      7       0.2906386       72.96918
2015    23      0       0.3575495       85.15341
2015    23      1       0.356193        84.48643
2015    23      2       0.3213496       78.04141
2015    23      3       0.2788992       69.7827
2015    23      4       0.3342113       79.55747
2015    23      5       0.3487137       82.17214
2015    23      6       0.4257079       96.61506
2015    23      7       0.446852        100.5312
2015    24      0       0.3531219       85.03597
2015    24      1       0.2538501       65.67666
2015    24      2       0.2395074       62.6134
2015    24      3       0.2652805       66.83144
2015    24      4       0.2993066       73.18979
2015    24      5       0.2709884       67.85607
2015    24      6       0.3899648       91.2286
2015    24      7       0.5561853       117.8
2015    25      0       0.4710212       103.0914
2015    25      1       0.5444888       113.4465
2015    25      2       0.6755743       133.0914
2015    25      3       0.665628        131.5555
2015    25      4       0.4075547       91.79567
2015    25      5       0.1867967       48.99585
2015    25      6       0.1005102       30.79716
2015    25      7       0.1452145       41.08239
2015    26      0       0.09999219      30.63327
2015    26      1       0.078037        25.50919
2015    26      2       0.1488637       42.13018
2015    26      3       0.1465637       41.57525
2015    26      4       0.1339022       38.47706
2015    26      5       0.1168152       34.48936
2015    26      6       0.1110455       33.31373
2015    26      7       0.2651216       66.24695
2015    27      0       0.300666        73.20062
2015    27      1       0.2319795       59.58013
2015    27      2       0.1898646       50.68696
2015    27      3       0.2105103       54.75931
2015    27      4       0.3374036       78.84375
2015    27      5       0.4485614       97.33169
2015    27      6       0.4489724       97.43408
2015    27      7       0.6233419       122.9405
2015    28      0       0.3987664       89.62035
2015    28      1       0.2791236       68.52358
2015    28      2       0.2030355       53.59744
2015    28      3       0.1895514       50.975
2015    28      4       0.216023        56.50743
2015    28      5       0.2059196       54.21588
2015    28      6       0.2377195       59.91505
2015    28      7       0.4797433       101.7032
2015    29      0       0.5775808       116.344
2015    29      1       0.453228        98.85825
2015    29      2       0.4398564       96.70245
2015    29      3       0.7032955       134.0779
2015    29      4       0.9856529       165.9565
2015    29      5       0.6101382       123.2207
2015    29      6       0.1524635       42.82493
2015    29      7       0.1394438       39.84032
2015    30      0       0.1205066       35.53512
2015    30      1       0.114314        33.91607
2015    30      2       0.1453081       40.30242
2015    30      3       0.1812705       48.40493
2015    30      4       0.1900804       50.92994
2015    30      5       0.2497591       63.14249
2015    30      6       0.3041451       73.79848
2015    30      7       0.4044712       91.99416
2016    1       0       0.4097506       94.28932
2016    1       1       0.4652559       104.1873
2016    1       2       0.4487898       101.0363
2016    1       3       0.4197253       95.19946
2016    1       4       0.5992647       123.1929
2016    1       5       0.9656721       166.8716
2016    1       6       0.8987489       161.1594
2016    1       7       0.6296557       129.5257
2016    2       0       0.3610067       86.37307
2016    2       1       0.2944034       73.68576
2016    2       2       0.29072         73.05669
2016    2       3       0.3241834       79.39584
2016    2       4       0.2440288       63.30115
2016    2       5       0.3030358       74.74629
2016    2       6       0.3403295       82.35417
2016    2       7       0.2821371       71.391
2016    3       0       0.2538333       65.66373
2016    3       1       0.2973931       74.70901
2016    3       2       0.3224251       79.82662
2016    3       3       0.3129219       77.94426
2016    3       4       0.3618555       86.97638
2016    3       5       0.4289172       98.58778
2016    3       6       0.4884412       108.5934
2016    3       7       0.5847948       123.8572
2016    4       0       0.6722685       136.5541
2016    4       1       0.7854567       151.003
2016    4       2       0.7032462       140.7225
2016    4       3       0.5910578       125.2363
2016    4       4       0.7046715       140.9215
2016    4       5       0.7041132       140.5691
2016    4       6       0.6078831       127.3284
2016    4       7       0.6642321       135.711
2016    5       0       0.7835974       150.8917
2016    5       1       0.6936432       139.6344
2016    5       2       0.7285194       144.4783
2016    5       3       0.8026655       153.9961
2016    5       4       0.7281588       144.714
2016    5       5       0.6707124       136.9034
2016    5       6       0.6123721       128.55
2016    5       7       0.6635421       136.1883
2016    6       0       0.6166322       129.9799
2016    6       1       0.4509775       103.9581
2016    6       2       0.3864919       91.10849
2016    6       3       0.4345839       99.30399
2016    6       4       0.4166584       95.81053
2016    6       5       0.5173529       111.178
2016    6       6       0.6567447       131.8305
2016    6       7       0.7415923       143.6456
2016    7       0       0.9981251       172.138
2016    7       1       1.318359        199.593
2016    7       2       1.465359        209.8298
2016    7       3       1.630849        219.6844
2016    7       4       1.730875        225.0003
2016    7       5       1.752635        226.8275
2016    7       6       1.745501        226.0878
2016    7       7       1.539613        214.8116
2016    8       0       1.364495        203.3421
2016    8       1       1.292639        197.6914
2016    8       2       1.249219        194.8102
2016    8       3       1.227905        193.7533
2016    8       4       1.161747        188.7382
2016    8       5       1.095663        183.0959
2016    8       6       1.028014        177.1031
2016    8       7       1.002288        175.0169
2016    9       0       1.013213        176.5046
2016    9       1       0.8798371       162.5977
2016    9       2       0.6941934       139.6358
2016    9       3       0.59982         125.8833
2016    9       4       0.6106431       127.4972
2016    9       5       0.5464138       118.0399
2016    9       6       0.5484396       118.146
2016    9       7       0.6014986       125.9696
2016    10      0       0.5795634       122.5206
2016    10      1       0.5015994       109.9774
2016    10      2       0.4670765       103.953
2016    10      3       0.4833164       106.5862
2016    10      4       0.5156177       111.2683
2016    10      5       0.565052        118.576
2016    10      6       0.6533539       131.5767
2016    10      7       0.6797638       135.3397
2016    11      0       0.6301091       128.1966
2016    11      1       0.5445828       115.0383
2016    11      2       0.559487        117.5936
2016    11      3       0.584097        121.4238
2016    11      4       0.5829834       121.2497
2016    11      5       0.5754953       120.1378
2016    11      6       0.5542143       117.0722
2016    11      7       0.5288946       113.2995
2016    12      0       0.5208121       112.1064
2016    12      1       0.4974193       108.0984
2016    12      2       0.5004794       108.378
2016    12      3       0.5561929       116.4569
2016    12      4       0.6045918       122.602
2016    12      5       0.7166932       136.6376
2016    12      6       0.7971817       146.8171
2016    12      7       0.8496904       153.2786
2016    13      0       0.9377925       163.6701
2016    13      1       0.9106689       159.9489
2016    13      2       0.9934514       168.8477
2016    13      3       1.012516        171.0433
2016    13      4       0.7195715       140.0482
2016    13      5       0.4626416       103.7438
2016    13      6       0.3174352       78.98763
2016    13      7       0.3335034       81.95654
2016    14      0       0.395269        93.30275
2016    14      1       0.4038063       93.82453
2016    14      2       0.5450137       116.0787
2016    14      3       0.6406023       130.3494
2016    14      4       0.6489326       131.4026
2016    14      5       0.7376976       143.9956
2016    14      6       0.7117634       141.3919
2016    14      7       0.6994031       140.2654
2016    15      0       0.750765        147.6017
2016    15      1       0.8038679       154.5999
2016    15      2       0.8635338       161.8492
2016    15      3       0.9829917       175.1607
2016    15      4       0.8428631       159.1322
2016    15      5       0.7760467       150.755
2016    15      6       0.8067894       154.0497
2016    15      7       0.8807581       161.6228
2016    16      0       0.7567594       145.2423
2016    16      1       0.8177423       151.3203
2016    16      2       0.9891985       169.11
2016    16      3       0.9383954       163.6656
2016    16      4       0.7917271       147.2556
2016    16      5       0.7041415       137.3864
2016    16      6       0.7055167       137.2447
2016    16      7       0.8337398       152.205
2016    17      0       0.390157        90.89096
2016    17      1       0.1391784       40.07981
2016    17      2       0.1387855       39.08583
2016    17      3       0.1752467       46.70052
2016    17      4       0.2604634       64.94131
2016    17      5       0.4880757       106.2036
2016    17      6       0.7627048       145.1885
2016    17      7       0.8176274       152.5609
2016    18      0       0.6882179       138.0364
2016    18      1       0.6931721       138.7947
2016    18      2       0.7837539       150.2436
2016    18      3       0.8493122       158.7222
2016    18      4       0.8398424       157.8072
2016    18      5       0.9070203       164.9384
2016    18      6       0.9600951       170.7683
2016    18      7       0.9634756       171.4517
2016    19      0       0.6605739       134.3039
2016    19      1       0.38721         90.17539
2016    19      2       0.3533423       83.88718
2016    19      3       0.351926        83.4227
2016    19      4       0.3788461       89.16833
2016    19      5       0.5673176       120.7655
2016    19      6       0.9834481       170.3081
2016    19      7       1.287835        196.4719
2016    20      0       1.701028        220.3115
2016    20      1       1.549144        212.6164
2016    20      2       1.471939        209.5407
2016    20      3       1.378799        203.8768
2016    20      4       1.741263        224.4574
2016    20      5       1.468343        209.1894
2016    20      6       1.947443        231.5721
2016    20      7       1.324457        198.5323
2016    21      0       1.293737        197.2526
2016    21      1       0.9046259       162.3428
2016    21      2       0.6836468       134.5165
2016    21      3       1.482836        207.1359
2016    21      4       0.8453328       151.8595
2016    21      5       1.090788        176.6656
2016    21      6       0.6917303       135.7414
2016    21      7       0.2370233       60.97748
2016    22      0       0.2015203       53.2558
2016    22      1       0.1692671       46.78194
2016    22      2       0.1695708       47.18399
2016    22      3       0.1849052       50.61885
2016    22      4       0.203557        54.52478
2016    22      5       0.2284087       59.22541
2016    22      6       0.2883362       70.44434
2016    22      7       0.3882142       88.95029
2016    23      0       0.3439449       82.44475
2016    23      1       0.3346619       81.06408
2016    23      2       0.3791998       89.25395
2016    23      3       0.4120715       95.12939
2016    23      4       0.4177774       96.1752
2016    23      5       0.4419336       99.87268
2016    23      6       0.2779279       68.69497
2016    23      7       0.1662766       44.78559
2016    24      0       0.1684899       44.95338
2016    24      1       0.1620652       43.67735
2016    24      2       0.1774336       47.07837
2016    24      3       0.1556691       42.41539
2016    24      4       0.1172879       34.02426
2016    24      5       0.1028704       30.8498
2016    24      6       0.1206238       35.16047
2016    24      7       0.1355786       38.75321
2016    25      0       0.140658        39.94043
2016    25      1       0.1406741       39.99257
2016    25      2       0.1231782       36.20528
2016    25      3       0.116693        34.76485
2016    25      4       0.1223801       36.09692
2016    25      5       0.1140782       34.41844
2016    25      6       0.1026159       31.74374
2016    25      7       0.107267        32.73077
2016    26      0       0.09794822      30.48769
2016    26      1       0.093899        29.45592
2016    26      2       0.1096335       33.153
2016    26      3       0.1265491       37.09526
2016    26      4       0.1546571       43.19016
2016    26      5       0.2113559       55.36175
2016    26      6       0.2186828       57.03041
2016    26      7       0.191792        51.23845
2016    27      0       0.6055301       122.3349
2016    27      1       0.7873975       143.6944
2016    27      2       0.4368136       96.68941
2016    27      3       0.5606694       115.7055
2016    27      4       0.7277488       139.7072
2016    27      5       0.675329        132.8631
2016    27      6       0.8607953       155.1374
2016    27      7       0.6864423       134.7504
2016    28      0       0.1816502       48.89118
2016    28      1       0.3066269       73.95811
2016    28      2       0.5284622       111.4724
2016    28      3       0.6795659       134.6413
2016    28      4       1.255699        194.1637
2016    28      5       1.164057        187.2511
2016    28      6       1.134212        184.7336
2016    28      7       0.8326719       155.2209
2016    29      0       0.446649        100.1173
2016    29      1       0.4523322       101.1748
2016    29      2       0.4440566       99.70605
2016    29      3       0.3204355       77.46811
2016    29      4       0.3092704       75.25707
2016    29      5       0.3245176       77.8809
2016    29      6       0.3222196       77.47859
2016    29      7       0.341827        81.03367
2016    30      0       0.4630727       102.1407
2016    30      1       0.6002801       123.3574
2016    30      2       0.6588619       131.5514
2016    30      3       0.5814948       121.9004
2016    30      4       0.482727        106.7575
2016    30      5       0.3796212       88.64913
2016    30      6       0.3925942       90.03748
2016    30      7       0.5830206       118.2548
2017    1       0       1.429838        206.746
2017    1       1       1.120299        184.0783
2017    1       2       1.016563        175.0628
2017    1       3       0.9243685       165.5465
2017    1       4       0.9841024       171.5009
2017    1       5       0.9500468       168.3358
2017    1       6       0.7057074       140.3457
2017    1       7       0.5443841       117.5138
2017    2       0       0.4661952       105.1836
2017    2       1       0.3588673       86.44971
2017    2       2       0.202135        54.78613
2017    2       3       0.1186933       35.52999
2017    2       4       0.1080308       32.72271
2017    2       5       0.128046        37.51218
2017    2       6       0.131111        38.53708
2017    2       7       0.1372346       39.72198
2017    3       0       0.3464105       82.81889
2017    3       1       0.5257266       114.4588
2017    3       2       0.6726755       136.2598
2017    3       3       0.6172424       128.626
2017    3       4       0.5467033       117.7497
2017    3       5       0.662068        134.2396
2017    3       6       0.8144995       153.2877
2017    3       7       1.026263        174.71
2017    4       0       1.515978        210.9047
2017    4       1       1.463102        208.6386
2017    4       2       1.272827        195.4001
2017    4       3       1.079062        179.1142
2017    4       4       1.027312        173.895
2017    4       5       0.9404866       165.6111
2017    4       6       0.7335276       142.5365
2017    4       7       0.7376137       143.3414
2017    5       0       0.7134138       139.7937
2017    5       1       0.7891365       148.8953
2017    5       2       0.8609162       157.5834
2017    5       3       0.8414668       155.1759
2017    5       4       0.8545379       156.2687
2017    5       5       1.064158        176.9484
2017    5       6       1.317015        198.1795
2017    5       7       1.443291        207.0714
2017    6       0       1.173507        187.8688
2017    6       1       1.022303        174.7429
2017    6       2       1.315414        199.2407
2017    6       3       1.554722        214.3738
2017    6       4       1.559822        214.0745
2017    6       5       1.405844        205.0047
2017    6       6       1.429848        207.2693
2017    6       7       1.44738         208.3344
2017    7       0       1.336284        200.8609
2017    7       1       1.162594        188.1725
2017    7       2       1.016093        174.6902
2017    7       3       0.9509799       167.8155
2017    7       4       0.7318073       142.6939
2017    7       5       0.6388634       129.74
2017    7       6       0.6894861       136.1588
2017    7       7       0.7854178       148.9558
2017    8       0       1.007384        174.3638
2017    8       1       1.31573         198.8003
2017    8       2       0.8246378       155.0113
2017    8       3       0.5264934       115.38
2017    8       4       0.4710318       105.9991
2017    8       5       0.3646274       86.77412
2017    8       6       0.2472654       63.84346
2017    8       7       0.3180418       78.10446
2017    9       0       0.4579621       99.14267
2017    9       1       0.5916615       120.5775
2017    9       2       0.2380007       60.31455
2017    9       3       0.2496342       63.83184
2017    9       4       0.4400829       100.2323
2017    9       5       0.5457734       117.8938
2017    9       6       0.5517604       120.1858
2017    9       7       0.2335165       62.32351
2017    10      0       0.1622305       45.79329
2017    10      1       0.1726229       47.83912
2017    10      2       0.183565        49.55283
2017    10      3       0.2943046       72.17663
2017    10      4       0.4836306       106.4773
2017    10      5       0.4738844       104.5227
2017    10      6       0.4750462       103.8484
2017    10      7       0.5970744       121.2899
2017    11      0       0.6228274       123.3439
2017    11      1       0.663684        129.0728
2017    11      2       0.6576803       129.6031
2017    11      3       0.5525183       115.1974
2017    11      4       0.4070851       92.09775
2017    11      5       0.4131228       92.74222
2017    11      6       0.5455836       113.6371
2017    11      7       0.7079258       136.0473
2017    12      0       0.7215999       138.4134
2017    12      1       0.8006491       148.5576
2017    12      2       0.9519353       165.7188
2017    12      3       1.176813        185.6901
2017    12      4       1.414916        202.6937
2017    12      5       1.664067        217.489
2017    12      6       1.825301        225.6832
2017    12      7       2.094708        236.7214
2017    13      0       1.976695        232.5979
2017    13      1       1.657628        218.7224
2017    13      2       1.407716        205.257
2017    13      3       1.132373        186.0497
2017    13      4       0.7935571       150.8931
2017    13      5       0.9293383       165.395
2017    13      6       1.028253        175.139
2017    13      7       0.7958772       149.3287
2017    14      0       0.7179899       139.3203
2017    14      1       0.8602264       157.2856
2017    14      2       1.05565         178.4321
2017    14      3       0.9963013       173.5176
2017    14      4       0.7653827       147.6329
2017    14      5       0.5764475       120.7062
2017    14      6       0.54842         116.0212
2017    14      7       0.5624172       118.0634
2017    15      0       0.5605809       118.1273
2017    15      1       0.6790879       135.0285
2017    15      2       0.8164319       152.6388
2017    15      3       0.9662433       169.2495
2017    15      4       0.9748428       169.7675
2017    15      5       1.00949         171.953
2017    15      6       1.126087        183.793
2017    15      7       1.41094         206.5372
2017    16      0       1.540331        214.44
2017    16      1       1.399361        206.0298
2017    16      2       1.57204         216.8658
2017    16      3       1.629019        220.3493
2017    16      4       1.574561        216.8895
2017    16      5       1.630113        219.115
2017    16      6       1.878471        229.4607
2017    16      7       2.100411        237.0894
2017    17      0       1.781675        225.1079
2017    17      1       1.52451         211.9611
2017    17      2       1.701845        221.4094
2017    17      3       2.124667        239.049
2017    17      4       2.040832        235.3534
2017    17      5       1.961033        232.9865
2017    17      6       1.38849         204.8076
2017    17      7       0.5232379       113.672
2017    18      0       0.366326        86.41261
2017    18      1       0.1832482       49.67333
2017    18      2       0.1503807       42.11999
2017    18      3       0.1569752       43.4877
2017    18      4       0.16398         45.09609
2017    18      5       0.1419173       40.44506
2017    18      6       0.1289599       37.79165
2017    18      7       0.1411705       40.51834
2017    19      0       0.1586412       44.17863
2017    19      1       0.1806538       48.86362
2017    19      2       0.2391384       61.0141
2017    19      3       0.2592114       65.47538
2017    19      4       0.2100407       55.69475
2017    19      5       0.1798308       49.2754
2017    19      6       0.2300385       59.19313
2017    19      7       0.2680932       67.1282
2017    20      0       0.2969062       73.13285
2017    20      1       0.3763853       87.53352
2017    20      2       0.4737291       103.9378
2017    20      3       0.6167449       125.6591
2017    20      4       1.097717        181.2019
2017    20      5       1.611416        218.7655
2017    20      6       1.865483        230.8533
2017    20      7       2.030487        238.6355
2017    21      0       1.706353        224.7549
2017    21      1       1.479328        211.8161
2017    21      2       1.474852        210.892
2017    21      3       1.545818        215.1412
2017    21      4       1.49536         212.5409
2017    21      5       1.176123        189.9854
2017    21      6       1.370085        205.6313
2017    21      7       1.547385        217.6319
2017    22      0       1.288997        201.8264
2017    22      1       1.06657         184.0394
2017    22      2       1.051679        182.7556
2017    22      3       1.115423        188.9169
2017    22      4       0.8879847       166.0655
2017    22      5       0.6387325       134.1548
2017    22      6       0.6507163       135.956
2017    22      7       0.6677058       138.4633
2017    23      0       0.6427414       134.9295
2017    23      1       0.6358559       133.9382
2017    23      2       0.6141535       130.8965
2017    23      3       0.6296367       132.8623
2017    23      4       0.642218        134.4734
2017    23      5       0.5921813       127.1852
2017    23      6       0.6670285       137.2734
2017    23      7       0.7047885       141.3622
2017    24      0       0.7132718       141.198
2017    24      1       0.5068881       111.2495
2017    24      2       0.5365876       115.0332
2017    24      3       0.6671288       133.9809
2017    24      4       0.793624        151.8859
2017    24      5       0.7624946       149.0394
2017    24      6       0.7119112       141.9861
2017    24      7       0.8285685       156.8517
2017    25      0       0.8951602       165.2013
2017    25      1       0.8305303       158.2527
2017    25      2       0.8083411       155.1719
2017    25      3       0.8588483       161.1632
2017    25      4       0.689826        140.6704
2017    25      5       0.5336386       117.8916
2017    25      6       0.4484051       103.8448
2017    25      7       0.3637347       88.68724
2017    26      0       0.3317315       82.38732
2017    26      1       0.2860103       73.04424
2017    26      2       0.2717177       70.09333
2017    26      3       0.251195        65.86845
2017    26      4       0.2632727       68.30567
2017    26      5       0.2994876       75.5846
2017    26      6       0.2803568       71.9933
2017    26      7       0.2302948       61.67685
2017    27      0       0.2213325       59.24444
2017    27      1       0.2816291       71.09738
2017    27      2       0.3607327       85.99032
2017    27      3       0.3944768       91.3558
2017    27      4       0.2985887       72.54207
2017    27      5       0.5306795       111.9944
2017    27      6       0.2476044       64.04858
2017    27      7       0.2708507       68.91998
2017    28      0       0.2471121       64.32174
2017    28      1       0.1921589       52.88804
2017    28      2       0.2450144       63.31602
2017    28      3       0.2840279       70.9188
2017    28      4       0.2718165       68.34969
2017    28      5       0.2416615       62.3522
2017    28      6       0.221093        58.24084
2017    28      7       0.2133942       56.43157
2017    29      0       0.2533233       63.57717
2017    29      1       0.4009141       89.9804
2017    29      2       0.5332198       111.2025
2017    29      3       0.466522        101.6575
2017    29      4       0.5278139       111.0058
2017    29      5       0.7624465       144.4074
2017    29      6       0.970823        168.1277
2017    29      7       1.03783         174.474
2017    30      0       0.9690451       168.1202
2017    30      1       0.9889613       170.0492
2017    30      2       1.069797        177.9528
2017    30      3       1.185728        187.668
2017    30      4       1.103875        180.2144
2017    30      5       1.033745        173.8684
2017    30      6       1.206204        188.9198
2017    30      7       1.38688         202.45
2018    1       0       0.7682787       147.8553
2018    1       1       0.8476664       157.4257
2018    1       2       0.9441085       168.0009
2018    1       3       1.002877        173.9836
2018    1       4       0.9864744       171.6451
2018    1       5       1.059459        177.7663
2018    1       6       1.257901        194.3189
2018    1       7       1.32645         200.4864
2018    2       0       1.100023        183.2247
2018    2       1       0.907373        164.8808
2018    2       2       1.068113        181.831
2018    2       3       1.083779        183.5807
2018    2       4       0.7755168       150.6019
2018    2       5       0.5613599       120.9893
2018    2       6       0.4785031       107.5967
2018    2       7       0.4917501       109.6598
2018    3       0       0.478945        107.1437
2018    3       1       0.4718645       104.8208
2018    3       2       0.683448        135.4623
2018    3       3       0.4947933       109.9661
2018    3       4       0.3142054       78.74448
2018    3       5       0.3609308       87.3233
2018    3       6       0.5933559       125.4681
2018    3       7       0.9571602       168.3941
2018    4       0       1.108895        184.3406
2018    4       1       1.699302        225.2902
2018    4       2       2.440464        252.2281
2018    4       3       2.308819        248.9364
2018    4       4       1.560116        218.4171
2018    4       5       1.08621         184.6871
2018    4       6       1.014072        178.8875
2018    4       7       0.8695673       163.9593
2018    5       0       0.5228499       116.1129
2018    5       1       0.3440925       84.45805
2018    5       2       0.3998783       95.02086
2018    5       3       0.777772        152.8987
2018    5       4       0.8419128       160.5928
2018    5       5       0.8173722       157.9008
2018    5       6       1.118237        189.2549
2018    5       7       1.467741        215.478
2018    6       0       1.279897        202.6006
2018    6       1       1.230233        197.6842
2018    6       2       1.382177        208.8132
2018    6       3       1.351736        206.2297
2018    6       4       1.080701        183.5854
2018    6       5       0.911778        166.6264
2018    6       6       0.9548266       170.3211
2018    6       7       0.8655594       160.229
2018    7       0       0.7196672       142.6038
2018    7       1       0.6153242       128.0698
2018    7       2       0.7068062       140.5555
2018    7       3       0.718866        142.4376
2018    7       4       0.6238075       129.8512
2018    7       5       0.6879364       138.1109
2018    7       6       0.7347621       143.76
2018    7       7       0.7290996       142.8643
2018    8       0       0.7600889       147.5267
2018    8       1       0.7432745       144.8289
2018    8       2       0.7847588       150.7294
2018    8       3       0.7919198       152.035
2018    8       4       0.6971816       139.5907
2018    8       5       0.8538288       158.1203
2018    8       6       0.6258008       128.3321
2018    8       7       0.3506776       84.22679
2018    9       0       0.2241687       59.12512
2018    9       1       0.1736662       47.60422
2018    9       2       0.1284057       37.37911
2018    9       3       0.07622585      25.27984
2018    9       4       0.07632383      25.38374
2018    9       5       0.07903276      26.07013
2018    9       6       0.07131419      24.12539
2018    9       7       0.07034296      23.85405
2018    10      0       0.06967889      23.71479
2018    10      1       0.07231548      24.38173
2018    10      2       0.07666203      25.45028
2018    10      3       0.09169698      28.9762
2018    10      4       0.1236386       36.3793
2018    10      5       0.190035        50.84511
2018    10      6       0.2435509       61.54889
2018    10      7       0.2239608       57.65089
2018    11      0       0.2311522       59.34254
2018    11      1       0.2919508       72.01729
2018    11      2       0.4031329       93.58295
2018    11      3       0.4250398       97.53832
2018    11      4       0.2858279       72.18607
2018    11      5       0.1558257       44.36573
2018    11      6       0.1114818       33.69363
2018    11      7       0.07948545      25.66823
2018    12      0       0.08454274      26.6372
2018    12      1       0.1029667       31.12208
2018    12      2       0.1348617       38.53392
2018    12      3       0.1539515       43.0048
2018    12      4       0.1797923       48.5286
2018    12      5       0.199277        52.93841
2018    12      6       0.1884002       50.59396
2018    12      7       0.1521896       42.26965
2018    13      0       0.1822553       48.68186
2018    13      1       0.21488         55.95488
2018    13      2       0.2361853       60.67974
2018    13      3       0.2484547       63.50782
2018    13      4       0.2495705       63.9896
2018    13      5       0.2643981       67.22634
2018    13      6       0.3117656       76.58028
2018    13      7       0.3576631       84.93736
2018    14      0       0.3689606       86.32429
2018    14      1       0.3344484       80.06002
2018    14      2       0.3605506       83.94961
2018    14      3       0.4034556       90.94706
2018    14      4       0.5249168       109.7596
2018    14      5       0.6111432       122.6059
2018    14      6       0.5365698       112.2753
2018    14      7       0.4803316       104.7906
2018    15      0       0.4643309       102.8028
2018    15      1       0.4675143       103.3449
2018    15      2       0.4584391       101.8948
2018    15      3       0.4383613       98.76979
2018    15      4       0.4342913       98.03781
2018    15      5       0.4524569       101.1202
2018    15      6       0.4914804       107.4786
2018    15      7       0.5333169       113.9196
2018    16      0       0.5289806       113.0285
2018    16      1       0.4982378       107.7474
2018    16      2       0.5086095       109.0075
2018    16      3       0.5393887       113.5196
2018    16      4       0.5337571       112.6884
2018    16      5       0.5429369       113.9841
2018    16      6       0.5925887       121.2994
2018    16      7       0.6634664       131.0952
2018    17      0       0.7275378       139.487
2018    17      1       0.7355545       140.7858
2018    17      2       0.7960126       148.2763
2018    17      3       0.8426901       153.4427
2018    17      4       0.7623438       144.0792
2018    17      5       0.7318777       139.9564
2018    17      6       0.7824566       146.0477
2018    17      7       0.7942511       147.3958
2018    18      0       0.8107607       148.6563
2018    18      1       0.7964082       147.0678
2018    18      2       0.9637319       164.969
2018    18      3       1.223154        187.5287
2018    18      4       1.156188        182.1468
2018    18      5       1.003646        168.5251
2018    18      6       0.9332118       162.3093
2018    18      7       0.9386349       163.4547
2018    19      0       1.014067        171.1846
2018    19      1       1.07625         177.3885
2018    19      2       1.040466        174.1544
2018    19      3       0.9689909       167.2359
2018    19      4       0.7725506       145.7901
2018    19      5       0.6052434       123.5143
2018    19      6       0.6183863       124.5723
2018    19      7       0.7184158       136.4983
2018    20      0       0.895753        156.3004
2018    20      1       0.8196212       149.4338
2018    20      2       0.8590333       154.2672
2018    20      3       1.009713        168.719
2018    20      4       0.9448361       162.6145
2018    20      5       0.7779547       145.1765
2018    20      6       0.7646538       143.9673
2018    20      7       0.7693639       145.111
2018    21      0       0.6320562       128.007
2018    21      1       0.535683        114.0521
2018    21      2       0.5746066       119.8755
2018    21      3       0.5567317       117.5427
2018    21      4       0.5210372       112.4039
2018    21      5       0.5525997       117.014
2018    21      6       0.7389765       142.1725
2018    21      7       1.019688        171.8694
2018    22      0       1.142847        183.1891
2018    22      1       1.224745        189.1726
2018    22      2       1.514953        208.6876
2018    22      3       1.602842        214.612
2018    22      4       0.9322598       164.5912
2018    22      5       0.3807593       89.49305
2018    22      6       0.1629624       45.22416
2018    22      7       0.2143233       56.12824
2018    23      0       0.2302257       59.57162
2018    23      1       0.2329606       60.49779
2018    23      2       0.3717348       87.01347
2018    23      3       0.4816354       106.1236
2018    23      4       0.5720874       120.2729
2018    23      5       0.6191573       126.4688
2018    23      6       0.9275582       164.1975
2018    23      7       1.148225        185.1535
2018    24      0       1.265575        194.7892
2018    24      1       1.442022        206.583
2018    24      2       1.411509        204.1969
2018    24      3       0.9930812       170.8367
2018    24      4       0.7868058       148.0171
2018    24      5       0.5631765       119.6221
2018    24      6       0.522102        113.9157
2018    24      7       0.610374        127.2865
2018    25      0       0.652718        132.5062
2018    25      1       0.5988458       124.5959
2018    25      2       0.6020729       124.5978
2018    25      3       0.6384267       129.1534
2018    25      4       0.6307987       127.8897
2018    25      5       0.6182514       125.903
2018    25      6       0.7697561       144.8142
2018    25      7       0.9494496       163.8855
2018    26      0       0.9689518       166.3947
2018    26      1       0.9337614       164.2193
2018    26      2       0.892467        161.0586
2018    26      3       0.8509077       156.5183
2018    26      4       0.7399058       143.219
2018    26      5       0.5708625       120.6536
2018    26      6       0.4725868       105.7171
2018    26      7       0.4535713       102.6595
2018    27      0       0.39251         91.72116
2018    27      1       0.3755868       87.642
2018    27      2       0.4556453       100.2482
2018    27      3       0.5874758       119.9812
2018    27      4       0.6960636       134.5414
2018    27      5       1.029294        173.2736
2018    27      6       1.129883        185.0664
2018    27      7       1.437042        208.2991
2018    28      0       1.39176         204.9863
2018    28      1       0.9877874       172.1837
2018    28      2       1.128107        185.6549
2018    28      3       1.104717        183.3929
2018    28      4       0.7059509       139.6675
2018    28      5       0.7690363       147.2985
2018    28      6       0.5427333       117.3255
2018    28      7       0.4976379       108.9824
2018    29      0       0.4494328       101.0416
2018    29      1       0.3975935       91.20753
2018    29      2       0.3714117       87.07909
2018    29      3       0.4240959       96.09511
2018    29      4       0.4440651       99.41384
2018    29      5       0.554969        117.5535
2018    29      6       1.150397        184.8204
2018    29      7       1.082657        179.015
2018    30      0       0.6612418       130.6475
2018    30      1       1.134026        180.2793
2018    30      2       0.79131         147.0618
2018    30      3       0.6569817       130.6507
2018    30      4       0.3269147       78.12391
2018    30      5       0.277964        68.1779
2018    30      6       0.3020651       72.39035
2018    30      7       0.5271828       111.0142
