####################################################################################################
# Month: 04Apr                                                                                     #
# Station: SKS                                                                                     #
# Frequency: 230 GHz                                                                               #
# Columns are: year    day     segment         tau     Tb (K)                                      #
####################################################################################################
2009    1       0       0.8911067       160.45
2009    1       1       0.9220884       163.5508
2009    1       2       0.9379766       165.4469
2009    1       3       0.9940729       170.5745
2009    1       4       0.9499934       166.3109
2009    1       5       0.764053        145.6532
2009    1       6       0.6067924       125.0569
2009    1       7       0.5067406       110.5961
2009    2       0       0.4694728       104.9978
2009    2       1       0.4516024       102.1379
2009    2       2       0.4621546       103.8071
2009    2       3       0.4290351       97.89441
2009    2       4       0.4060052       93.93126
2009    2       5       0.3762035       88.98977
2009    2       6       0.4341367       99.23479
2009    2       7       0.6692186       133.2924
2009    3       0       0.7560114       144.765
2009    3       1       0.6649172       132.7083
2009    3       2       0.6219608       127.3511
2009    3       3       0.629868        128.4933
2009    3       4       0.6310452       128.3755
2009    3       5       0.7535078       143.6318
2009    3       6       0.715719        139.1498
2009    3       7       0.7024679       137.6025
2009    4       0       0.7118121       139.3357
2009    4       1       0.6611133       133.5208
2009    4       2       0.6048208       125.6118
2009    4       3       0.8787349       159.7937
2009    4       4       0.7468153       144.2836
2009    4       5       0.8932104       161.3698
2009    4       6       1.015901        174.7875
2009    4       7       0.7624457       146.6674
2009    5       0       1.108015        183.1709
2009    5       1       1.09484         181.6586
2009    5       2       0.9289282       164.6331
2009    5       3       0.6833083       134.0217
2009    5       4       0.8842609       159.8662
2009    5       5       0.9079392       162.7758
2009    5       6       0.5640004       118.775
2009    5       7       0.5799748       120.9333
2009    6       0       0.6648573       132.4773
2009    6       1       0.8774306       158.2197
2009    6       2       1.069802        177.0129
2009    6       3       1.176555        187.5942
2009    6       4       0.9974692       171.9107
2009    6       5       0.6430954       129.9723
2009    6       6       0.6189873       126.0595
2009    6       7       0.5558811       115.7883
2009    7       0       0.5217537       110.1822
2009    7       1       0.6431909       127.5779
2009    7       2       0.7548454       142.8885
2009    7       3       0.9621646       165.3838
2009    7       4       0.8696486       156.7159
2009    7       5       0.7812673       147.4372
2009    7       6       0.494919        106.9679
2009    7       7       0.3465599       81.70711
2009    8       0       0.2894664       71.0751
2009    8       1       0.281567        69.62144
2009    8       2       0.2706027       67.5943
2009    8       3       0.2209674       57.3825
2009    8       4       0.2028265       53.43684
2009    8       5       0.1916351       50.99605
2009    8       6       0.1884964       50.24901
2009    8       7       0.1985347       52.27416
2009    9       0       0.1749313       47.01687
2009    9       1       0.1284674       36.6054
2009    9       2       0.1908552       50.96302
2009    9       3       0.2333958       60.17198
2009    9       4       0.3075821       75.10351
2009    9       5       0.2406465       61.24522
2009    9       6       0.221774        56.84056
2009    9       7       0.215313        55.58664
2009    10      0       0.2119829       54.74309
2009    10      1       0.2470764       61.94542
2009    10      2       0.2818133       68.36598
2009    10      3       0.3283295       77.27172
2009    10      4       0.3253872       76.96659
2009    10      5       0.309168        74.36692
2009    10      6       0.3871302       89.17958
2009    10      7       0.4646932       102.4651
2009    11      0       0.5187586       110.5105
2009    11      1       0.5975914       122.6914
2009    11      2       0.8107225       151.3499
2009    11      3       0.8300347       154.2941
2009    11      4       0.6215804       128.0138
2009    11      5       0.5161629       112.5159
2009    11      6       0.5386993       116.028
2009    11      7       0.520778        113.3705
2009    12      0       0.4767123       106.3695
2009    12      1       0.4367523       99.70052
2009    12      2       0.4510895       101.4445
2009    12      3       0.5661551       118.979
2009    12      4       0.5010224       109.5272
2009    12      5       0.5133641       110.9103
2009    12      6       0.5213551       112.8784
2009    12      7       0.397121        92.25765
2009    13      0       0.4222057       96.93411
2009    13      1       0.3767735       89.08746
2009    13      2       0.3684175       87.53843
2009    13      3       0.3538073       85.14722
2009    13      4       0.2867712       71.86619
2009    13      5       0.2279619       59.02316
2009    13      6       0.1603201       43.88519
2009    13      7       0.1112          32.35524
2009    14      0       0.09220861      27.85617
2009    14      1       0.1205009       34.62753
2009    14      2       0.1722907       46.32803
2009    14      3       0.376573        87.32178
2009    14      4       0.5778349       119.3166
2009    14      5       0.6483957       130.7316
2009    14      6       0.4300119       97.7899
2009    14      7       0.3975792       91.93235
2009    15      0       0.3951343       91.20809
2009    15      1       0.3222376       77.77282
2009    15      2       0.2787414       69.45528
2009    15      3       0.2740368       68.5338
2009    15      4       0.332117        79.8384
2009    15      5       0.385687        89.59246
2009    15      6       0.417603        94.71189
2009    15      7       0.5021615       108.5123
2009    16      0       0.4472564       100.3866
2009    16      1       0.3525567       83.92218
2009    16      2       0.2287995       59.32672
2009    16      3       0.2051799       54.29036
2009    16      4       0.1991065       52.96472
2009    16      5       0.1891734       50.77055
2009    16      6       0.1325721       37.64097
2009    16      7       0.09382674      28.31143
2009    17      0       0.10673         31.49207
2009    17      1       0.1074223       31.53418
2009    17      2       0.1266608       36.03129
2009    17      3       0.1568432       42.99804
2009    17      4       0.1878186       50.01164
2009    17      5       0.2146985       55.91172
2009    17      6       0.2210888       57.17714
2009    17      7       0.2154518       55.8572
2009    18      0       0.2004831       52.65374
2009    18      1       0.2179632       56.43469
2009    18      2       0.2612894       65.68652
2009    18      3       0.3335072       80.23138
2009    18      4       0.3691245       87.11264
2009    18      5       0.365833        86.68331
2009    18      6       0.3775401       88.96881
2009    18      7       0.3785582       89.09008
2009    19      0       0.3301286       79.89539
2009    19      1       0.2980441       72.99212
2009    19      2       0.3092766       74.91728
2009    19      3       0.3193669       76.75555
2009    19      4       0.3215989       77.37587
2009    19      5       0.3843843       88.97836
2009    19      6       0.4066713       92.64545
2009    19      7       0.3802363       87.82544
2009    20      0       0.3991644       90.01684
2009    20      1       0.3329136       78.58589
2009    20      2       0.2468558       61.53148
2009    20      3       0.2221002       56.62773
2009    20      4       0.2749937       68.12096
2009    20      5       0.3388494       80.93101
2009    20      6       0.3376831       80.46166
2009    20      7       0.3787996       87.32071
2009    21      0       0.423226        95.8623
2009    21      1       0.4269268       96.97737
2009    21      2       0.4927158       107.5733
2009    21      3       0.4886295       107.2726
2009    21      4       0.528408        113.1093
2009    21      5       0.4068296       93.56044
2009    21      6       0.4215517       96.93649
2009    21      7       0.3581841       85.72779
2009    22      0       0.1200462       34.37445
2009    22      1       0.09445176      28.56214
2009    22      2       0.1170542       34.13163
2009    22      3       0.171924        46.74276
2009    22      4       0.330546        79.96238
2009    22      5       0.4203785       96.45825
2009    22      6       0.5243688       113.7981
2009    22      7       0.3638547       86.13073
2009    23      0       0.376386        88.09561
2009    23      1       0.8162011       152.4237
2009    23      2       0.9096819       162.6148
2009    23      3       0.819257        152.9264
2009    23      4       0.680175        136.2452
2009    23      5       0.6186802       127.4664
2009    23      6       0.4487186       100.3334
2009    23      7       0.3319237       79.05161
2009    24      0       0.4250806       95.77634
2009    24      1       0.5073581       109.2126
2009    24      2       0.565503        117.9216
2009    24      3       0.7232711       139.1105
2009    24      4       0.7506508       143.4923
2009    24      5       0.6725634       133.7699
2009    24      6       0.6079117       125.1527
2009    24      7       0.5766297       120.3252
2009    25      0       0.5736897       119.5167
2009    25      1       0.5428724       114.6947
2009    25      2       0.4680612       103.0957
2009    25      3       0.4517689       100.8012
2009    25      4       0.5774034       121.1624
2009    25      5       0.52227         112.8068
2009    25      6       0.3935987       91.07949
2009    25      7       0.3613943       85.24736
2009    26      0       0.3372787       80.66022
2009    26      1       0.295665        72.70084
2009    26      2       0.3049386       74.61641
2009    26      3       0.3205888       77.60705
2009    26      4       0.3885967       90.03491
2009    26      5       0.4987501       109.1189
2009    26      6       0.4456919       100.0521
2009    26      7       0.4115403       93.98749
2009    27      0       0.4002509       91.99649
2009    27      1       0.4681573       103.3319
2009    27      2       0.4981091       108.0522
2009    27      3       0.5134788       110.6095
2009    27      4       0.5361286       113.8996
2009    27      5       0.6192785       126.3957
2009    27      6       0.6278419       127.3789
2009    27      7       0.6685155       133.2311
2009    28      0       0.5293133       113.9812
2009    28      1       0.3789458       89.13131
2009    28      2       0.3751305       88.79518
2009    28      3       0.4236123       96.83084
2009    28      4       0.418655        95.83423
2009    28      5       0.3775151       89.02459
2009    28      6       0.276677        70.24548
2009    28      7       0.08964397      27.67566
2009    29      0       0.1260412       36.31748
2009    29      1       0.1721292       46.75998
2009    29      2       0.2285274       58.62094
2009    29      3       0.4342439       98.43654
2009    29      4       0.2848653       71.0543
2009    29      5       0.2873712       71.80055
2009    29      6       0.2921362       72.80183
2009    29      7       0.3265377       79.53412
2009    30      0       0.3641836       86.72448
2009    30      1       0.366633        87.02813
2009    30      2       0.3697763       87.41519
2009    30      3       0.4565456       102.6653
2009    30      4       0.6647177       134.7307
2009    30      5       0.546835        117.5292
2009    30      6       0.2689299       67.60039
2009    30      7       0.2936701       72.50456
2010    1       0       0.2191957       55.93185
2010    1       1       0.1937074       50.31172
2010    1       2       0.2488718       62.01941
2010    1       3       0.3394335       80.4383
2010    1       4       0.3704882       86.06262
2010    1       5       0.3608912       84.22421
2010    1       6       0.4114052       93.44678
2010    1       7       0.4566759       101.5523
2010    2       0       0.4768483       104.5572
2010    2       1       0.3987684       91.04394
2010    2       2       0.335198        79.95185
2010    2       3       0.4009944       91.22825
2010    2       4       0.397021        91.58657
2010    2       5       0.3501218       84.74165
2010    2       6       0.1874792       50.94552
2010    2       7       0.09177713      27.98072
2010    3       0       0.0791939       24.75767
2010    3       1       0.07790501      24.50308
2010    3       2       0.08582203      26.33974
2010    3       3       0.09386867      28.27647
2010    3       4       0.1097116       31.98754
2010    3       5       0.09166159      27.81621
2010    3       6       0.09383322      27.99534
2010    3       7       0.1053502       30.56714
2010    4       0       0.1244014       35.21027
2010    4       1       0.1367188       38.6004
2010    4       2       0.1375442       38.92789
2010    4       3       0.1284729       36.64178
2010    4       4       0.1282534       36.40808
2010    4       5       0.1173791       33.86458
2010    4       6       0.1112007       32.33974
2010    4       7       0.1067263       31.31565
2010    5       0       0.1109819       32.39932
2010    5       1       0.1157552       33.54238
2010    5       2       0.1142017       33.21127
2010    5       3       0.1180675       33.97107
2010    5       4       0.1209734       34.6801
2010    5       5       0.1754257       47.10503
2010    5       6       0.2963906       72.90865
2010    5       7       0.406205        93.93835
2010    6       0       0.2969229       73.90844
2010    6       1       0.2035487       54.46894
2010    6       2       0.05798255      19.57007
2010    6       3       0.08896988      27.32732
2010    6       4       0.08946806      27.52892
2010    6       5       0.1657714       45.47234
2010    6       6       0.2104133       55.34111
2010    6       7       0.2275048       58.93584
2010    7       0       0.1950322       51.8731
2010    7       1       0.2100857       55.01401
2010    7       2       0.4884203       107.2924
2010    7       3       0.6295207       128.3356
2010    7       4       0.4662755       103.0056
2010    7       5       0.2902288       71.38615
2010    7       6       0.1914793       50.89689
2010    7       7       0.1941189       51.45729
2010    8       0       0.1835229       49.16438
2010    8       1       0.1860626       49.60234
2010    8       2       0.1906828       50.36161
2010    8       3       0.2147492       55.11853
2010    8       4       0.2555975       63.2096
2010    8       5       0.2405229       60.47904
2010    8       6       0.2019762       52.57711
2010    8       7       0.1677389       45.21564
2010    9       0       0.1836889       48.30737
2010    9       1       0.1848861       48.77763
2010    9       2       0.1780304       47.42246
2010    9       3       0.2714933       66.12639
2010    9       4       0.3065693       73.91977
2010    9       5       0.3062331       74.41216
2010    9       6       0.3630618       85.46679
2010    9       7       0.4358229       98.19199
2010    10      0       0.4064572       93.57991
2010    10      1       0.4102393       94.07567
2010    10      2       0.5126023       110.9888
2010    10      3       0.6095787       126.2101
2010    10      4       0.6006079       125.1515
2010    10      5       0.551845        117.9749
2010    10      6       0.5189402       112.4032
2010    10      7       0.4265056       96.91825
2010    11      0       0.4223371       96.01957
2010    11      1       0.5114214       110.1947
2010    11      2       0.7090559       138.0463
2010    11      3       0.6017573       123.488
2010    11      4       0.3262093       78.02908
2010    11      5       0.1220187       35.01913
2010    11      6       0.115132        33.43715
2010    11      7       0.1335727       37.77429
2010    12      0       0.1413431       39.43552
2010    12      1       0.1489205       41.07998
2010    12      2       0.1606957       43.72404
2010    12      3       0.1591687       43.59715
2010    12      4       0.1747553       47.17739
2010    12      5       0.1750552       47.2495
2010    12      6       0.1512362       41.62004
2010    12      7       0.172389        45.97861
2010    13      0       0.186074        48.99029
2010    13      1       0.2005837       52.13948
2010    13      2       0.2576214       63.87192
2010    13      3       0.2830287       69.30763
2010    13      4       0.3137255       75.15514
2010    13      5       0.3272996       77.64123
2010    13      6       0.4548541       99.52161
2010    13      7       0.6380029       128.6189
2010    14      0       0.7080169       140.0975
2010    14      1       0.6844212       137.2718
2010    14      2       0.613569        127.6219
2010    14      3       0.4829828       107.7527
2010    14      4       0.5439343       117.907
2010    14      5       0.6372644       132.0021
2010    14      6       0.4276267       98.74914
2010    14      7       0.4461709       101.7212
2010    15      0       0.4465608       101.6741
2010    15      1       0.3933434       92.0774
2010    15      2       0.3945715       92.20009
2010    15      3       0.4104458       95.23335
2010    15      4       0.4070813       94.60242
2010    15      5       0.3913999       91.65577
2010    15      6       0.3859428       90.60374
2010    15      7       0.3708217       87.84306
2010    16      0       0.3732208       87.98493
2010    16      1       0.3766082       88.51037
2010    16      2       0.387631        90.57198
2010    16      3       0.4127373       95.03422
2010    16      4       0.4285158       98.14268
2010    16      5       0.4644047       104.6452
2010    16      6       0.4728875       104.9801
2010    16      7       0.5753243       120.2637
2010    17      0       0.8586194       157.2623
2010    17      1       0.6041125       126.1219
2010    17      2       0.6176168       128.4074
2010    17      3       0.6143512       128.3119
2010    17      4       0.5948076       125.1407
2010    17      5       0.5512134       119.162
2010    17      6       0.5086312       112.476
2010    17      7       0.4923768       109.6003
2010    18      0       0.4941517       109.3198
2010    18      1       0.5530204       118.8317
2010    18      2       0.4899969       108.6473
2010    18      3       0.5889625       123.7004
2010    18      4       0.614436        128.6745
2010    18      5       0.5946462       126.2527
2010    18      6       0.593444        125.8943
2010    18      7       0.5056957       112.0572
2010    19      0       0.6435231       132.8949
2010    19      1       1.0113          176.281
2010    19      2       1.155811        189.0601
2010    19      3       1.038892        178.9986
2010    19      4       0.832851        158.0631
2010    19      5       0.9540551       171.5063
2010    19      6       0.8166956       156.214
2010    19      7       0.7768058       151.047
2010    20      0       0.3985675       92.76539
2010    20      1       0.2147796       56.51222
2010    20      2       0.1922792       51.46691
2010    20      3       0.2738837       68.5408
2010    20      4       0.2905276       72.04541
2010    20      5       0.1862512       50.05276
2010    20      6       0.1207932       34.80425
2010    20      7       0.1315716       37.37076
2010    21      0       0.1944268       51.64038
2010    21      1       0.274084        67.90897
2010    21      2       0.5562583       117.4633
2010    21      3       0.9108779       162.9273
2010    21      4       0.7455796       143.7908
2010    21      5       0.7613423       145.8518
2010    21      6       0.5270919       113.1404
2010    21      7       0.2870287       71.14922
2010    22      0       0.2133315       55.97113
2010    22      1       0.1598334       44.04634
2010    22      2       0.109931        32.39311
2010    22      3       0.1185723       34.45454
2010    22      4       0.2005129       53.14278
2010    22      5       0.1703809       46.34357
2010    22      6       0.153212        42.33172
2010    22      7       0.155402        42.87095
2010    23      0       0.1361111       38.20972
2010    23      1       0.124452        35.19147
2010    23      2       0.1329961       36.98751
2010    23      3       0.1430678       38.99833
2010    23      4       0.1454232       39.52505
2010    23      5       0.131695        36.59432
2010    23      6       0.1891917       49.45363
2010    23      7       0.2522618       62.12701
2010    24      0       0.5373203       112.2454
2010    24      1       0.5462153       115.3785
2010    24      2       0.5631936       117.9321
2010    24      3       0.5942008       122.1748
2010    24      4       0.7034754       137.7233
2010    24      5       0.5825895       121.6885
2010    24      6       0.4401445       98.60057
2010    24      7       0.4540539       101.6178
2010    25      0       0.426113        97.12095
2010    25      1       0.4033047       93.36565
2010    25      2       0.4050866       93.60098
2010    25      3       0.485322        105.9983
2010    25      4       0.4738583       104.3178
2010    25      5       0.3972355       91.58508
2010    25      6       0.2855076       71.0328
2010    25      7       0.2849969       71.14461
2010    26      0       0.3087746       75.61698
2010    26      1       0.3515817       83.76922
2010    26      2       0.4081247       93.87934
2010    26      3       0.5138685       111.8329
2010    26      4       0.6180274       127.7482
2010    26      5       0.6822451       136.4166
2010    26      6       0.5902884       122.9734
2010    26      7       0.4760371       104.9339
2010    27      0       0.4546546       101.5029
2010    27      1       0.4911314       107.5929
2010    27      2       0.4893967       107.1303
2010    27      3       0.4593127       101.9994
2010    27      4       0.407703        93.27021
2010    27      5       0.3761025       88.05753
2010    27      6       0.3570384       84.90413
2010    27      7       0.3238405       78.84888
2010    28      0       0.3249829       78.94561
2010    28      1       0.3340961       80.59035
2010    28      2       0.3411372       81.71237
2010    28      3       0.3598371       84.97028
2010    28      4       0.4304582       97.93221
2010    28      5       0.4628073       103.7566
2010    28      6       0.424281        97.1709
2010    28      7       0.3759021       88.21077
2010    29      0       0.326642        78.47144
2010    29      1       0.2938314       71.68475
2010    29      2       0.2692428       66.66249
2010    29      3       0.240415        60.731
2010    29      4       0.2192518       56.34771
2010    29      5       0.2132117       55.22877
2010    29      6       0.2689136       66.87136
2010    29      7       0.3468108       82.24492
2010    30      0       0.4115957       94.15678
2010    30      1       0.4591755       102.1577
2010    30      2       0.4776348       105.1251
2010    30      3       0.5012491       108.9115
2010    30      4       0.486141        106.7025
2010    30      5       0.375503        87.7809
2010    30      6       0.1473598       40.9073
2010    30      7       0.1439624       39.57571
2011    1       0       0.5148877       111.0201
2011    1       1       0.4942601       107.4342
2011    1       2       0.4885973       106.4824
2011    1       3       0.4658445       102.9093
2011    1       4       0.4088806       93.01091
2011    1       5       0.4545867       100.7397
2011    1       6       0.5113857       109.6877
2011    1       7       0.5740946       118.8764
2011    2       0       0.6997565       135.5214
2011    2       1       0.8662762       155.2359
2011    2       2       1.104324        179.3773
2011    2       3       1.121945        180.3736
2011    2       4       0.9956426       169.6006
2011    2       5       1.123033        182.9973
2011    2       6       0.6955973       136.3503
2011    2       7       0.6441997       129.7342
2011    3       0       0.6659977       132.5155
2011    3       1       0.7011776       137.024
2011    3       2       0.9638837       167.4936
2011    3       3       0.7332189       140.5699
2011    3       4       0.5235008       110.9792
2011    3       5       0.4930746       105.4533
2011    3       6       0.568997        117.3231
2011    3       7       0.4172907       93.67981
2011    4       0       0.3017666       72.86008
2011    4       1       0.3380842       79.56403
2011    4       2       0.3669153       84.89111
2011    4       3       0.5381988       113.7306
2011    4       4       0.4842428       105.6158
2011    4       5       0.4807339       105.3105
2011    4       6       0.3096078       74.9187
2011    4       7       0.2776618       68.82159
2011    5       0       0.2849039       70.41897
2011    5       1       0.3203859       77.56841
2011    5       2       0.5109238       111.3729
2011    5       3       0.4611336       103.0202
2011    5       4       0.3236091       77.80658
2011    5       5       0.2972935       73.00761
2011    5       6       0.2647787       66.40932
2011    5       7       0.5029486       109.4833
2011    6       0       0.3218418       77.26125
2011    6       1       0.3730913       86.48669
2011    6       2       0.4025662       91.98651
2011    6       3       0.4229047       95.64262
2011    6       4       0.4384282       98.15133
2011    6       5       0.4646399       102.3516
2011    6       6       0.4528097       100.0678
2011    6       7       0.4985231       107.2816
2011    7       0       0.5737879       118.9805
2011    7       1       0.5740024       118.9492
2011    7       2       0.6189418       125.3275
2011    7       3       1.000816        170.9943
2011    7       4       1.210551        189.5534
2011    7       5       0.9739455       167.817
2011    7       6       0.6316201       127.238
2011    7       7       0.5105223       109.4636
2011    8       0       0.3963897       91.02605
2011    8       1       0.3173164       76.64762
2011    8       2       0.2590394       65.14221
2011    8       3       0.2229048       57.46625
2011    8       4       0.1974363       51.53147
2011    8       5       0.2547063       63.644
2011    8       6       0.3546042       83.4827
2011    8       7       0.3992006       91.56475
2011    9       0       0.4326493       97.43879
2011    9       1       0.4646993       102.7491
2011    9       2       0.483608        105.94
2011    9       3       0.4435764       100.0574
2011    9       4       0.4585741       103.1058
2011    9       5       0.4458029       101.1916
2011    9       6       0.3535944       84.47295
2011    9       7       0.3139951       76.82886
2011    10      0       0.2953763       73.15072
2011    10      1       0.3811217       89.59134
2011    10      2       0.4661046       104.5606
2011    10      3       0.5319332       115.1607
2011    10      4       0.5328799       115.2411
2011    10      5       0.4697221       105.1301
2011    10      6       0.412814        95.09305
2011    10      7       0.3893233       90.66024
2011    11      0       0.3460635       82.42257
2011    11      1       0.2971534       72.67946
2011    11      2       0.2960412       72.32007
2011    11      3       0.2130251       55.84565
2011    11      4       0.2598262       65.79447
2011    11      5       0.2648194       66.56116
2011    11      6       0.3403206       81.27987
2011    11      7       0.2757626       68.71524
2011    12      0       0.142926        40.32308
2011    12      1       0.1021003       30.35224
2011    12      2       0.1168859       33.51324
2011    12      3       0.1577968       42.8867
2011    12      4       0.2230184       57.08045
2011    12      5       0.2736122       67.43348
2011    12      6       0.2947102       71.73957
2011    12      7       0.2820023       69.47894
2011    13      0       0.2611732       65.30942
2011    13      1       0.2471668       62.42991
2011    13      2       0.2385245       60.67191
2011    13      3       0.2193138       56.6443
2011    13      4       0.1982264       52.23492
2011    13      5       0.1947774       51.87796
2011    13      6       0.1927508       51.42782
2011    13      7       0.1705288       46.47186
2011    14      0       0.2807188       69.73197
2011    14      1       0.3155403       76.34672
2011    14      2       0.5600063       118.704
2011    14      3       0.9424654       168.0397
2011    14      4       0.3196971       77.40538
2011    14      5       0.1228396       34.21926
2011    14      6       0.1713032       45.46238
2011    14      7       0.194123        50.71974
2011    15      0       0.187739        49.55225
2011    15      1       0.1707448       46.04394
2011    15      2       0.2499625       62.91317
2011    15      3       0.2942327       72.0182
2011    15      4       0.3501394       82.78496
2011    15      5       0.3918389       90.5341
2011    15      6       0.3131842       76.2626
2011    15      7       0.2541411       64.4382
2011    16      0       0.2837943       70.2501
2011    16      1       0.3111701       75.77344
2011    16      2       0.3645959       84.98046
2011    16      3       0.5117865       110.8885
2011    16      4       0.4930453       108.2971
2011    16      5       0.59507         124.674
2011    16      6       0.4628908       103.8387
2011    16      7       0.6948434       137.0493
2011    17      0       0.6514696       132.1183
2011    17      1       0.7830179       149.4622
2011    17      2       0.6914596       137.4987
2011    17      3       0.5830463       122.8512
2011    17      4       0.7100845       140.0537
2011    17      5       0.6164542       127.0362
2011    17      6       0.4479461       101.322
2011    17      7       0.09440275      28.30537
2011    18      0       0.1736034       47.23966
2011    18      1       0.2270104       58.98654
2011    18      2       0.4040116       93.13145
2011    18      3       0.3840946       89.51698
2011    18      4       0.4968004       108.7125
2011    18      5       1.02952         174.8937
2011    18      6       0.8710091       157.4324
2011    18      7       0.8035877       149.4141
2011    19      0       1.121415        181.0041
2011    19      1       1.015011        171.4177
2011    19      2       0.6900818       135.0957
2011    19      3       0.5177076       110.5339
2011    19      4       0.704389        137.5958
2011    19      5       0.7383704       142.0579
2011    19      6       0.5685172       118.5617
2011    19      7       0.5304044       112.5893
2011    20      0       0.593953        122.2379
2011    20      1       0.5929282       122.1168
2011    20      2       0.5713862       118.7725
2011    20      3       0.5180356       110.1341
2011    20      4       0.7090316       137.3784
2011    20      5       0.6203094       124.9349
2011    20      6       0.8401594       153.4279
2011    20      7       1.243579        192.0448
2011    21      0       0.6057999       123.6948
2011    21      1       0.2477127       62.1788
2011    21      2       0.1548906       42.46036
2011    21      3       0.1048516       30.87803
2011    21      4       0.09951217      29.53867
2011    21      5       0.1067968       31.27146
2011    21      6       0.09630896      28.808
2011    21      7       0.09284507      28.08248
2011    22      0       0.0872291       26.72857
2011    22      1       0.09032474      27.4375
2011    22      2       0.0832224       25.54106
2011    22      3       0.08424384      25.72504
2011    22      4       0.09139522      27.31484
2011    22      5       0.1012247       29.5948
2011    22      6       0.1213619       34.57409
2011    22      7       0.1426793       39.55936
2011    23      0       0.1390105       38.85011
2011    23      1       0.1140378       32.98506
2011    23      2       0.1002807       29.75998
2011    23      3       0.1207824       34.84378
2011    23      4       0.1454565       40.65171
2011    23      5       0.1804408       48.58235
2011    23      6       0.2020413       53.47757
2011    23      7       0.2128941       55.97162
2011    24      0       0.1679395       45.9408
2011    24      1       0.1225464       35.29563
2011    24      2       0.119842        34.53238
2011    24      3       0.1142555       33.17251
2011    24      4       0.1186114       34.04751
2011    24      5       0.1242701       35.33076
2011    24      6       0.1258961       35.7368
2011    24      7       0.1289283       36.50997
2011    25      0       0.1368393       38.38382
2011    25      1       0.1411661       39.44886
2011    25      2       0.1526437       42.1551
2011    25      3       0.1715347       46.42678
2011    25      4       0.1936963       51.3996
2011    25      5       0.2238929       58.14947
2011    25      6       0.3186451       77.29187
2011    25      7       0.295038        73.59961
2011    26      0       0.4646396       102.5768
2011    26      1       0.6427419       132.6269
2011    26      2       0.6355402       131.0312
2011    26      3       0.7443384       146.8543
2011    26      4       0.5566474       120.1069
2011    26      5       0.5678172       122.1178
2011    26      6       1.049417        177.5943
2011    26      7       1.083177        180.8344
2011    27      0       0.8404573       155.4892
2011    27      1       0.4957519       110.1208
2011    27      2       0.4082289       94.92143
2011    27      3       0.3142864       77.13594
2011    27      4       0.4547356       102.7807
2011    27      5       0.542766        116.7829
2011    27      6       0.5374554       115.7416
2011    27      7       0.5429824       116.3486
2011    28      0       0.5827257       122.3227
2011    28      1       0.6133374       126.7978
2011    28      2       0.7030283       138.1846
2011    28      3       0.8130686       151.0644
2011    28      4       1.311021        198.3897
2011    28      5       1.123817        182.7189
2011    28      6       0.8666825       157.1924
2011    28      7       0.9654434       167.7055
2011    29      0       1.132791        183.6457
2011    29      1       1.363336        201.8416
2011    29      2       1.437498        206.9181
2011    29      3       1.304047        197.1998
2011    29      4       0.9597332       167.9237
2011    29      5       0.8358361       155.7344
2011    29      6       0.4704741       104.6471
2011    29      7       0.3863427       90.50993
2011    30      0       0.36954         87.52852
2011    30      1       0.3570975       85.22283
2011    30      2       0.2742792       68.78058
2011    30      3       0.1952267       51.82242
2011    30      4       0.2158553       56.04731
2011    30      5       0.3650294       85.15271
2011    30      6       0.4456554       100.4511
2011    30      7       0.662362        134.1054
2012    1       0       0.4242389       94.129
2012    1       1       0.3707446       85.54158
2012    1       2       0.3231511       76.70379
2012    1       3       0.2824774       69.2626
2012    1       4       0.3056303       74.52519
2012    1       5       0.1843243       49.47229
2012    1       6       0.1431369       40.09664
2012    1       7       0.1609852       44.28018
2012    2       0       0.1855786       49.84038
2012    2       1       0.1891244       50.60881
2012    2       2       0.1776988       47.9657
2012    2       3       0.1769734       47.68557
2012    2       4       0.1874744       50.09689
2012    2       5       0.1718945       46.55353
2012    2       6       0.1516956       41.76105
2012    2       7       0.1804691       47.84161
2012    3       0       0.2248547       57.46407
2012    3       1       0.2455644       62.30609
2012    3       2       0.3451741       82.87724
2012    3       3       0.4321618       99.12789
2012    3       4       0.441367        100.6513
2012    3       5       0.4889068       108.3309
2012    3       6       0.4920287       109.0507
2012    3       7       0.6939124       136.6686
2012    4       0       0.7687355       147.3256
2012    4       1       0.6806806       136.6509
2012    4       2       0.5894562       124.2126
2012    4       3       0.6091912       127.1147
2012    4       4       0.4936698       109.8909
2012    4       5       0.5730014       122.0378
2012    4       6       0.8525939       156.7538
2012    4       7       0.9128538       164.9345
2012    5       0       0.8299537       156.6984
2012    5       1       0.8032293       152.7112
2012    5       2       0.6731018       134.8911
2012    5       3       0.6269066       129.6809
2012    5       4       0.5921481       124.4827
2012    5       5       0.6182296       128.9599
2012    5       6       0.5148089       113.4258
2012    5       7       0.4681758       106.0334
2012    6       0       0.4409418       101.4725
2012    6       1       0.3635449       87.18341
2012    6       2       0.2953491       73.88116
2012    6       3       0.3177932       78.43427
2012    6       4       0.3180373       78.52775
2012    6       5       0.3446117       83.54919
2012    6       6       0.3446739       83.62347
2012    6       7       0.3161194       77.96747
2012    7       0       0.2784108       70.31793
2012    7       1       0.2680269       67.84643
2012    7       2       0.3343885       80.75581
2012    7       3       0.3433007       82.25128
2012    7       4       0.3864547       90.01721
2012    7       5       0.383434        89.33801
2012    7       6       0.314278        76.88058
2012    7       7       0.2791275       70.16856
2012    8       0       0.2899321       72.52711
2012    8       1       0.305699        75.37958
2012    8       2       0.2309019       59.75105
2012    8       3       0.1314983       37.1199
2012    8       4       0.1243134       35.06505
2012    8       5       0.1848068       48.76751
2012    8       6       0.3765927       87.81606
2012    8       7       0.3006679       73.53628
2012    9       0       0.2909854       71.77269
2012    9       1       0.7295272       141.9139
2012    9       2       1.154374        185.8329
2012    9       3       1.067907        178.6087
2012    9       4       0.925601        163.9953
2012    9       5       0.7092107       137.6184
2012    9       6       0.6358129       126.3829
2012    9       7       0.6520962       128.2697
2012    10      0       0.6614433       130.2616
2012    10      1       0.4772216       104.45
2012    10      2       0.7444539       142.9236
2012    10      3       0.826157        152.707
2012    10      4       0.7626672       144.379
2012    10      5       0.9614602       165.1544
2012    10      6       0.5824026       119.866
2012    10      7       0.2884036       70.46175
2012    11      0       0.2952257       72.19465
2012    11      1       0.277659        68.88664
2012    11      2       0.2503328       63.16559
2012    11      3       0.2403695       61.08367
2012    11      4       0.2347007       59.49554
2012    11      5       0.2784549       67.69863
2012    11      6       0.3872392       87.93903
2012    11      7       0.6742749       133.4378
2012    12      0       0.831676        153.3966
2012    12      1       0.6304174       128.5102
2012    12      2       0.455551        102.3143
2012    12      3       0.421194        96.01348
2012    12      4       0.3338023       80.8163
2012    12      5       0.3100077       76.77517
2012    12      6       0.2562354       65.77872
2012    12      7       0.1588483       43.77565
2012    13      0       0.140172        38.21707
2012    13      1       0.2071724       52.86329
2012    13      2       0.3328832       78.70977
2012    13      3       0.3378779       80.35412
2012    13      4       0.5396204       114.5582
2012    13      5       0.9075798       165.6762
2012    13      6       0.869494        161.5411
2012    13      7       0.6897777       139.5078
2012    14      0       0.8812703       163.7176
2012    14      1       1.008608        176.2407
2012    14      2       1.02891         177.0116
2012    14      3       0.8472646       157.9709
2012    14      4       0.85708         159.1494
2012    14      5       0.2137436       56.36307
2012    14      6       0.2612404       65.5672
2012    14      7       0.3845675       89.29577
2012    15      0       0.3205445       77.3218
2012    15      1       0.2235553       57.82801
2012    15      2       0.1690925       45.61808
2012    15      3       0.1474732       40.53832
2012    15      4       0.2068522       53.7454
2012    15      5       0.3087529       74.74355
2012    15      6       0.3379536       80.33281
2012    15      7       0.3374917       80.23772
2012    16      0       0.3706631       86.44412
2012    16      1       0.3708509       86.45817
2012    16      2       0.3716862       86.7113
2012    16      3       0.3372565       80.73601
2012    16      4       0.3413971       81.42196
2012    16      5       0.328652        78.77264
2012    16      6       0.3045646       74.0243
2012    16      7       0.2870129       70.63386
2012    17      0       0.2703342       67.36624
2012    17      1       0.2511611       63.37381
2012    17      2       0.2235781       57.46249
2012    17      3       0.2090205       54.07382
2012    17      4       0.2533166       62.91818
2012    17      5       0.4791497       103.5916
2012    17      6       0.3750477       87.65286
2012    17      7       0.3224306       79.73636
2012    18      0       0.3263563       80.04364
2012    18      1       0.3316945       80.02436
2012    18      2       0.7712297       145.7243
2012    18      3       0.8097013       148.1036
2012    18      4       0.7126864       137.0754
2012    18      5       0.4167862       95.13802
2012    18      6       0.2259349       58.50417
2012    18      7       0.2016816       53.31191
2012    19      0       0.1314259       37.41046
2012    19      1       0.1157561       33.5854
2012    19      2       0.1055806       31.05968
2012    19      3       0.161717        44.2483
2012    19      4       0.2001805       53.0187
2012    19      5       0.1877082       50.19594
2012    19      6       0.18083         48.47614
2012    19      7       0.2319702       58.65142
2012    20      0       0.2029339       52.47487
2012    20      1       0.2294486       57.95449
2012    20      2       0.2873223       69.94682
2012    20      3       0.361698        84.35154
2012    20      4       0.3078132       74.13201
2012    20      5       0.3072734       74.32309
2012    20      6       0.301954        73.50795
2012    20      7       0.3471374       82.51899
2012    21      0       0.3678264       86.5021
2012    21      1       0.3166458       77.18841
2012    21      2       0.2459276       63.13359
2012    21      3       0.1699189       46.57171
2012    21      4       0.1705943       46.72731
2012    21      5       0.1566643       43.4481
2012    21      6       0.1404836       39.58577
2012    21      7       0.1199783       34.67978
2012    22      0       0.1075045       31.64203
2012    22      1       0.09617314      28.78676
2012    22      2       0.09307472      27.94786
2012    22      3       0.1089173       31.71391
2012    22      4       0.1293798       36.645
2012    22      5       0.1384767       38.86239
2012    22      6       0.1327566       37.538
2012    22      7       0.1590836       43.57718
2012    23      0       0.2128571       55.61274
2012    23      1       0.2625641       66.1058
2012    23      2       0.2751686       68.75633
2012    23      3       0.2495809       63.82763
2012    23      4       0.2324067       60.18569
2012    23      5       0.2277282       59.04867
2012    23      6       0.2270072       58.87426
2012    23      7       0.2732315       68.50775
2012    24      0       0.328292        79.40587
2012    24      1       0.3905897       91.03733
2012    24      2       0.3463753       83.03827
2012    24      3       0.4428692       99.80011
2012    24      4       0.4844565       106.1319
2012    24      5       0.4768823       105.1998
2012    24      6       0.4680456       104.3834
2012    24      7       0.4374522       98.83958
2012    25      0       0.369135        86.79127
2012    25      1       0.4096099       94.20541
2012    25      2       0.4154164       95.21982
2012    25      3       0.409079        94.43493
2012    25      4       0.3908903       91.86098
2012    25      5       0.3229304       79.16874
2012    25      6       0.2044888       54.70514
2012    25      7       0.1606218       44.66667
2012    26      0       0.151922        42.64248
2012    26      1       0.1383929       39.46406
2012    26      2       0.1187123       34.53909
2012    26      3       0.1154643       33.6856
2012    26      4       0.1206403       35.0232
2012    26      5       0.1240371       35.91991
2012    26      6       0.1123942       33.17338
2012    26      7       0.162286        45.06503
2012    27      0       0.1566196       43.72175
2012    27      1       0.1988362       53.29038
2012    27      2       0.2022134       53.95468
2012    27      3       0.180968        49.23577
2012    27      4       0.1973709       53.0124
2012    27      5       0.2713301       68.8762
2012    27      6       0.3180128       77.94033
2012    27      7       0.2977293       73.67259
2012    28      0       0.3776497       88.86959
2012    28      1       0.4809374       106.7311
2012    28      2       0.4739974       105.5401
2012    28      3       0.4281983       98.07754
2012    28      4       0.4382371       100.037
2012    28      5       0.4463438       101.4891
2012    28      6       0.4267608       97.90549
2012    28      7       0.4051124       93.79805
2012    29      0       0.3833583       89.73376
2012    29      1       0.3894316       90.54639
2012    29      2       0.4032058       92.74498
2012    29      3       0.3954484       91.46625
2012    29      4       0.3757786       88.01088
2012    29      5       0.3075475       75.27064
2012    29      6       0.2165383       56.69525
2012    29      7       0.1945333       51.91966
2012    30      0       0.1959317       52.27378
2012    30      1       0.2186749       57.31803
2012    30      2       0.2567279       65.443
2012    30      3       0.274518        69.11471
2012    30      4       0.2941474       73.05821
2012    30      5       0.3481957       83.50482
2012    30      6       0.3440734       82.96306
2012    30      7       0.2779847       70.21903
2013    1       0       0.39164         90.70246
2013    1       1       0.337469        80.75591
2013    1       2       0.2095859       54.72331
2013    1       3       0.1234838       35.14969
2013    1       4       0.1279147       36.39932
2013    1       5       0.1949682       51.18756
2013    1       6       0.3959427       90.4904
2013    1       7       0.3794307       87.37927
2013    2       0       0.4302092       97.03367
2013    2       1       0.4806696       106.361
2013    2       2       0.4232362       96.00302
2013    2       3       0.4936991       109.2541
2013    2       4       0.481576        106.8274
2013    2       5       0.6292707       128.7552
2013    2       6       0.71166         139.5899
2013    2       7       0.7804702       148.102
2013    3       0       0.6157003       126.6857
2013    3       1       0.5106265       110.9263
2013    3       2       0.6668875       133.2331
2013    3       3       0.5403977       114.9323
2013    3       4       0.6748969       132.6121
2013    3       5       0.3441146       81.08745
2013    3       6       0.2509204       62.8053
2013    3       7       0.2308554       58.78306
2013    4       0       0.212211        55.45846
2013    4       1       0.1871029       50.09351
2013    4       2       0.1643298       44.86993
2013    4       3       0.1700572       46.24701
2013    4       4       0.1142588       33.33964
2013    4       5       0.09553726      28.859
2013    4       6       0.1136513       33.17618
2013    4       7       0.1379909       39.07061
2013    5       0       0.2207772       58.13445
2013    5       1       0.2070999       55.07244
2013    5       2       0.2507073       63.97359
2013    5       3       0.2517981       64.25574
2013    5       4       0.2757162       69.20647
2013    5       5       0.2894913       71.57466
2013    5       6       0.2727975       68.55917
2013    5       7       0.2523723       64.54892
2013    6       0       0.2583735       65.47941
2013    6       1       0.299987        73.82074
2013    6       2       0.3067121       75.07947
2013    6       3       0.3040452       74.48497
2013    6       4       0.4108241       92.31179
2013    6       5       0.5077799       108.4682
2013    6       6       0.5727279       118.849
2013    6       7       0.4244615       93.66258
2013    7       0       0.3725976       85.12231
2013    7       1       0.4829431       105.1183
2013    7       2       0.3875364       91.03012
2013    7       3       0.2168026       56.72421
2013    7       4       0.3486359       83.24075
2013    7       5       0.3762062       88.76471
2013    7       6       0.3731604       87.88536
2013    7       7       0.7195146       140.1908
2013    8       0       0.7725634       144.5064
2013    8       1       0.9422012       164.1887
2013    8       2       1.333851        199.9865
2013    8       3       1.211523        191.5531
2013    8       4       0.8120063       153.2563
2013    8       5       0.2811729       69.97034
2013    8       6       0.2766875       68.97609
2013    8       7       0.3201551       76.49994
2013    9       0       0.3415294       80.41787
2013    9       1       0.2844263       69.73808
2013    9       2       0.231267        58.69778
2013    9       3       0.2893433       70.56276
2013    9       4       0.3061644       74.58261
2013    9       5       0.3012674       73.9471
2013    9       6       0.2347812       60.69599
2013    9       7       0.2513723       64.17105
2013    10      0       0.2553162       64.85756
2013    10      1       0.2369434       61.25976
2013    10      2       0.254796        65.12524
2013    10      3       0.2849036       71.04237
2013    10      4       0.3280078       79.14215
2013    10      5       0.3685339       86.11848
2013    10      6       0.3703495       85.87533
2013    10      7       0.3180383       75.8539
2013    11      0       0.2587955       64.37621
2013    11      1       0.3226585       77.66006
2013    11      2       0.2945936       72.77114
2013    11      3       0.2543593       64.62562
2013    11      4       0.2684349       67.24953
2013    11      5       0.2891474       71.17826
2013    11      6       0.2600083       65.15958
2013    11      7       0.2402454       61.12012
2013    12      0       0.2239687       57.77335
2013    12      1       0.1971869       52.15264
2013    12      2       0.1786604       48.16147
2013    12      3       0.1709061       46.51163
2013    12      4       0.175722        47.57987
2013    12      5       0.1948988       51.85867
2013    12      6       0.2303882       59.69255
2013    12      7       0.2582519       65.57112
2013    13      0       0.27797         69.50055
2013    13      1       0.2929542       72.56828
2013    13      2       0.2956505       73.39876
2013    13      3       0.26307         66.98356
2013    13      4       0.2484265       64.07989
2013    13      5       0.2529734       65.18316
2013    13      6       0.2776736       70.37912
2013    13      7       0.305937        75.95196
2013    14      0       0.246672        63.53528
2013    14      1       0.2499482       64.07914
2013    14      2       0.4102944       94.81055
2013    14      3       0.6558285       131.9928
2013    14      4       0.4337763       99.12521
2013    14      5       0.2709619       67.58251
2013    14      6       0.2708624       68.11765
2013    14      7       0.3518826       84.13746
2013    15      0       0.3510276       83.63375
2013    15      1       0.3822766       88.79672
2013    15      2       0.3595627       84.11835
2013    15      3       0.5078976       108.3606
2013    15      4       0.450717        99.25481
2013    15      5       0.4131552       93.15378
2013    15      6       0.4320607       96.30858
2013    15      7       0.4092169       92.80746
2013    16      0       0.71903         139.7171
2013    16      1       0.5723339       119.7881
2013    16      2       0.8642006       157.4843
2013    16      3       0.6196012       126.6034
2013    16      4       0.6565856       131.9133
2013    16      5       0.6825668       135.4101
2013    16      6       0.7863119       148.3351
2013    16      7       0.7370867       142.3808
2013    17      0       0.5819893       121.3609
2013    17      1       0.3992197       91.76767
2013    17      2       0.4126179       94.09566
2013    17      3       0.4247132       96.20285
2013    17      4       0.4448646       99.71529
2013    17      5       0.3405992       80.71775
2013    17      6       0.2414558       60.58914
2013    17      7       0.1892808       49.44724
2013    18      0       0.1409042       38.61927
2013    18      1       0.1146035       32.60717
2013    18      2       0.09519914      28.05667
2013    18      3       0.09126684      27.19853
2013    18      4       0.1101797       31.65618
2013    18      5       0.136877        37.60636
2013    18      6       0.1307547       36.2069
2013    18      7       0.4326307       96.40693
2013    19      0       0.5334987       112.4668
2013    19      1       0.5457328       114.231
2013    19      2       0.4078861       91.8741
2013    19      3       0.5184057       110.1531
2013    19      4       0.5337764       112.6297
2013    19      5       0.5693452       118.3438
2013    19      6       0.724723        139.8642
2013    19      7       0.6040205       123.5472
2013    20      0       0.4864906       105.652
2013    20      1       0.3269278       78.1056
2013    20      2       0.285625        70.3134
2013    20      3       0.5021002       109.3873
2013    20      4       0.461814        102.7701
2013    20      5       0.5375765       115.0836
2013    20      6       0.1849863       49.44838
2013    20      7       0.1937063       51.28587
2013    21      0       0.1957654       51.64277
2013    21      1       0.2108142       55.02191
2013    21      2       0.3426438       81.79973
2013    21      3       0.3637745       85.64899
2013    21      4       0.3634792       85.6317
2013    21      5       0.2243115       58.23736
2013    21      6       0.2412545       61.76731
2013    21      7       0.2212718       57.42743
2013    22      0       0.237617        60.70949
2013    22      1       0.2754198       68.32822
2013    22      2       0.2892816       71.15335
2013    22      3       0.2627276       65.71642
2013    22      4       0.2473051       62.739
2013    22      5       0.2412532       61.59361
2013    22      6       0.2238196       57.75586
2013    22      7       0.203944        53.38404
2013    23      0       0.214019        55.63111
2013    23      1       0.2515843       63.4623
2013    23      2       0.2516869       63.47581
2013    23      3       0.2307869       59.10196
2013    23      4       0.2645263       65.36609
2013    23      5       0.3332266       78.39133
2013    23      6       0.5301978       111.0309
2013    23      7       0.397079        90.49029
2013    24      0       0.3516672       82.46284
2013    24      1       0.3328051       78.66829
2013    24      2       0.3064401       73.90741
2013    24      3       0.2671766       66.72309
2013    24      4       0.2696268       67.17277
2013    24      5       0.2434848       61.68283
2013    24      6       0.2128796       55.50265
2013    24      7       0.1779055       48.13019
2013    25      0       0.1641224       45.04539
2013    25      1       0.1734217       47.15549
2013    25      2       0.2393624       61.62318
2013    25      3       0.2673826       67.63925
2013    25      4       0.2755777       69.52126
2013    25      5       0.2532854       65.01435
2013    25      6       0.1689757       46.66184
2013    25      7       0.1239508       36.13439
2013    26      0       0.1068739       32.0342
2013    26      1       0.1028425       31.05155
2013    26      2       0.1106395       32.92318
2013    26      3       0.1095721       32.69313
2013    26      4       0.09973041      30.28743
2013    26      5       0.1011674       30.64927
2013    26      6       0.1103549       32.93345
2013    26      7       0.1024036       30.99824
2013    27      0       0.09728914      29.69665
2013    27      1       0.09876795      30.03372
2013    27      2       0.1099623       32.78863
2013    27      3       0.1180749       34.7869
2013    27      4       0.1440311       41.03413
2013    27      5       0.1425136       40.5789
2013    27      6       0.09554647      29.04376
2013    27      7       0.08788809      27.10304
2013    28      0       0.08807256      26.98686
2013    28      1       0.1065132       31.07535
2013    28      2       0.1187619       33.81655
2013    28      3       0.107652        31.31995
2013    28      4       0.1268926       35.94141
2013    28      5       0.1312665       36.89228
2013    28      6       0.1237779       34.98637
2013    28      7       0.1223362       34.68854
2013    29      0       0.1223347       34.67256
2013    29      1       0.1212335       34.29985
2013    29      2       0.1145955       32.80423
2013    29      3       0.1157959       33.26425
2013    29      4       0.1291535       36.67696
2013    29      5       0.1396389       39.36023
2013    29      6       0.1352283       38.30097
2013    29      7       0.1233057       35.39101
2013    30      0       0.11257         32.77248
2013    30      1       0.1107136       32.33626
2013    30      2       0.1183154       34.20761
2013    30      3       0.1393705       39.27216
2013    30      4       0.1888292       50.75887
2013    30      5       0.2481291       63.94962
2013    30      6       0.2887562       72.76958
2013    30      7       0.3599689       87.06141
2014    1       0       0.2282031       57.03192
2014    1       1       0.1907879       49.09307
2014    1       2       0.1560243       41.65919
2014    1       3       0.1194082       33.76907
2014    1       4       0.1002029       29.64514
2014    1       5       0.09688161      29.05937
2014    1       6       0.08964563      27.28526
2014    1       7       0.0958662       28.80859
2014    2       0       0.1122958       32.80006
2014    2       1       0.1319935       37.48384
2014    2       2       0.1671574       45.57366
2014    2       3       0.2034075       53.57529
2014    2       4       0.258158        65.11584
2014    2       5       0.2855375       70.68039
2014    2       6       0.2327683       59.80875
2014    2       7       0.1827965       49.19738
2014    3       0       0.164029        44.99317
2014    3       1       0.1314878       37.31342
2014    3       2       0.1023495       30.05899
2014    3       3       0.10657         30.9223
2014    3       4       0.1184699       33.799
2014    3       5       0.1366576       37.91124
2014    3       6       0.1758132       46.23609
2014    3       7       0.1809115       47.49354
2014    4       0       0.1498615       41.16164
2014    4       1       0.1378336       38.39173
2014    4       2       0.1243105       34.8954
2014    4       3       0.09524752      28.16598
2014    4       4       0.1042364       30.53113
2014    4       5       0.157841        43.47523
2014    4       6       0.2212056       57.44526
2014    4       7       0.2605601       65.40963
2014    5       0       0.2743681       67.85402
2014    5       1       0.2750197       67.20815
2014    5       2       0.3108808       73.382
2014    5       3       0.3690344       83.86737
2014    5       4       0.4167337       92.47961
2014    5       5       0.4686976       101.1435
2014    5       6       0.6354719       127.1926
2014    5       7       0.3837844       88.75908
2014    6       0       0.3083382       74.84404
2014    6       1       0.2344016       60.28443
2014    6       2       0.2740055       68.06666
2014    6       3       0.3309321       78.27888
2014    6       4       0.3853428       88.41673
2014    6       5       0.4562024       100.7164
2014    6       6       0.454383        100.7556
2014    6       7       0.5011705       108.1714
2014    7       0       0.5144422       109.6607
2014    7       1       0.7023188       135.7337
2014    7       2       1.374936        201.4538
2014    7       3       0.908871        161.4491
2014    7       4       1.037391        175.7615
2014    7       5       0.8084967       151.4353
2014    7       6       0.7520163       144.046
2014    7       7       0.9820537       169.8554
2014    8       0       0.984037        169.2025
2014    8       1       0.7496128       142.745
2014    8       2       0.7339026       141.8564
2014    8       3       0.6247465       127.7581
2014    8       4       0.4666233       103.4423
2014    8       5       0.4554539       101.2111
2014    8       6       0.3962954       90.94838
2014    8       7       0.3568594       83.75581
2014    9       0       0.3719421       86.41147
2014    9       1       0.4038062       92.26822
2014    9       2       0.3821114       88.63327
2014    9       3       0.3731317       86.97774
2014    9       4       0.3773471       87.74516
2014    9       5       0.3174511       77.00418
2014    9       6       0.2959476       72.99615
2014    9       7       0.3172172       76.82001
2014    10      0       0.2854169       70.093
2014    10      1       0.2493579       62.93876
2014    10      2       0.457448        101.1068
2014    10      3       0.4710354       104.1834
2014    10      4       0.4283719       97.30239
2014    10      5       0.3047492       74.72513
2014    10      6       0.2740487       68.6449
2014    10      7       0.1966197       52.14073
2014    11      0       0.1841851       49.24669
2014    11      1       0.1584319       42.98404
2014    11      2       0.130352        36.38393
2014    11      3       0.08968853      27.22056
2014    11      4       0.1314553       37.3277
2014    11      5       0.1761358       47.56744
2014    11      6       0.163029        44.26977
2014    11      7       0.1853685       49.06923
2014    12      0       0.3361757       80.10978
2014    12      1       0.3220914       77.42903
2014    12      2       0.4673403       103.5277
2014    12      3       0.6507107       131.2242
2014    12      4       0.8477677       155.5907
2014    12      5       0.9087985       162.1777
2014    12      6       0.6643401       132.6165
2014    12      7       0.5192658       111.0783
2014    13      0       0.405273        92.24467
2014    13      1       0.2840954       69.47601
2014    13      2       0.274842        67.43184
2014    13      3       0.3408004       79.92585
2014    13      4       0.4469861       98.84613
2014    13      5       0.5187889       110.2337
2014    13      6       0.6023844       122.6481
2014    13      7       0.5407313       114.0061
2014    14      0       0.8098387       149.4507
2014    14      1       0.8801096       157.9785
2014    14      2       0.9078695       162.5904
2014    14      3       1.303526        198.0635
2014    14      4       1.14954         185.6399
2014    14      5       1.168702        187.2831
2014    14      6       0.7547094       144.7797
2014    14      7       0.5734796       119.9753
2014    15      0       0.4981802       108.5755
2014    15      1       0.4632224       103.1378
2014    15      2       0.5446286       116.536
2014    15      3       0.3945297       91.76627
2014    15      4       0.3349954       80.88524
2014    15      5       0.3038624       74.94538
2014    15      6       0.2143624       56.46436
2014    15      7       0.1301283       37.25963
2014    16      0       0.1313219       37.2924
2014    16      1       0.145833        40.38825
2014    16      2       0.1606529       43.94139
2014    16      3       0.2313683       59.30225
2014    16      4       0.3533755       83.52944
2014    16      5       0.4647871       103.4705
2014    16      6       0.3995406       92.03701
2014    16      7       0.3837948       89.60784
2014    17      0       0.4585082       102.6135
2014    17      1       0.5251015       112.9438
2014    17      2       0.9515746       166.1663
2014    17      3       1.336839        199.3735
2014    17      4       0.784165        148.2317
2014    17      5       0.7423611       143.8139
2014    17      6       0.3032903       73.44319
2014    17      7       0.3930891       88.8506
2014    18      0       0.4996659       107.0333
2014    18      1       0.4620978       101.3928
2014    18      2       0.630497        126.9029
2014    18      3       0.4865591       104.7943
2014    18      4       0.4732402       102.6571
2014    18      5       0.3870127       88.50423
2014    18      6       0.3532994       82.51719
2014    18      7       0.435089        96.81396
2014    19      0       0.621209        125.3774
2014    19      1       0.5333192       112.6926
2014    19      2       0.4450551       98.75441
2014    19      3       0.1489768       40.53941
2014    19      4       0.1504851       41.44852
2014    19      5       0.2105773       54.67616
2014    19      6       0.2288259       58.62915
2014    19      7       0.2387859       60.96477
2014    20      0       0.256668        64.33081
2014    20      1       0.2132834       55.05199
2014    20      2       0.2097123       54.6773
2014    20      3       0.3794238       88.77294
2014    20      4       0.3958947       91.96962
2014    20      5       0.3655538       85.8042
2014    20      6       0.4698615       104.7746
2014    20      7       0.64736         131.9887
2014    21      0       0.6008022       124.8309
2014    21      1       0.6573133       133.0363
2014    21      2       0.7343483       143.5941
2014    21      3       0.7011232       137.7515
2014    21      4       0.7525465       144.2773
2014    21      5       0.8113013       151.9371
2014    21      6       0.6919829       138.3712
2014    21      7       0.6933591       137.4535
2014    22      0       0.8246018       154.7605
2014    22      1       0.8530023       157.1474
2014    22      2       0.6677346       135.4234
2014    22      3       0.6373756       131.1617
2014    22      4       0.6084368       126.4499
2014    22      5       0.5429189       116.6236
2014    22      6       0.5402048       115.9967
2014    22      7       0.4991474       110.0494
2014    23      0       0.4744043       106.1555
2014    23      1       0.4742384       106.1801
2014    23      2       0.6543419       132.9049
2014    23      3       0.6725246       136.3806
2014    23      4       0.6337129       131.1861
2014    23      5       0.5209247       113.3095
2014    23      6       0.5970285       125.5022
2014    23      7       0.5530409       119.674
2014    24      0       0.5247955       115.6336
2014    24      1       0.3939809       93.39735
2014    24      2       0.2161442       57.49068
2014    24      3       0.1720486       47.39051
2014    24      4       0.1966959       52.70043
2014    24      5       0.2420925       62.94236
2014    24      6       0.2634809       67.29721
2014    24      7       0.2513159       64.68561
2014    25      0       0.237434        62.00222
2014    25      1       0.1574174       44.18368
2014    25      2       0.1200647       35.2688
2014    25      3       0.1144673       33.66453
2014    25      4       0.1291434       36.79662
2014    25      5       0.168485        46.09668
2014    25      6       0.1900596       50.99173
2014    25      7       0.2010041       53.50867
2014    26      0       0.2406764       62.23806
2014    26      1       0.2764252       69.79856
2014    26      2       0.2830015       71.06087
2014    26      3       0.2663019       67.42863
2014    26      4       0.2961079       73.23156
2014    26      5       0.3046731       74.32818
2014    26      6       0.3199889       77.21209
2014    26      7       0.3410585       80.77678
2014    27      0       0.4617806       100.8296
2014    27      1       0.9017638       162.6519
2014    27      2       0.4571007       101.9325
2014    27      3       0.5500943       116.4623
2014    27      4       0.4753035       104.322
2014    27      5       0.4919193       107.6093
2014    27      6       0.36951         87.07361
2014    27      7       0.3042691       74.63511
2014    28      0       0.3020441       74.03597
2014    28      1       0.3505924       82.94966
2014    28      2       0.3854779       89.69741
2014    28      3       0.4334713       98.22547
2014    28      4       0.5637921       119.0534
2014    28      5       0.5500624       117.1479
2014    28      6       0.3014171       73.59497
2014    28      7       0.1846301       48.80623
2014    29      0       0.1883561       49.63531
2014    29      1       0.2141984       55.14155
2014    29      2       0.2636654       65.79276
2014    29      3       0.2623369       65.76822
2014    29      4       0.3055461       74.37445
2014    29      5       0.3645019       85.44993
2014    29      6       0.4116667       94.47041
2014    29      7       0.4165748       95.41396
2014    30      0       0.4700701       104.2563
2014    30      1       0.4293054       97.60985
2014    30      2       0.3638785       85.82059
2014    30      3       0.4641281       103.8752
2014    30      4       0.5664059       120.6081
2014    30      5       0.25631         65.11495
2014    30      6       0.1933308       51.57095
2014    30      7       0.1850439       49.85022
2015    1       0       0.2276673       59.00664
2015    1       1       0.1959174       52.7952
2015    1       2       0.1927758       52.26118
2015    1       3       0.1919624       51.9989
2015    1       4       0.2085739       55.6825
2015    1       5       0.2066652       55.35625
2015    1       6       0.1623698       45.05773
2015    1       7       0.1455651       40.78591
2015    2       0       0.1727564       47.62209
2015    2       1       0.209255        55.89682
2015    2       2       0.1931115       52.10027
2015    2       3       0.1827416       49.59182
2015    2       4       0.3554627       85.3439
2015    2       5       0.273661        68.98548
2015    2       6       0.2815301       70.35745
2015    2       7       0.3035648       74.57818
2015    3       0       0.3131077       76.98739
2015    3       1       0.3066206       74.47872
2015    3       2       0.2858438       70.21483
2015    3       3       0.3719847       86.75831
2015    3       4       0.4282334       96.83603
2015    3       5       0.2848183       69.87633
2015    3       6       0.2181902       55.98844
2015    3       7       0.2222885       56.95183
2015    4       0       0.230082        58.84582
2015    4       1       0.2284178       58.6871
2015    4       2       0.2293376       58.92344
2015    4       3       0.2072821       54.23791
2015    4       4       0.2339011       59.57722
2015    4       5       0.3335779       79.5017
2015    4       6       0.2675967       66.26373
2015    4       7       0.2121179       54.91949
2015    5       0       0.2400199       60.72998
2015    5       1       0.4914835       108.3471
2015    5       2       0.8321191       155.6809
2015    5       3       0.7379865       144.0204
2015    5       4       0.9207823       165.1678
2015    5       5       0.4001678       91.46048
2015    5       6       0.522327        112.1004
2015    5       7       0.5123115       110.4171
2015    6       0       0.4973319       108.2873
2015    6       1       0.6283843       127.2782
2015    6       2       0.90784         161.4919
2015    6       3       0.6490344       131.3335
2015    6       4       0.6434887       130.3381
2015    6       5       0.5237749       113.2311
2015    6       6       0.3197405       78.50475
2015    6       7       0.2420272       62.21472
2015    7       0       0.07863722      24.93552
2015    7       1       0.06387397      21.02928
2015    7       2       0.08730503      26.14565
2015    7       3       0.2170965       54.50212
2015    7       4       0.399441        89.88979
2015    7       5       0.4746274       102.7182
2015    7       6       0.5266403       110.9745
2015    7       7       0.5053927       107.6763
2015    8       0       0.4152443       93.61012
2015    8       1       0.3687875       85.65801
2015    8       2       0.3909545       89.62051
2015    8       3       0.5354607       113.1335
2015    8       4       0.676854        132.3374
2015    8       5       0.6675475       130.1698
2015    8       6       0.5981232       120.2558
2015    8       7       0.6858771       131.4643
2015    9       0       0.5653236       114.9614
2015    9       1       0.5427689       110.3963
2015    9       2       0.661313        126.7226
2015    9       3       0.6373321       124.6803
2015    9       4       0.5878827       117.6294
2015    9       5       0.7713588       141.883
2015    9       6       0.7775183       143.434
2015    9       7       0.8248859       147.5911
2015    10      0       0.3652355       83.45287
2015    10      1       0.1948731       50.49219
2015    10      2       0.2933182       71.43406
2015    10      3       0.2076117       54.19688
2015    10      4       0.1699778       45.95598
2015    10      5       0.3189412       75.89783
2015    10      6       0.1961677       51.17255
2015    10      7       0.05869179      19.39319
2015    11      0       0.1045663       30.46809
2015    11      1       0.1347755       37.44872
2015    11      2       0.1343654       37.42317
2015    11      3       0.1413363       39.12138
2015    11      4       0.1249295       35.39584
2015    11      5       0.1137264       32.72106
2015    11      6       0.1150407       33.1239
2015    11      7       0.1133938       32.76508
2015    12      0       0.09652953      28.77119
2015    12      1       0.1099914       32.02716
2015    12      2       0.1339685       37.64252
2015    12      3       0.1357161       37.98855
2015    12      4       0.1246071       35.32042
2015    12      5       0.1181048       33.63096
2015    12      6       0.1147221       32.58962
2015    12      7       0.1256435       34.94979
2015    13      0       0.1270677       35.60682
2015    13      1       0.128417        35.89804
2015    13      2       0.1217566       34.32934
2015    13      3       0.1337987       37.17806
2015    13      4       0.1513586       41.14264
2015    13      5       0.1574341       42.46188
2015    13      6       0.1590668       42.77677
2015    13      7       0.1644372       43.89129
2015    14      0       0.1614844       43.15944
2015    14      1       0.1736317       45.86104
2015    14      2       0.1957148       50.79299
2015    14      3       0.2086678       53.66945
2015    14      4       0.2252858       57.31695
2015    14      5       0.2083313       53.93991
2015    14      6       0.1611355       43.74714
2015    14      7       0.1499652       41.29549
2015    15      0       0.167494        45.23355
2015    15      1       0.1942259       50.94724
2015    15      2       0.2221018       56.59935
2015    15      3       0.2929157       70.77715
2015    15      4       0.4445256       97.92563
2015    15      5       0.5508929       114.5961
2015    15      6       0.5191306       110.2916
2015    15      7       0.4847246       105.4881
2015    16      0       0.4540564       100.7049
2015    16      1       0.4018515       91.74012
2015    16      2       0.3510117       82.73919
2015    16      3       0.3474827       82.40894
2015    16      4       0.4714109       104.6988
2015    16      5       0.3964325       92.09936
2015    16      6       0.2440826       62.57233
2015    16      7       0.183376        49.44472
2015    17      0       0.1730743       47.24915
2015    17      1       0.1829543       49.54912
2015    17      2       0.2006188       53.52096
2015    17      3       0.2624256       66.79519
2015    17      4       0.3564702       85.48068
2015    17      5       0.3272625       80.04071
2015    17      6       0.2317531       60.49177
2015    17      7       0.2067656       54.86222
2015    18      0       0.2385626       61.29933
2015    18      1       0.2186227       56.7825
2015    18      2       0.2378756       61.04313
2015    18      3       0.3206056       77.79143
2015    18      4       0.2648661       66.65039
2015    18      5       0.3027584       73.83985
2015    18      6       0.2464626       62.97151
2015    18      7       0.1908136       51.2475
2015    19      0       0.1803586       49.05414
2015    19      1       0.1846365       49.82998
2015    19      2       0.3504481       83.65121
2015    19      3       0.3736724       87.25664
2015    19      4       0.6308333       129.3646
2015    19      5       0.7465294       143.603
2015    19      6       0.6479801       131.306
2015    19      7       0.479934        106.6841
2015    20      0       0.4335241       99.09081
2015    20      1       0.5659853       120.5989
2015    20      2       0.4737951       105.6479
2015    20      3       0.3373506       81.47688
2015    20      4       0.314477        77.23506
2015    20      5       0.3629359       86.12092
2015    20      6       0.4582206       102.7464
2015    20      7       0.3292076       79.29725
2015    21      0       0.312883        76.15543
2015    21      1       0.2902943       71.82432
2015    21      2       0.2352962       60.25195
2015    21      3       0.3601428       85.37537
2015    21      4       0.3572033       84.70982
2015    21      5       0.5350259       114.4694
2015    21      6       0.3823861       88.50948
2015    21      7       0.3433288       81.47655
2015    22      0       0.3589261       84.31622
2015    22      1       0.2752805       67.82681
2015    22      2       0.2129087       54.73532
2015    22      3       0.2496584       62.27854
2015    22      4       0.3237557       77.18436
2015    22      5       0.4025379       91.88239
2015    22      6       0.2263102       57.98316
2015    22      7       0.2205328       56.61515
2015    23      0       0.3359441       79.42172
2015    23      1       0.327141        78.03921
2015    23      2       0.2776217       68.45384
2015    23      3       0.2724899       67.54484
2015    23      4       0.2082183       54.26587
2015    23      5       0.1622598       44.3093
2015    23      6       0.1312898       37.14845
2015    23      7       0.1335204       37.39477
2015    24      0       0.1316839       36.88519
2015    24      1       0.1339933       37.26773
2015    24      2       0.1486751       40.73882
2015    24      3       0.1969292       51.35935
2015    24      4       0.2846793       69.36568
2015    24      5       0.2692781       65.9216
2015    24      6       0.3156936       74.83955
2015    24      7       0.4797247       104.0684
2015    25      0       0.5666107       117.3006
2015    25      1       0.5962902       123.292
2015    25      2       0.5923575       122.7979
2015    25      3       0.677078        135.498
2015    25      4       0.6710672       134.8641
2015    25      5       0.6755575       135.9066
2015    25      6       0.4295469       97.92576
2015    25      7       0.3871389       90.61745
2015    26      0       0.3461008       83.15639
2015    26      1       0.3379523       81.18582
2015    26      2       0.2902238       71.61744
2015    26      3       0.2240672       58.15261
2015    26      4       0.2121032       55.87872
2015    26      5       0.247004        62.80229
2015    26      6       0.2542542       64.14731
2015    26      7       0.2695548       67.1622
2015    27      0       0.2967631       72.52183
2015    27      1       0.2967011       72.70426
2015    27      2       0.2432962       61.85524
2015    27      3       0.2167603       56.245
2015    27      4       0.3504805       82.99008
2015    27      5       0.38605         90.11388
2015    27      6       0.4143923       96.72429
2015    27      7       0.4435558       102.3528
2015    28      0       0.3781783       90.03176
2015    28      1       0.3494983       83.71498
2015    28      2       0.3995224       92.93818
2015    28      3       0.372421        88.03742
2015    28      4       0.3778555       89.39525
2015    28      5       0.2957432       73.77902
2015    28      6       0.1824351       48.81455
2015    28      7       0.1823289       47.50774
2015    29      0       0.1584443       42.86282
2015    29      1       0.1654611       44.76452
2015    29      2       0.1306106       37.2924
2015    29      3       0.09122129      28.10403
2015    29      4       0.1254671       36.35805
2015    29      5       0.2164996       57.22156
2015    29      6       0.1746489       47.99645
2015    29      7       0.1471078       41.5835
2015    30      0       0.1686628       46.57607
2015    30      1       0.2009415       53.7538
2015    30      2       0.2711924       68.16695
2015    30      3       0.3162022       77.08839
2015    30      4       0.2942702       72.74988
2015    30      5       0.3148592       76.55823
2015    30      6       0.247931        63.53902
2015    30      7       0.247804        63.78033
2016    1       0       0.1046767       31.41008
2016    1       1       0.1086292       32.3262
2016    1       2       0.1203272       34.88181
2016    1       3       0.1264036       36.11162
2016    1       4       0.1265798       35.9049
2016    1       5       0.1212219       34.76158
2016    1       6       0.1138501       33.04418
2016    1       7       0.1352402       37.72459
2016    2       0       0.1369127       38.233
2016    2       1       0.1217732       34.30229
2016    2       2       0.1646317       44.4201
2016    2       3       0.1646397       44.36197
2016    2       4       0.156313        42.58983
2016    2       5       0.1535485       42.01492
2016    2       6       0.1646266       44.33411
2016    2       7       0.1802119       47.59271
2016    3       0       0.1815813       47.80744
2016    3       1       0.1742085       46.28726
2016    3       2       0.2155701       54.58021
2016    3       3       0.2549008       61.31802
2016    3       4       0.3355138       78.29184
2016    3       5       0.2600734       64.7189
2016    3       6       0.2292905       58.62437
2016    3       7       0.2260732       57.81985
2016    4       0       0.2709256       66.87769
2016    4       1       0.3252529       77.19286
2016    4       2       0.3350977       78.76853
2016    4       3       0.2996676       72.12444
2016    4       4       0.2901843       70.18712
2016    4       5       0.2825486       68.83376
2016    4       6       0.2904551       70.85308
2016    4       7       0.3056931       74.25789
2016    5       0       0.2960366       72.48002
2016    5       1       0.3111466       75.64737
2016    5       2       0.3076731       74.96041
2016    5       3       0.317672        76.79014
2016    5       4       0.2894016       71.25735
2016    5       5       0.2827683       69.88319
2016    5       6       0.2518389       63.72171
2016    5       7       0.2579529       64.89177
2016    6       0       0.258828        65.10716
2016    6       1       0.2654668       66.54085
2016    6       2       0.2465949       62.75756
2016    6       3       0.2181498       56.89232
2016    6       4       0.2242492       58.3381
2016    6       5       0.2296972       59.51746
2016    6       6       0.2481243       63.29354
2016    6       7       0.2807148       69.65628
2016    7       0       0.3042432       73.73911
2016    7       1       0.3819218       87.83018
2016    7       2       0.4336959       97.16327
2016    7       3       0.563427        117.8961
2016    7       4       0.4343828       98.24744
2016    7       5       0.4006703       92.86337
2016    7       6       0.6966796       138.0037
2016    7       7       0.5248468       115.0464
2016    8       0       0.4421947       101.4256
2016    8       1       0.3833923       90.98527
2016    8       2       0.2862404       71.99881
2016    8       3       0.5311618       115.1885
2016    8       4       0.5866024       123.9437
2016    8       5       0.3297295       80.94622
2016    8       6       0.1684891       46.68874
2016    8       7       0.1771297       48.62459
2016    9       0       0.2208138       57.98466
2016    9       1       0.3138872       76.71627
2016    9       2       0.3328566       80.60733
2016    9       3       0.3368249       81.27997
2016    9       4       0.3796241       88.84161
2016    9       5       0.3879835       90.51308
2016    9       6       0.3562297       84.51302
2016    9       7       0.3800799       88.53156
2016    10      0       0.5178081       111.7004
2016    10      1       0.5352045       114.4067
2016    10      2       0.4237604       96.5931
2016    10      3       0.3134824       76.67423
2016    10      4       0.2136221       56.11699
2016    10      5       0.07454307      23.71895
2016    10      6       0.134832        38.32644
2016    10      7       0.4282057       97.00447
2016    11      0       0.5481064       115.3376
2016    11      1       0.5650639       118.4745
2016    11      2       0.4592612       101.5618
2016    11      3       0.5196473       112.0529
2016    11      4       0.4879871       107.2802
2016    11      5       0.3916506       90.84055
2016    11      6       0.3106295       75.76518
2016    11      7       0.3157765       76.85494
2016    12      0       0.342565        82.00734
2016    12      1       0.380933        89.14247
2016    12      2       0.3451288       82.6661
2016    12      3       0.2801761       70.24086
2016    12      4       0.2091417       55.41217
2016    12      5       0.1858643       50.1412
2016    12      6       0.1558251       43.30039
2016    12      7       0.138765        39.46087
2016    13      0       0.1590818       44.08934
2016    13      1       0.1940398       52.02994
2016    13      2       0.1155517       33.60812
2016    13      3       0.1035117       30.63531
2016    13      4       0.1399839       39.34155
2016    13      5       0.2025962       53.01423
2016    13      6       0.2616448       65.47475
2016    13      7       0.3234769       77.8418
2016    14      0       0.4240954       96.92693
2016    14      1       0.433095        99.09539
2016    14      2       0.4450876       101.1215
2016    14      3       0.4107095       94.95682
2016    14      4       0.4428773       100.3938
2016    14      5       0.4709078       105.1775
2016    14      6       0.4196978       96.37463
2016    14      7       0.4008903       92.86603
2016    15      0       0.4079225       93.96243
2016    15      1       0.4295527       97.54172
2016    15      2       0.3016306       74.08255
2016    15      3       0.2717749       68.44121
2016    15      4       0.2452143       63.30142
2016    15      5       0.1716147       47.24935
2016    15      6       0.1502907       42.31523
2016    15      7       0.1621922       44.58941
2016    16      0       0.1502671       41.73978
2016    16      1       0.1546872       43.11087
2016    16      2       0.1711135       46.95101
2016    16      3       0.2195746       57.80707
2016    16      4       0.277552        70.03775
2016    16      5       0.2998831       74.65484
2016    16      6       0.317659        78.20861
2016    16      7       0.2448194       63.29068
2016    17      0       0.2640227       67.35978
2016    17      1       0.2582785       66.15133
2016    17      2       0.2266406       59.30608
2016    17      3       0.2153273       56.63208
2016    17      4       0.2375284       61.26362
2016    17      5       0.272464        68.63295
2016    17      6       0.2495352       64.00009
2016    17      7       0.2324643       60.60659
2016    18      0       0.2119457       56.30046
2016    18      1       0.1787305       48.97646
2016    18      2       0.1706309       47.19561
2016    18      3       0.1702448       47.11023
2016    18      4       0.1902904       51.68054
2016    18      5       0.1945581       52.63335
2016    18      6       0.1480877       41.82029
2016    18      7       0.1081345       32.19672
2016    19      0       0.09194005      28.06498
2016    19      1       0.09967738      29.79499
2016    19      2       0.119531        34.46762
2016    19      3       0.1543313       42.38954
2016    19      4       0.1950104       51.44624
2016    19      5       0.205804        54.08386
2016    19      6       0.1976921       52.38964
2016    19      7       0.2081582       54.97133
2016    20      0       0.3190733       78.53733
2016    20      1       0.478959        106.7616
2016    20      2       0.5918816       123.3272
2016    20      3       0.4405584       99.78727
2016    20      4       0.5190108       111.5197
2016    20      5       0.5111303       110.0761
2016    20      6       0.4412397       99.1784
2016    20      7       0.4159486       94.8412
2016    21      0       0.3552023       84.97945
2016    21      1       0.3129629       77.62605
2016    21      2       0.2425612       63.31974
2016    21      3       0.1975506       53.51511
2016    21      4       0.1421583       40.77205
2016    21      5       0.08500213      26.67546
2016    21      6       0.06790917      22.14971
2016    21      7       0.07254121      23.12893
2016    22      0       0.09087907      27.35693
2016    22      1       0.1305228       36.14714
2016    22      2       0.1563539       42.06728
2016    22      3       0.143583        39.45937
2016    22      4       0.1422115       39.35173
2016    22      5       0.140711        39.29745
2016    22      6       0.1759425       47.14332
2016    22      7       0.253428        63.36796
2016    23      0       0.338583        79.31316
2016    23      1       0.951307        168.0396
2016    23      2       0.7226797       143.2094
2016    23      3       0.6191427       128.2808
2016    23      4       0.4185653       95.20685
2016    23      5       0.4213869       95.64057
2016    23      6       0.5620388       119.31
2016    23      7       0.7210313       143.3429
2016    24      0       0.5234354       114.5951
2016    24      1       0.4128074       95.91321
2016    24      2       0.4238535       97.93622
2016    24      3       0.3251957       79.58951
2016    24      4       0.3262333       79.73301
2016    24      5       0.4960436       110.4261
2016    24      6       0.716445        141.9678
2016    24      7       0.7742941       149.2748
2016    25      0       0.5784416       122.1239
2016    25      1       0.5170873       112.761
2016    25      2       0.4761072       105.6058
2016    25      3       0.5499846       116.9438
2016    25      4       0.6312696       129.4556
2016    25      5       0.6598347       134.0713
2016    25      6       0.694629        139.043
2016    25      7       0.6975016       139.5391
2016    26      0       0.4071565       94.95121
2016    26      1       0.06399935      21.17916
2016    26      2       0.05722815      19.37052
2016    26      3       0.07280087      23.34436
2016    26      4       0.09679577      29.32608
2016    26      5       0.1200154       34.98635
2016    26      6       0.1209582       35.23376
2016    26      7       0.1134623       33.4465
2016    27      0       0.1149219       33.7978
2016    27      1       0.1202926       34.96698
2016    27      2       0.1211575       35.0288
2016    27      3       0.1102113       32.3912
2016    27      4       0.121757        34.80286
2016    27      5       0.1481659       40.74157
2016    27      6       0.1591734       43.08667
2016    27      7       0.1649456       44.20064
2016    28      0       0.2299269       58.77793
2016    28      1       0.5062711       110.7099
2016    28      2       0.5736398       121.2102
2016    28      3       0.5635367       119.9557
2016    28      4       0.4916492       108.7482
2016    28      5       0.4073946       94.0785
2016    28      6       0.4675418       103.9068
2016    28      7       0.4630519       103.581
2016    29      0       0.500132        109.9439
2016    29      1       0.4958463       109.0134
2016    29      2       0.5652686       119.5285
2016    29      3       0.5932409       123.8242
2016    29      4       0.7294217       142.4114
2016    29      5       0.7274711       142.8166
2016    29      6       0.6398788       131.3063
2016    29      7       0.4956247       109.8797
2016    30      0       0.4675998       105.2749
2016    30      1       0.5010384       111.0768
2016    30      2       0.5001699       111.0248
2016    30      3       0.3819878       90.3907
2016    30      4       0.3791116       90.0111
2016    30      5       0.4178049       96.91738
2016    30      6       0.4422393       100.862
2016    30      7       0.411257        95.34355
2017    1       0       0.2096607       54.3134
2017    1       1       0.241493        60.83084
2017    1       2       0.4587466       101.2845
2017    1       3       0.9838684       169.9374
2017    1       4       0.5227523       111.4426
2017    1       5       0.4790651       104.3104
2017    1       6       0.453851        100.1968
2017    1       7       0.3946723       90.06135
2017    2       0       0.3713296       86.20634
2017    2       1       0.3409102       80.87406
2017    2       2       0.3197885       77.02751
2017    2       3       0.2879433       70.99698
2017    2       4       0.3113688       75.47313
2017    2       5       0.2858208       70.52183
2017    2       6       0.1843542       49.00155
2017    2       7       0.1034022       29.96918
2017    3       0       0.1879153       49.39247
2017    3       1       0.2861365       69.98113
2017    3       2       0.309955        74.45133
2017    3       3       0.3673631       85.47972
2017    3       4       0.3736843       86.44213
2017    3       5       0.4553454       100.7285
2017    3       6       0.4116205       93.29171
2017    3       7       0.4258441       95.76908
2017    4       0       0.4852492       105.262
2017    4       1       0.4737129       103.0814
2017    4       2       0.4826331       104.2464
2017    4       3       0.5417578       113.7346
2017    4       4       0.5752301       119.0461
2017    4       5       0.5498129       114.8593
2017    4       6       0.5393117       112.9341
2017    4       7       0.5211828       109.9864
2017    5       0       0.4141226       93.79335
2017    5       1       0.3424092       81.19656
2017    5       2       0.4040601       92.25522
2017    5       3       0.4308597       96.9055
2017    5       4       0.3714041       86.31898
2017    5       5       0.2742713       68.17653
2017    5       6       0.2316071       59.59715
2017    5       7       0.161508        44.15237
2017    6       0       0.1697874       46.09781
2017    6       1       0.1865364       49.54626
2017    6       2       0.2640318       65.43468
2017    6       3       0.4084769       93.11613
2017    6       4       0.4754963       105.274
2017    6       5       0.3606457       85.48609
2017    6       6       0.2021412       53.11187
2017    6       7       0.2087915       54.62096
2017    7       0       0.2099288       54.91982
2017    7       1       0.2064439       54.08756
2017    7       2       0.1681527       45.70499
2017    7       3       0.1605052       43.92523
2017    7       4       0.2026293       53.17212
2017    7       5       0.2286968       58.38872
2017    7       6       0.2396941       60.51946
2017    7       7       0.2812185       69.06468
2017    8       0       0.3746444       85.52532
2017    8       1       0.4150673       93.8967
2017    8       2       0.3475111       82.09288
2017    8       3       0.3213406       77.26027
2017    8       4       0.1870725       49.70469
2017    8       5       0.1372295       38.6379
2017    8       6       0.1227427       35.3499
2017    8       7       0.1143904       33.18432
2017    9       0       0.09240137      27.98123
2017    9       1       0.10053         30.08847
2017    9       2       0.1012423       30.17976
2017    9       3       0.110016        32.06405
2017    9       4       0.1333437       37.3907
2017    9       5       0.1354364       38.01786
2017    9       6       0.1464393       40.47967
2017    9       7       0.1595266       43.47625
2017    10      0       0.2004139       52.47351
2017    10      1       0.2210851       56.75467
2017    10      2       0.295455        71.33217
2017    10      3       0.3214341       76.06986
2017    10      4       0.3054942       73.24183
2017    10      5       0.2761632       67.90241
2017    10      6       0.4214421       94.03727
2017    10      7       0.389155        89.17929
2017    11      0       0.3358187       79.15656
2017    11      1       0.3037657       73.29481
2017    11      2       0.2653539       65.99568
2017    11      3       0.5366086       111.8818
2017    11      4       0.58692         120.4405
2017    11      5       0.7925938       147.6826
2017    11      6       0.797191        148.5588
2017    11      7       0.9085762       160.8614
2017    12      0       0.8040041       148.6788
2017    12      1       0.6609136       129.9466
2017    12      2       0.7134299       137.6824
2017    12      3       0.6297691       127.1144
2017    12      4       0.6668399       132.728
2017    12      5       0.6392939       128.8907
2017    12      6       0.4698664       103.0789
2017    12      7       0.4351004       97.39707
2017    13      0       0.4543032       100.7491
2017    13      1       0.530518        112.8776
2017    13      2       0.5863844       121.2553
2017    13      3       0.9098656       162.3461
2017    13      4       0.7746243       146.7992
2017    13      5       0.5389617       113.9677
2017    13      6       0.4731191       102.6996
2017    13      7       0.3366114       79.45842
2017    14      0       0.277395        68.39229
2017    14      1       0.1728658       46.5726
2017    14      2       0.2343063       59.91951
2017    14      3       0.3723907       86.87498
2017    14      4       0.4797347       105.1187
2017    14      5       0.5027093       108.7247
2017    14      6       0.3641171       85.31799
2017    14      7       0.3171677       76.47605
2017    15      0       0.3324641       79.35995
2017    15      1       0.3260598       78.21504
2017    15      2       0.2987746       73.14766
2017    15      3       0.2761854       68.90642
2017    15      4       0.2999289       73.67611
2017    15      5       0.2884494       71.50152
2017    15      6       0.1966026       52.24041
2017    15      7       0.1813536       48.98706
2017    16      0       0.1637388       44.89376
2017    16      1       0.1522346       42.05248
2017    16      2       0.1926536       50.86035
2017    16      3       0.2064          53.94478
2017    16      4       0.209393        54.56004
2017    16      5       0.313787        75.99971
2017    16      6       0.4001992       92.00679
2017    16      7       0.4088162       93.33616
2017    17      0       0.4456047       98.94825
2017    17      1       0.561383        117.5962
2017    17      2       0.7799988       145.4674
2017    17      3       0.4197657       95.71559
2017    17      4       0.7178826       138.2975
2017    17      5       0.5766597       120.0074
2017    17      6       0.5188687       111.1861
2017    17      7       0.3143891       76.38218
2017    18      0       0.2435813       62.40107
2017    18      1       0.2492552       63.38368
2017    18      2       0.197175        52.04287
2017    18      3       0.1332935       37.73797
2017    18      4       0.1508398       41.65755
2017    18      5       0.1692503       45.77497
2017    18      6       0.1897714       50.03461
2017    18      7       0.1831542       49.07177
2017    19      0       0.1978032       52.3161
2017    19      1       0.186919        49.8972
2017    19      2       0.3045677       74.75842
2017    19      3       0.3880982       90.21734
2017    19      4       0.2932787       71.94185
2017    19      5       0.3770989       87.94828
2017    19      6       0.4978715       109.0874
2017    19      7       0.4739205       105.3086
2017    20      0       0.5959812       124.4873
2017    20      1       0.4636651       103.1248
2017    20      2       0.5694381       119.8676
2017    20      3       0.764386        146.3685
2017    20      4       0.604645        126.1978
2017    20      5       0.5920993       123.4917
2017    20      6       0.69673         137.2634
2017    20      7       0.5571196       118.6546
2017    21      0       0.568777        120.2603
2017    21      1       0.5507366       118.0029
2017    21      2       0.6643659       133.3745
2017    21      3       0.5702248       120.836
2017    21      4       0.5702741       119.9879
2017    21      5       0.5833215       122.2263
2017    21      6       0.621425        127.8209
2017    21      7       0.596327        124.4775
2017    22      0       0.6244522       129.002
2017    22      1       0.6984044       138.2777
2017    22      2       0.7211881       139.4711
2017    22      3       0.7344464       140.7752
2017    22      4       0.8102425       148.8617
2017    22      5       0.4501407       99.23549
2017    22      6       0.6702514       131.2007
2017    22      7       0.3912796       88.89547
2017    23      0       0.2085842       54.12384
2017    23      1       0.1534986       42.13853
2017    23      2       0.1427522       39.80323
2017    23      3       0.1578359       43.16231
2017    23      4       0.1905384       50.5331
2017    23      5       0.2096612       54.87049
2017    23      6       0.1634477       44.84758
2017    23      7       0.1536948       42.73592
2017    24      0       0.1767106       48.01987
2017    24      1       0.1575432       43.69229
2017    24      2       0.1590975       43.95123
2017    24      3       0.1564874       43.3676
2017    24      4       0.1575075       43.62655
2017    24      5       0.160542        44.32971
2017    24      6       0.1500626       41.92731
2017    24      7       0.1440984       40.50746
2017    25      0       0.1578733       43.44407
2017    25      1       0.1648382       44.86556
2017    25      2       0.1562828       42.93593
2017    25      3       0.156167        42.8566
2017    25      4       0.1519904       42.10089
2017    25      5       0.1736246       47.08515
2017    25      6       0.1542976       42.63277
2017    25      7       0.162333        44.31977
2017    26      0       0.1791523       47.79334
2017    26      1       0.2338904       59.30447
2017    26      2       0.2482849       62.19636
2017    26      3       0.2284799       58.17638
2017    26      4       0.2160074       55.99321
2017    26      5       0.1806835       48.66478
2017    26      6       0.1117439       32.74065
2017    26      7       0.07154403      22.96379
2017    27      0       0.07121032      22.89636
2017    27      1       0.07540292      23.99689
2017    27      2       0.06978222      22.60837
2017    27      3       0.0630224       20.87611
2017    27      4       0.07033286      22.63772
2017    27      5       0.07581416      23.99197
2017    27      6       0.07848791      24.60488
2017    27      7       0.0812466       25.30262
2017    28      0       0.08975704      27.46577
2017    28      1       0.09470109      28.76464
2017    28      2       0.1023242       30.75057
2017    28      3       0.1150669       33.93882
2017    28      4       0.144117        40.93964
2017    28      5       0.1854181       50.41185
2017    28      6       0.1559982       43.65982
2017    28      7       0.1389034       39.60598
2017    29      0       0.120951        35.21077
2017    29      1       0.1260028       36.35052
2017    29      2       0.158766        43.52445
2017    29      3       0.187427        50.09907
2017    29      4       0.2418794       61.93462
2017    29      5       0.3257807       78.14724
2017    29      6       0.4582603       102.4761
2017    29      7       0.52831         114.2403
2017    30      0       0.8811119       160.2571
2017    30      1       0.5644262       119.9672
2017    30      2       0.4300599       99.02417
2017    30      3       0.4170734       96.72457
2017    30      4       0.4601067       103.6094
2017    30      5       0.3852485       90.72115
2017    30      6       0.4397707       100.0336
2017    30      7       0.4516736       101.8125
2018    1       0       0.1977305       52.48556
2018    1       1       0.2112889       55.75397
2018    1       2       0.2821371       70.55707
2018    1       3       0.3148661       77.30996
2018    1       4       0.361502        86.26405
2018    1       5       0.3250313       79.3106
2018    1       6       0.3057106       75.47147
2018    1       7       0.2855959       71.35099
2018    2       0       0.09860915      29.44482
2018    2       1       0.0642555       20.9913
2018    2       2       0.06692858      21.47018
2018    2       3       0.08636879      26.30343
2018    2       4       0.1127935       32.59127
2018    2       5       0.1096927       31.67522
2018    2       6       0.1104004       31.96879
2018    2       7       0.102791        29.98291
2018    3       0       0.1174852       33.62877
2018    3       1       0.1489595       41.22501
2018    3       2       0.1474666       40.93848
2018    3       3       0.1231679       35.41774
2018    3       4       0.1197297       34.71639
2018    3       5       0.1166263       34.00349
2018    3       6       0.1208591       35.0679
2018    3       7       0.1695145       46.62017
2018    4       0       0.1236241       35.61101
2018    4       1       0.1301865       37.26308
2018    4       2       0.1450214       40.58644
2018    4       3       0.1570011       43.18107
2018    4       4       0.1901513       50.43556
2018    4       5       0.2192391       56.67578
2018    4       6       0.1937045       51.25969
2018    4       7       0.1651466       45.05576
2018    5       0       0.1717653       46.60321
2018    5       1       0.190721        50.79412
2018    5       2       0.1984613       52.57971
2018    5       3       0.1942874       51.83294
2018    5       4       0.2143515       56.38298
2018    5       5       0.2505165       63.99421
2018    5       6       0.2512945       63.90549
2018    5       7       0.2740016       67.97074
2018    6       0       0.2998404       72.8621
2018    6       1       0.6350609       129.7511
2018    6       2       0.4143355       95.59334
2018    6       3       0.234648        60.82803
2018    6       4       0.3066067       75.43461
2018    6       5       0.3508687       83.38203
2018    6       6       0.3797322       88.32109
2018    6       7       0.4152062       93.93521
2018    7       0       0.5079308       108.4986
2018    7       1       0.670878        132.0325
2018    7       2       0.726628        139.3147
2018    7       3       0.7595605       141.6331
2018    7       4       0.6352934       124.7785
2018    7       5       0.6083036       124.9863
2018    7       6       0.4426443       98.74488
2018    7       7       0.3830491       88.56862
2018    8       0       0.3561736       83.83875
2018    8       1       0.364678        85.37608
2018    8       2       0.2412407       61.02301
2018    8       3       0.4168603       94.51449
2018    8       4       0.4218421       95.9816
2018    8       5       0.3667444       86.27382
2018    8       6       0.2447213       62.00714
2018    8       7       0.3550301       84.0337
2018    9       0       0.4143236       95.41922
2018    9       1       0.3622976       86.32773
2018    9       2       0.323785        79.0467
2018    9       3       0.2585688       65.96694
2018    9       4       0.2393412       61.8503
2018    9       5       0.3034943       74.49185
2018    9       6       0.4267406       97.24009
2018    9       7       0.3423257       82.25104
2018    10      0       0.2537828       64.83556
2018    10      1       0.2887602       72.65689
2018    10      2       0.4073407       95.55591
2018    10      3       0.3813554       90.8934
2018    10      4       0.3481045       84.60698
2018    10      5       0.3283242       80.73233
2018    10      6       0.2703731       68.71282
2018    10      7       0.2944203       72.63853
2018    11      0       0.337176        80.11059
2018    11      1       0.3574223       83.6486
2018    11      2       0.3677256       85.48301
2018    11      3       0.4655504       102.2025
2018    11      4       0.4636384       102.6771
2018    11      5       0.4316027       97.85494
2018    11      6       0.4782485       106.0334
2018    11      7       0.3693205       86.92829
2018    12      0       0.4361171       98.83163
2018    12      1       0.530329        114.7693
2018    12      2       0.577613        121.3824
2018    12      3       0.620407        127.9806
2018    12      4       0.6061583       127.5774
2018    12      5       0.4591122       105.334
2018    12      6       0.49475         110.4533
2018    12      7       0.480616        107.5708
2018    13      0       0.4640463       105.1414
2018    13      1       0.3892008       92.20869
2018    13      2       0.4228081       98.14744
2018    13      3       0.460931        104.7607
2018    13      4       0.4361995       100.8869
2018    13      5       0.2998672       75.13923
2018    13      6       0.3076229       76.45391
2018    13      7       0.2574152       66.35639
2018    14      0       0.2054344       55.27651
2018    14      1       0.3079422       75.74352
2018    14      2       0.3856621       90.90067
2018    14      3       0.5789624       122.2479
2018    14      4       0.7398649       144.2139
2018    14      5       0.6147641       128.5412
2018    14      6       0.6151941       129.1417
2018    14      7       0.5230174       115.1133
2018    15      0       0.5130379       112.4752
2018    15      1       0.489785        108.6912
2018    15      2       0.5268692       114.8428
2018    15      3       0.5254601       114.7325
2018    15      4       0.5259265       114.7397
2018    15      5       0.6806057       136.652
2018    15      6       0.6060082       126.2427
2018    15      7       0.5613335       119.4676
2018    16      0       0.5478804       118.0144
2018    16      1       0.648797        131.8197
2018    16      2       0.5976737       125.1403
2018    16      3       0.6502854       131.2943
2018    16      4       0.6285087       130.1238
2018    16      5       0.4393257       101.4777
2018    16      6       0.337828        82.35997
2018    16      7       0.2436094       63.28592
2018    17      0       0.2176431       57.64384
2018    17      1       0.1600387       44.647
2018    17      2       0.181206        49.62728
2018    17      3       0.2112926       56.31188
2018    17      4       0.2365075       61.68673
2018    17      5       0.2336635       60.9771
2018    17      6       0.1985098       53.21253
2018    17      7       0.1866096       50.51907
2018    18      0       0.1929328       51.70518
2018    18      1       0.1971133       52.64062
2018    18      2       0.1851991       50.01108
2018    18      3       0.1669576       45.99619
2018    18      4       0.1752832       47.9837
2018    18      5       0.2071153       55.19859
2018    18      6       0.2229719       58.54722
2018    18      7       0.2757465       68.85693
2018    19      0       0.5191136       113.5703
2018    19      1       0.6086676       126.1896
2018    19      2       0.6523219       132.4445
2018    19      3       0.7090721       140.1377
2018    19      4       0.6333916       130.2394
2018    19      5       0.6256034       128.8416
2018    19      6       0.439425        99.76123
2018    19      7       0.3291753       79.90955
2018    20      0       0.3267612       79.40092
2018    20      1       0.3372911       81.49993
2018    20      2       0.2883894       72.10585
2018    20      3       0.2398187       62.10825
2018    20      4       0.3438317       82.97926
2018    20      5       0.4452294       101.4128
2018    20      6       0.4229209       97.62311
2018    20      7       0.4962          109.8046
2018    21      0       0.4796736       106.4166
2018    21      1       0.3754744       87.81994
2018    21      2       0.2499232       63.12762
2018    21      3       0.1722848       47.01342
2018    21      4       0.1371308       38.94428
2018    21      5       0.1034527       30.91029
2018    21      6       0.09570071      29.02492
2018    21      7       0.09332451      28.43604
2018    22      0       0.07679798      24.29089
2018    22      1       0.07095246      22.84293
2018    22      2       0.07036927      22.70038
2018    22      3       0.07129527      22.9324
2018    22      4       0.08262197      25.79041
2018    22      5       0.09420668      28.71742
2018    22      6       0.09218368      28.22662
2018    22      7       0.08759326      26.95383
2018    23      0       0.08354138      25.85721
2018    23      1       0.08867776      26.97031
2018    23      2       0.0902336       27.31694
2018    23      3       0.1011588       29.85598
2018    23      4       0.1876676       49.9634
2018    23      5       0.4886919       107.5487
2018    23      6       0.3717934       87.01323
2018    23      7       0.2401891       60.90462
2018    24      0       0.1932468       50.7857
2018    24      1       0.126672        35.87489
2018    24      2       0.1395215       38.93313
2018    24      3       0.2292809       58.95862
2018    24      4       0.2703225       67.80668
2018    24      5       0.2648277       66.89745
2018    24      6       0.3358403       81.30009
2018    24      7       0.3388886       81.96271
2018    25      0       0.2909558       72.59013
2018    25      1       0.2533156       64.93807
2018    25      2       0.2076727       55.05013
2018    25      3       0.166311        45.73831
2018    25      4       0.1885888       50.82473
2018    25      5       0.219935        57.61983
2018    25      6       0.1960003       52.32934
2018    25      7       0.1706907       46.50706
2018    26      0       0.1642538       44.82719
2018    26      1       0.1731816       46.5268
2018    26      2       0.1765389       47.23992
2018    26      3       0.1876757       49.76289
2018    26      4       0.2887914       71.46747
2018    26      5       0.3451534       83.04589
2018    26      6       0.3070095       75.75219
2018    26      7       0.2269315       59.09743
2018    27      0       0.202352        53.59355
2018    27      1       0.2511603       64.15357
2018    27      2       0.2926549       72.78928
2018    27      3       0.2510525       64.37725
2018    27      4       0.3478234       83.94783
2018    27      5       0.4144989       96.26944
2018    27      6       0.30486         75.50257
2018    27      7       0.2683022       68.0307
2018    28      0       0.242555        62.48592
2018    28      1       0.2683959       67.46043
2018    28      2       0.3372812       80.76921
2018    28      3       0.3069462       75.11926
2018    28      4       0.3140998       76.83778
2018    28      5       0.3586212       85.72225
2018    28      6       0.4071258       94.53331
2018    28      7       0.3912041       91.24399
2018    29      0       0.5202263       113.3703
2018    29      1       0.7775905       148.5812
2018    29      2       0.6422865       131.1023
2018    29      3       0.8458219       156.1658
2018    29      4       0.7134997       141.8732
2018    29      5       0.8857688       162.3382
2018    29      6       0.9355192       167.301
2018    29      7       0.9893497       172.713
2018    30      0       0.9683272       170.137
2018    30      1       0.6787673       136.3835
2018    30      2       0.6422017       131.7683
2018    30      3       0.5508539       118.4528
2018    30      4       0.5247761       114.3941
2018    30      5       0.5740693       121.6895
2018    30      6       0.6774314       136.3616
2018    30      7       0.6835697       137.621
