####################################################################################################
# Month: 02Feb                                                                                     #
# Station: BAN                                                                                     #
# Frequency: 230 GHz                                                                               #
# Columns are: year    day     tau     Tb (K)                                                      #
####################################################################################################
2009    1       0.11807677      31.85215875
2009    2       0.32531489      74.00278625
2009    3       0.30008534      68.89538125
2009    4       0.19147181      48.71591625
2009    5       0.28597972      66.9645925
2009    6       0.20709155      50.9752175
2009    7       0.2333311       56.4094225
2009    8       0.33177611      75.79064625
2009    9       0.30408254      70.109305
2009    10      0.1273411       34.44969375
2009    11      0.08569782      24.8597975
2009    12      0.06759686      20.73386875
2009    13      0.0693015       21.09674
2009    14      0.06929178      21.01844375
2009    15      0.05424444      17.65232
2009    16      0.09158795      26.57631
2009    17      0.18547265      47.489035
2009    18      0.15176212      40.49287125
2009    19      0.20296335      50.29436875
2009    20      0.26518077      63.49729375
2009    21      0.28580938      67.382975
2009    22      0.18335168      46.55743625
2009    23      0.28019474      65.3216525
2009    24      0.09143285      25.89585
2009    25      0.0493207       16.2064925
2009    26      0.04954134      16.51859875
2009    27      0.14060097      37.22274625
2009    28      0.15087388      39.20501375
2010    1       0.22684261      55.55699875
2010    2       0.16989425      43.60755
2010    3       0.16114112      41.691775
2010    4       0.13351919      36.3399
2010    5       0.16640384      43.76281
2010    6       0.16797886      43.97732625
2010    7       0.12747834      35.32429
2010    8       0.16858535      44.28989375
2010    9       0.20488758      51.373475
2010    10      0.13225575      35.10329125
2010    11      0.15899075      41.22794125
2010    12      0.25391992      61.29108625
2010    13      0.2177555       54.44735125
2010    14      0.25622614      61.6072875
2010    15      0.14988678      39.33211125
2010    16      0.07695436      23.43733625
2010    17      0.25972311      61.95977375
2010    18      0.14569462      38.73298125
2010    19      0.21522286      53.93804625
2010    20      0.22815216      57.07511375
2010    21      0.11633772      32.98357
2010    22      0.13103818      36.09089625
2010    23      0.11165502      31.71932625
2010    24      0.16513091      43.1679525
2010    25      0.22940201      55.9364975
2010    26      0.1933593       48.8478375
2010    27      0.34379835      77.68765875
2010    28      0.26447914      62.2098025
2011    1       0.14701311      38.16774625
2011    2       0.31768856      74.71060625
2011    3       0.2273677       54.8931275
2011    4       0.31982866      73.8409475
2011    5       0.30654895      70.4689775
2011    6       0.09986648      28.0906325
2011    7       0.09257473      26.28866375
2011    8       0.04176391      14.5744175
2011    9       0.15143491      38.22610125
2011    10      0.24409869      58.9886225
2011    11      0.29997186      69.410485
2011    12      0.26014139      62.481845
2011    13      0.15875069      41.3926525
2011    14      0.25593711      61.15863875
2011    15      0.408223        88.44943
2011    16      0.16886536      43.0055275
2011    17      0.19990555      49.30154375
2011    18      0.09292251      25.91440625
2011    19      0.04890308      16.317695
2011    20      0.15264137      40.04195375
2011    21      0.19737045      49.08697
2011    22      0.0853338       24.40532
2011    23      0.06594941      19.8367625
2011    24      0.05462731      17.3016125
2011    25      0.12849651      33.87747375
2011    26      0.3246711       73.17480625
2011    27      0.12002481      32.05823125
2011    28      0.07837327      22.719995
2012    1       0.16688041      42.62816
2012    2       0.19955554      48.68285875
2012    3       0.23661768      58.1464475
2012    4       0.2590037       63.422195
2012    5       0.17370525      45.82486875
2012    6       0.04737757      16.30342
2012    7       0.04279135      15.31161125
2012    8       0.06913573      21.3965675
2012    9       0.13260689      36.30116625
2012    10      0.06969342      21.8634625
2012    11      0.04278123      15.29976
2012    12      0.1800971       47.71932125
2012    13      0.26451716      62.41447875
2012    14      0.10439123      29.55542375
2012    15      0.14276812      38.0637275
2012    16      0.12285787      33.69681875
2012    17      0.16314819      41.2025875
2012    18      0.1205163       33.0558575
2012    19      0.2175884       53.46341125
2012    20      0.12469525      33.6923025
2012    21      0.25138492      59.05620375
2012    22      0.14656884      38.69811
2012    23      0.16834668      42.8301475
2012    24      0.11061458      30.35751875
2012    25      0.21618612      52.16874625
2012    26      0.11456212      30.97066375
2012    27      0.12649326      33.7699575
2012    28      0.19101791      48.03702375
2012    29      0.13236399      35.55467875
2013    1       0.29286054      68.52851875
2013    2       0.23774059      56.7991475
2013    3       0.24286672      58.85122875
2013    4       0.19979294      49.35915
2013    5       0.09770591      27.8702375
2013    6       0.25187828      60.205615
2013    7       0.14639467      38.82828125
2013    8       0.19306221      48.7432525
2013    9       0.24084606      57.5218125
2013    10      0.18478018      47.2551675
2013    11      0.17903415      45.86819125
2013    12      0.25825004      61.52304625
2013    13      0.2515902       58.90849125
2013    14      0.09653529      27.3581875
2013    15      0.32200297      73.810575
2013    16      0.23426796      57.5026175
2013    17      0.17386122      43.54240125
2013    18      0.15457192      40.20249875
2013    19      0.27835806      64.9005625
2013    20      0.1460657       38.40149875
2013    21      0.21547891      52.6912
2013    22      0.21242002      52.16797875
2013    23      0.1955249       49.1062325
2013    24      0.20982634      51.62855
2013    25      0.1374288       36.42380125
2013    26      0.11766661      31.97721375
2013    27      0.1742698       44.26857375
2013    28      0.13640875      36.22481875
2014    1       0.12049672      32.257715
2014    2       0.10178445      28.09208625
2014    3       0.08007996      23.35690125
2014    4       0.05902786      18.47494875
2014    5       0.05086427      16.76488375
2014    6       0.05295051      17.27507625
2014    7       0.08475956      24.8645175
2014    8       0.06570277      20.10522875
2014    9       0.06793403      20.5976425
2014    10      0.08899856      25.46103125
2014    11      0.21643126      52.5695225
2014    12      0.23895269      57.06755
2014    13      0.14736512      38.344505
2014    14      0.1765803       44.3872725
2014    15      0.19566729      48.76040875
2014    16      0.25474255      60.39869875
2014    17      0.18171041      45.8367075
2014    18      0.133621        35.817675
2014    19      0.18847812      46.73245
2014    20      0.1527524       39.56906125
2014    21      0.1564484       39.82924
2014    22      0.07922691      23.0845875
2014    23      0.06208344      19.21190125
2014    24      0.05198055      17.033125
2014    25      0.08276168      24.74451625
2014    26      0.08394146      25.642785
2014    27      0.11073339      31.1818875
2014    28      0.03905613      13.91536625
2015    1       0.07335265      22.13937375
2015    2       0.13043852      34.40051375
2015    3       0.04800102      16.135415
2015    4       0.12684648      34.24191625
2015    5       0.22638952      54.53671625
2015    6       0.489752        102.85926875
2015    7       0.38962972      87.309905
2015    8       0.22491754      54.58724625
2015    9       0.39671475      87.698605
2015    10      0.16985535      43.9117225
2015    11      0.1738894       44.47816875
2015    12      0.40489914      89.769725
2015    13      0.37392476      83.82126
2015    14      0.26815542      61.36263
2015    15      0.1873963       47.45080875
2015    16      0.18120515      46.32147375
2015    17      0.31834306      71.87769625
2015    18      0.33584976      77.945435
2015    19      0.32391824      74.31169875
2015    20      0.2990187       69.3464425
2015    21      0.11078844      30.4833225
2015    22      0.19354075      47.66082375
2015    23      0.38284644      86.45578375
2015    24      0.2267827       55.56647625
2015    25      0.19685005      49.0708025
2015    26      0.13095921      35.383235
2015    27      0.13840761      36.03094
2015    28      0.15819619      41.01213625
2016    1       0.15985635      41.22164
2016    2       0.1153268       31.498375
2016    3       0.14600991      38.28398375
2016    4       0.25437739      60.3338575
2016    5       0.37932645      82.8675025
2016    6       0.36363532      80.0608725
2016    7       0.11783185      31.9814625
2016    8       0.5375784       110.48345
2016    9       0.41957089      91.4889675
2016    10      0.38262894      86.392945
2016    11      0.31552236      73.17389875
2016    12      0.22408234      54.395435
2016    13      0.25456415      60.96438
2016    14      0.15818411      41.41167125
2016    15      0.28173008      65.39928125
2016    16      0.23304321      56.30813875
2016    17      0.20648621      51.42313375
2016    18      0.33690089      77.590855
2016    19      0.28422285      66.88579
2016    20      0.22330054      55.1620425
2016    21      0.14471522      37.67729
2016    22      0.10119233      29.04783625
2016    23      0.12284468      33.652025
2016    24      0.15265692      40.1141075
2016    25      0.2430636       59.60378125
2016    26      0.42967058      94.1490725
2016    27      0.32516696      74.22363625
2016    28      0.22856365      56.15418625
2016    29      0.3401553       76.8782475
2017    1       0.08499611      24.5860125
2017    2       0.10041411      28.0399125
2017    3       0.10172029      28.16989625
2017    4       0.06712022      20.46094125
2017    5       0.06661611      20.20649625
2017    6       0.05777652      18.17846875
2017    7       0.06201247      19.11424125
2017    8       0.07298799      21.77164125
2017    9       0.09376716      26.5619525
2017    10      0.23607882      56.854335
2017    11      0.11074801      30.5880775
2017    12      0.25657206      61.2299
2017    13      0.27226771      64.6894025
2017    14      0.26592638      64.68667875
2017    15      0.5360881       113.05824
2017    16      0.35346666      80.04977125
2017    17      0.37589666      84.058025
2017    18      0.13710668      36.77055625
2017    19      0.33165469      74.6607975
2017    20      0.16014588      41.79331125
2017    21      0.18403629      46.67091875
2017    22      0.14038902      37.0930125
2017    23      0.14395672      37.37582125
2017    24      0.11874891      31.79556625
2017    25      0.23442337      55.57148875
2017    26      0.10370255      28.50727625
2017    27      0.1316429       34.62592125
2017    28      0.1138865       30.8183425
2018    1       0.16980594      43.00764
2018    2       0.26019414      60.4390575
2018    3       0.16866144      41.61579625
2018    4       0.06783789      20.7922525
2018    5       0.1115808       30.638975
2018    6       0.09298491      26.3456275
2018    7       0.15758898      40.41829875
2018    8       0.07673219      22.80434875
2018    9       0.06650535      20.53465125
2018    10      0.21087662      50.9361975
2018    11      0.08885856      24.6780325
2018    12      0.11187711      30.36122625
2018    13      0.36509488      82.403165
2018    14      0.19217454      47.0811275
2018    15      0.05639483      17.8613275
2018    16      0.15808307      40.24591125
2018    17      0.06804563      20.46219375
2018    18      0.07410488      21.80082625
2018    19      0.0840645       24.013135
2018    20      0.06998597      20.89391125
2018    21      0.12275714      32.48888125
2018    22      0.12443375      33.123135
2018    23      0.25476321      59.38138125
2018    24      0.20184834      49.77109375
2018    25      0.19301185      47.81313125
2018    26      0.11801783      31.9952625
2018    27      0.16387274      41.67815625
2018    28      0.09971356      28.07498875
