####################################################################################################
# Month: 10Oct                                                                                     #
# Station: NZ                                                                                      #
# Frequency: 230 GHz                                                                               #
# Columns are: year    day     tau     Tb (K)                                                      #
####################################################################################################
2009    1       0.40265152      90.01771625
2009    2       0.3690156       84.01098625
2009    3       0.24833925      59.93163
2009    4       0.18232819      46.66262375
2009    5       0.11795635      33.4817725
2009    6       0.13957724      38.12697625
2009    7       0.32899884      75.75480375
2009    8       0.45553313      97.51110625
2009    9       0.25902742      60.21409
2009    10      0.20697976      52.61469875
2009    11      0.12372488      34.8439125
2009    12      0.15877512      42.56818
2009    13      0.46683819      100.004525
2009    14      0.41320226      87.52561125
2009    15      0.51929469      109.53099375
2009    16      0.58017106      117.93435
2009    17      0.51414841      105.73383125
2009    18      0.32101169      72.2990425
2009    19      0.35977938      79.45137875
2009    20      0.32160434      74.34649
2009    21      0.25440892      62.8615875
2009    22      0.32478106      71.54292125
2009    23      0.2438101       60.1999
2009    24      0.212389        54.05509
2009    25      0.28611239      69.07993125
2009    26      0.4766447       99.8111375
2009    27      0.29671911      70.38572125
2009    28      0.37858156      82.92488375
2009    29      0.25402326      62.218825
2009    30      0.28773239      69.78386375
2009    31      0.51183881      109.71691375
2010    1       0.21623355      53.91752375
2010    2       0.27379637      65.0213975
2010    3       0.17870996      47.15507125
2010    4       0.12925355      36.435125
2010    5       0.14984855      41.309925
2010    6       0.15253332      41.04502
2010    7       0.13539436      37.74209125
2010    8       0.47127449      100.07396625
2010    9       0.42112219      91.6519275
2010    10      0.27043008      63.24858875
2010    11      0.14424869      39.20461875
2010    12      0.13232444      37.26796125
2010    13      0.14804941      40.82294125
2010    14      0.19440908      50.7347475
2010    15      0.20674011      53.85682625
2010    16      0.35361424      78.19186125
2010    17      0.3582114       81.83084625
2010    18      0.26397935      63.7193225
2010    19      0.28804741      67.10707625
2010    20      0.45230163      97.23717625
2010    21      0.24964054      60.93793375
2010    22      0.33219893      77.97678625
2010    23      0.2516729       62.66458375
2010    24      0.35142129      81.8898725
2010    25      0.19331298      50.247695
2010    26      0.10971634      31.87458875
2010    27      0.36995845      82.22915
2010    28      0.74722969      141.3422375
2010    29      0.36963925      84.67560625
2010    30      0.11759821      33.99745625
2010    31      0.14315001      39.8887125
2011    1       0.50677704      108.7383475
2011    2       0.36426474      83.261525
2011    3       0.6979301       134.7198175
2011    4       0.36873146      81.00818375
2011    5       0.27367455      65.18937125
2011    6       0.37408791      84.820485
2011    7       0.33186754      77.26556
2011    8       0.11403742      31.68662
2011    9       0.19540386      49.5303075
2011    10      0.46347706      99.3891425
2011    11      0.3864359       88.24499625
2011    12      0.27005887      63.8365625
2011    13      0.36557649      82.88978375
2011    14      0.37087934      82.64420375
2011    15      0.40070218      88.273765
2011    16      0.18193079      47.91611125
2011    17      0.54962966      114.7275925
2011    18      0.54859691      113.2355825
2011    19      0.35137679      80.60347625
2011    20      0.59258325      121.502225
2011    21      0.4629348       93.66847375
2011    22      0.19905744      51.80732875
2011    23      0.19233042      49.99981375
2011    24      0.46006799      97.05607375
2011    25      0.62575567      123.2152675
2011    26      0.27207002      65.72403625
2011    27      0.25725869      64.4112525
2011    28      0.21905977      55.7902475
2011    29      0.51451624      109.7564925
2011    30      0.81803344      150.1918125
2011    31      0.50167862      108.544095
2012    1       0.34942021      77.69104875
2012    2       0.2665033       64.3815175
2012    3       0.31275928      73.3898875
2012    4       0.27669986      66.74964375
2012    5       0.3279361       75.8786825
2012    6       0.21197039      52.11574125
2012    7       0.35922069      77.523755
2012    8       0.53094029      111.1039375
2012    9       0.45233666      98.5149525
2012    10      0.36516441      83.31245375
2012    11      0.38659398      85.3241625
2012    12      0.64354621      127.629825
2012    13      0.36812018      77.84373875
2012    14      0.26505029      63.69158875
2012    15      0.2558313       61.15098125
2012    16      0.42504275      92.61161625
2012    17      0.48432392      103.900835
2012    18      0.55222394      108.7594225
2012    19      0.2475972       60.16399875
2012    20      0.41605381      92.92964375
2012    21      0.45315255      98.365105
2012    22      0.28360931      66.09031
2012    23      0.30058095      70.80983125
2012    24      0.37076554      84.39844375
2012    25      0.21092499      53.39051375
2012    26      0.42537344      95.28219125
2012    27      0.58381609      120.5086
2012    28      0.42187844      92.29647125
2012    29      0.24034905      61.1249625
2012    30      0.23479385      59.96990625
2012    31      0.47416801      102.94083375
2013    1       0.34371804      79.13255375
2013    2       0.59710309      120.183965
2013    3       0.29821615      72.0261625
2013    4       0.71034056      138.278925
2013    5       0.51457667      110.75789875
2013    6       0.46634229      102.1298625
2013    7       0.51699149      108.62533
2013    8       0.53656459      109.67097875
2013    9       0.2457226       58.2059675
2013    10      0.32266134      73.526985
2013    11      0.42408251      90.00545875
2013    12      0.38075742      85.679105
2013    13      0.46492509      102.30241
2013    14      0.40197608      87.79107
2013    15      0.26733679      61.7479275
2013    16      0.46401125      100.35872375
2013    17      0.37791208      85.28873375
2013    18      0.28736274      67.44562375
2013    19      0.19670556      50.9540175
2013    20      0.16287985      43.93715625
2013    21      0.5300535       111.58838875
2013    22      0.24575051      60.407445
2013    23      0.53799696      110.69925
2013    24      0.35108094      80.11070375
2013    25      0.38623448      87.26146875
2013    26      0.43180289      94.26504625
2013    27      0.29060945      67.83025125
2013    28      0.32636534      75.34727
2013    29      0.26970883      63.93951625
2013    30      0.50832627      108.14619
2013    31      0.42472438      91.4367825
2014    1       0.18868003      49.62059
2014    2       0.42876622      93.2914575
2014    3       0.26295705      62.37025125
2014    4       0.25811642      62.75559
2014    5       0.48191322      103.35976375
2014    6       0.20044412      48.83958
2014    7       0.34818464      79.6073675
2014    8       0.31395532      73.28483125
2014    9       0.37141934      83.17934625
2014    10      0.45302341      97.20026
2014    11      0.42805321      92.9451875
2014    12      0.40013972      89.5682725
2014    13      0.28347149      69.2444975
2014    14      0.23476212      57.7151625
2014    15      0.13624973      37.48720625
2014    16      0.41380194      91.19889
2014    17      0.33423152      79.21270625
2014    18      0.35429174      80.87966375
2014    19      0.31127337      71.1276025
2014    20      0.42526028      89.88608625
2014    21      0.44341814      96.08016875
2014    22      0.40953698      92.66256625
2014    23      0.30601282      70.9258025
2014    24      0.21990754      55.00009
2014    25      0.34164729      77.25569
2014    26      0.34537259      79.5378325
2014    27      0.16418419      43.467015
2014    28      0.36728306      82.78628875
2014    29      0.35027631      80.144945
2014    30      0.49461521      105.97163625
2014    31      0.37604196      84.7358275
2015    1       0.43904781      96.5884575
2015    2       0.38808528      84.5268775
2015    3       0.419275        94.50381625
2015    4       0.2957637       69.39390125
2015    5       0.30415625      72.81991625
2015    6       0.34875728      83.04145625
2015    7       0.30471044      71.52698
2015    8       0.31406148      74.1142525
2015    9       0.26072308      63.97230125
2015    10      0.32958441      77.31675
2015    11      0.22041218      55.77785625
2015    12      0.48542109      104.3939675
2015    13      0.28234505      67.60404
2015    14      0.27630339      66.4344475
2015    15      0.14865035      40.75827125
2015    16      0.59905222      122.142485
2015    17      0.30358582      70.70642
2015    18      0.25510848      62.61023375
2015    19      0.25827462      62.8707875
2015    20      0.33465794      79.01171125
2015    21      0.39136304      84.50631375
2015    22      0.22618276      56.51856375
2015    23      0.23719215      58.565625
2015    24      0.32211742      74.6677175
2015    25      0.19934858      49.9491125
2015    26      0.55069191      110.7989175
2015    27      0.46690082      102.65336875
2015    28      0.53260098      108.3828725
2015    29      0.30327699      68.21141875
2015    30      0.25359425      61.10278125
2015    31      0.28378149      68.99605625
2016    1       0.54626375      113.61041
2016    2       0.5956388       120.3397875
2016    3       0.42613411      91.43207625
2016    4       0.49075845      100.70237375
2016    5       0.51088788      108.13453875
2016    6       0.39318136      85.07313125
2016    7       0.29636431      68.16280125
2016    8       0.33485255      77.0280225
2016    9       0.2634876       63.06430875
2016    10      0.44542004      98.4273225
2016    11      0.50057269      106.6233625
2016    12      0.39581666      87.5795375
2016    13      0.52990461      111.04013125
2016    14      0.33332825      75.12338375
2016    15      0.2997134       71.269
2016    16      0.32387189      75.22427625
2016    17      0.13002692      35.73776125
2016    18      0.24478954      61.20132375
2016    19      0.45101746      98.37788625
2016    20      0.38759744      83.9904975
2016    21      0.12621546      34.1902
2016    22      0.1842399       47.87166875
2016    23      0.44802606      95.5102225
2016    24      0.6654055       130.331925
2016    25      0.64114491      126.7811975
2016    26      0.53401517      109.90549375
2016    27      0.46967405      102.37429
2016    28      0.38335906      82.61603
2016    29      0.22596468      54.343205
2016    30      0.20521559      52.6939975
2016    31      0.20205381      51.573185
2017    1       0.36686159      82.686645
2017    2       0.30619616      72.3925275
2017    3       0.15894183      42.20774375
2017    4       0.22765627      57.19007125
2017    5       0.2098295       53.08361125
2017    6       0.58334052      116.6457
2017    7       0.66245525      130.2562125
2017    8       0.51590681      109.4618625
2017    9       0.61393464      121.63417125
2017    10      0.61615319      123.13105125
2017    11      0.25317824      60.24078875
2017    12      0.27909444      66.67406125
2017    13      0.21183339      53.85036875
2017    14      0.3780583       83.49180125
2017    15      0.38926628      87.6816575
2017    16      0.36369635      83.21547625
2017    17      0.39191962      88.83480875
2017    18      0.45618963      100.99787625
2017    19      0.38910699      89.93410375
2017    20      0.3210688       73.9318275
2017    21      0.4921238       103.44793875
2017    22      0.55060746      113.69712875
2017    23      0.47214749      98.32821
2017    24      0.42968396      94.010945
2017    25      0.45315242      93.989795
2017    26      0.3457064       79.1384175
2017    27      0.18361636      48.11247625
2017    28      0.15683519      42.69308625
2017    29      0.39660369      90.74775375
2017    30      0.56246233      117.05853375
2017    31      0.5508431       116.24665375
2018    1       0.37290715      83.66848375
2018    2       0.27866695      65.18373625
2018    3       0.11458073      32.60858875
2018    4       0.45823775      99.3979975
2018    5       0.21501449      52.58657125
2018    6       0.11329919      32.47712
2018    7       0.26561204      64.64127375
2018    8       0.27250056      66.54288875
2018    9       0.28844547      68.95359625
2018    10      0.66475976      131.2350375
2018    11      0.79145591      145.211275
2018    12      0.21052296      51.143965
2018    13      0.30536299      70.01044375
2018    14      0.22268024      56.11178125
2018    15      0.1501657       40.78787
2018    16      0.35256862      74.20822875
2018    17      0.53392753      109.81518625
2018    18      0.10538205      30.5425875
2018    19      0.14010987      38.47081625
2018    20      0.43648536      97.85370375
2018    21      0.36813271      86.52039375
2018    22      0.27518379      68.80236125
2018    23      0.50041175      109.6246475
2018    24      0.65090534      127.30115875
2018    25      0.45791288      97.10980625
2018    26      0.41195248      91.06572
2018    27      0.46274169      100.69508875
2018    28      0.73149654      138.5962375
2018    29      0.74964229      140.3654125
2018    30      0.30768529      69.80795875
2018    31      0.25535723      60.53128375
