####################################################################################################
# Month: 10Oct                                                                                     #
# Station: CNI                                                                                     #
# Frequency: 230 GHz                                                                               #
# Columns are: year    day     segment         tau     Tb (K)                                      #
####################################################################################################
2009    1       0       0.7056297       141.9041
2009    1       1       0.7124965       142.623
2009    1       2       0.6722696       137.0085
2009    1       3       0.680015        138.2418
2009    1       4       0.5475429       118.611
2009    1       5       0.4784451       107.5282
2009    1       6       0.4499887       103.0647
2009    1       7       0.4472745       102.6482
2009    2       0       0.3790871       90.38152
2009    2       1       0.3606062       86.60113
2009    2       2       0.3354621       81.49758
2009    2       3       0.3221847       78.86273
2009    2       4       0.3382519       82.10367
2009    2       5       0.3581953       85.98302
2009    2       6       0.3634592       87.01082
2009    2       7       0.3634804       87.00578
2009    3       0       0.3622261       86.47835
2009    3       1       0.4263701       96.99132
2009    3       2       0.3547291       83.69268
2009    3       3       0.2966675       72.59494
2009    3       4       0.3262089       78.67619
2009    3       5       0.3026284       74.45465
2009    3       6       0.3261499       78.87305
2009    3       7       0.4105239       94.2709
2009    4       0       0.5036575       109.9787
2009    4       1       0.5630775       119.197
2009    4       2       0.5608764       119.0382
2009    4       3       0.5529471       117.2744
2009    4       4       0.5931146       123.8367
2009    4       5       0.6135998       126.9274
2009    4       6       0.4869263       107.2363
2009    4       7       0.5769747       121.3376
2009    5       0       0.5113605       111.4913
2009    5       1       0.406807        94.29901
2009    5       2       0.4399178       99.56082
2009    5       3       0.5346328       114.4726
2009    5       4       0.6197962       126.6575
2009    5       5       0.5454903       116.6292
2009    5       6       0.5263882       114.3709
2009    5       7       0.4757749       106.4757
2009    6       0       0.4688301       105.8092
2009    6       1       0.4326884       99.52793
2009    6       2       0.3105378       76.53533
2009    6       3       0.3419606       82.71147
2009    6       4       0.4008397       94.04207
2009    6       5       0.4492262       102.9187
2009    6       6       0.3240905       79.89457
2009    6       7       0.2162302       57.24286
2009    7       0       0.2094772       55.70266
2009    7       1       0.1500544       42.30319
2009    7       2       0.1333871       38.46341
2009    7       3       0.1196287       35.13311
2009    7       4       0.1287315       37.38019
2009    7       5       0.1362272       39.18485
2009    7       6       0.1355095       39.05532
2009    7       7       0.1311475       38.07302
2009    8       0       0.1217573       35.78617
2009    8       1       0.1163098       34.43477
2009    8       2       0.110079        32.91657
2009    8       3       0.1070598       32.19379
2009    8       4       0.1101977       32.93898
2009    8       5       0.11241         33.44389
2009    8       6       0.1098659       32.80862
2009    8       7       0.1034392       31.24653
2009    9       0       0.0969796       29.70303
2009    9       1       0.1062585       32.01972
2009    9       2       0.1385268       39.80553
2009    9       3       0.1569356       44.13913
2009    9       4       0.1419596       40.6446
2009    9       5       0.1255196       36.72572
2009    9       6       0.1214857       35.71969
2009    9       7       0.1207061       35.55241
2009    10      0       0.1197935       35.33194
2009    10      1       0.1209198       35.58138
2009    10      2       0.1229868       36.0525
2009    10      3       0.1248095       36.43814
2009    10      4       0.1238906       36.20314
2009    10      5       0.1213566       35.60068
2009    10      6       0.1185707       34.906
2009    10      7       0.1159199       34.30276
2009    11      0       0.1174801       34.71319
2009    11      1       0.118835        35.01959
2009    11      2       0.1310106       37.73853
2009    11      3       0.1434507       40.49539
2009    11      4       0.1259346       36.32218
2009    11      5       0.1056516       31.38374
2009    11      6       0.09935317      29.78451
2009    11      7       0.09643245      29.05081
2009    12      0       0.0947431       28.64549
2009    12      1       0.09561745      28.81898
2009    12      2       0.1090926       32.08062
2009    12      3       0.1253709       35.99086
2009    12      4       0.1241713       35.72262
2009    12      5       0.1273928       36.56345
2009    12      6       0.123588        35.61616
2009    12      7       0.1150033       33.55873
2009    13      0       0.1116654       32.80835
2009    13      1       0.1085261       32.13145
2009    13      2       0.1125632       33.11168
2009    13      3       0.1208435       34.98816
2009    13      4       0.1365664       38.72421
2009    13      5       0.1565596       43.35481
2009    13      6       0.1740199       47.19861
2009    13      7       0.1758378       47.42157
2009    14      0       0.1737358       46.56388
2009    14      1       0.2275663       58.09566
2009    14      2       0.2957825       72.07291
2009    14      3       0.3655966       85.44984
2009    14      4       0.4432266       99.49557
2009    14      5       0.497814        108.8599
2009    14      6       0.5169574       112.2019
2009    14      7       0.5085193       111.2007
2009    15      0       0.4990364       109.7793
2009    15      1       0.5104252       111.3285
2009    15      2       0.5026812       109.9026
2009    15      3       0.4692892       104.4637
2009    15      4       0.4825984       106.7689
2009    15      5       0.5397574       115.8467
2009    15      6       0.5851068       122.2407
2009    15      7       0.5711896       119.9661
2009    16      0       0.5207709       111.4084
2009    16      1       0.4909311       106.558
2009    16      2       0.405337        93.31898
2009    16      3       0.3217493       78.88071
2009    16      4       0.3662881       87.37767
2009    16      5       0.4438888       101.0662
2009    16      6       0.4812816       106.9908
2009    16      7       0.4850491       107.3296
2009    17      0       0.4534157       101.9348
2009    17      1       0.4446427       100.354
2009    17      2       0.4429848       99.78317
2009    17      3       0.4108935       94.42562
2009    17      4       0.3965121       92.12308
2009    17      5       0.3777225       88.91145
2009    17      6       0.3978253       92.54155
2009    17      7       0.4307625       98.15152
2009    18      0       0.4500924       101.3359
2009    18      1       0.473664        105.3014
2009    18      2       0.4999311       109.3948
2009    18      3       0.5123825       111.2398
2009    18      4       0.51027         111.1436
2009    18      5       0.4744103       105.6479
2009    18      6       0.4137564       95.32946
2009    18      7       0.4226109       96.85153
2009    19      0       0.4518962       101.9956
2009    19      1       0.4295755       98.27555
2009    19      2       0.3175637       77.89031
2009    19      3       0.1793381       49.15823
2009    19      4       0.1158705       34.22501
2009    19      5       0.1252469       36.29285
2009    19      6       0.1559039       43.40608
2009    19      7       0.1995374       52.81247
2009    20      0       0.2231952       58.3108
2009    20      1       0.2378753       61.4359
2009    20      2       0.2436813       62.54107
2009    20      3       0.1893008       50.85756
2009    20      4       0.148156        41.3307
2009    20      5       0.1563438       43.24343
2009    20      6       0.1684728       45.97101
2009    20      7       0.1638242       45.18203
2009    21      0       0.178717        48.64411
2009    21      1       0.2139948       56.50182
2009    21      2       0.2609645       66.59814
2009    21      3       0.2982178       74.12318
2009    21      4       0.3244725       79.35178
2009    21      5       0.343451        83.18277
2009    21      6       0.3354107       81.8436
2009    21      7       0.3075261       76.32997
2009    22      0       0.2627611       67.1712
2009    22      1       0.2350901       61.37127
2009    22      2       0.2230819       58.72209
2009    22      3       0.2223411       58.47555
2009    22      4       0.2334399       60.96396
2009    22      5       0.2434111       63.19454
2009    22      6       0.2466576       63.82776
2009    22      7       0.2525359       64.81821
2009    23      0       0.2536467       65.02933
2009    23      1       0.2338519       60.83513
2009    23      2       0.227737        59.5936
2009    23      3       0.2310839       60.40353
2009    23      4       0.2130582       56.71373
2009    23      5       0.1993703       53.80182
2009    23      6       0.1832543       50.15595
2009    23      7       0.1732999       47.84623
2009    24      0       0.1758894       48.44431
2009    24      1       0.1743251       48.10219
2009    24      2       0.1647021       45.87454
2009    24      3       0.1573554       44.15555
2009    24      4       0.1577125       44.27234
2009    24      5       0.1628024       45.44852
2009    24      6       0.1629191       45.40759
2009    24      7       0.1676481       46.27093
2009    25      0       0.1786959       48.5877
2009    25      1       0.1777764       48.40054
2009    25      2       0.1591234       44.17872
2009    25      3       0.1500435       41.99987
2009    25      4       0.1553437       43.16542
2009    25      5       0.1583985       43.80295
2009    25      6       0.179644        48.09532
2009    25      7       0.185331        49.44646
2009    26      0       0.177948        47.91687
2009    26      1       0.1676308       45.6634
2009    26      2       0.1685196       45.84059
2009    26      3       0.1614594       44.21911
2009    26      4       0.146877        40.7404
2009    26      5       0.1180394       34.07401
2009    26      6       0.09974341      29.63678
2009    26      7       0.09970314      29.62809
2009    27      0       0.1164839       33.6261
2009    27      1       0.1386612       38.65215
2009    27      2       0.1487519       41.06886
2009    27      3       0.1413325       39.72272
2009    27      4       0.1482914       41.32897
2009    27      5       0.2066184       54.40721
2009    27      6       0.3151161       76.80475
2009    27      7       0.3980673       92.38803
2009    28      0       0.3836311       90.33267
2009    28      1       0.2834873       71.18448
2009    28      2       0.3102507       76.27101
2009    28      3       0.4618461       103.5396
2009    28      4       0.5417068       116.3972
2009    28      5       0.3701877       87.52091
2009    28      6       0.2164228       56.93177
2009    28      7       0.1669074       45.93743
2009    29      0       0.1241904       36.05441
2009    29      1       0.110024        32.44752
2009    29      2       0.1287581       36.7169
2009    29      3       0.1506628       41.78136
2009    29      4       0.1604333       44.21812
2009    29      5       0.1700311       46.64942
2009    29      6       0.1704143       46.95402
2009    29      7       0.1732857       47.69843
2009    30      0       0.2019953       53.90108
2009    30      1       0.2459669       63.12027
2009    30      2       0.2530415       64.6097
2009    30      3       0.2434102       62.71104
2009    30      4       0.2604791       66.32609
2009    30      5       0.2804154       70.57796
2009    30      6       0.2506434       64.55581
2009    30      7       0.2186714       57.74769
2009    31      0       0.2019629       53.96091
2009    31      1       0.2176281       57.27592
2009    31      2       0.203136        53.97083
2009    31      3       0.168663        46.16129
2009    31      4       0.1476189       41.36947
2009    31      5       0.1190462       34.6603
2009    31      6       0.1112086       32.74981
2009    31      7       0.1161526       33.87527
2010    1       0       0.1283281       36.99847
2010    1       1       0.1330674       38.06336
2010    1       2       0.136487        38.834
2010    1       3       0.139419        39.5185
2010    1       4       0.1354765       38.57646
2010    1       5       0.1335744       38.16806
2010    1       6       0.1410952       40.01192
2010    1       7       0.1479865       41.69479
2010    2       0       0.1502234       42.20052
2010    2       1       0.1540156       43.00717
2010    2       2       0.1836751       49.64307
2010    2       3       0.2334293       60.45554
2010    2       4       0.3611416       86.3714
2010    2       5       0.4990245       110.9429
2010    2       6       0.5583732       120.0784
2010    2       7       0.6109379       127.204
2010    3       0       0.6537303       133.5899
2010    3       1       0.6280586       130.2628
2010    3       2       0.4704973       105.7826
2010    3       3       0.3258592       79.19324
2010    3       4       0.335572        81.15325
2010    3       5       0.3208633       77.25945
2010    3       6       0.3795045       87.83123
2010    3       7       0.4172897       95.81114
2010    4       0       0.3079792       75.26776
2010    4       1       0.2762878       68.74349
2010    4       2       0.2806493       69.86163
2010    4       3       0.2480768       63.33631
2010    4       4       0.2072394       54.74842
2010    4       5       0.2152224       56.68521
2010    4       6       0.1820855       49.20639
2010    4       7       0.1778806       48.04372
2010    5       0       0.2073947       54.72789
2010    5       1       0.1929324       51.83016
2010    5       2       0.1633594       45.35614
2010    5       3       0.1505746       42.34458
2010    5       4       0.1777949       48.44019
2010    5       5       0.2079741       55.07801
2010    5       6       0.2192123       57.53671
2010    5       7       0.2379911       61.61766
2010    6       0       0.2787383       70.24978
2010    6       1       0.2185975       57.47531
2010    6       2       0.1596526       44.38327
2010    6       3       0.1599176       43.89451
2010    6       4       0.1971477       51.93461
2010    6       5       0.2631873       66.03012
2010    6       6       0.2940392       73.04255
2010    6       7       0.4863316       108.668
2010    7       0       0.5695263       122.2455
2010    7       1       0.4722416       106.3232
2010    7       2       0.3792334       89.81346
2010    7       3       0.3223851       78.35885
2010    7       4       0.4050247       94.08689
2010    7       5       0.5769506       122.3012
2010    7       6       0.6688253       135.9021
2010    7       7       0.4224129       97.67926
2010    8       0       0.4558577       104.2783
2010    8       1       0.3805683       91.1282
2010    8       2       0.32715         80.53554
2010    8       3       0.231762        60.24655
2010    8       4       0.2282052       59.25871
2010    8       5       0.1790316       48.7488
2010    8       6       0.2515744       65.64564
2010    8       7       0.2920362       74.54537
2010    9       0       0.1601469       44.99384
2010    9       1       0.1337673       38.44488
2010    9       2       0.1192168       34.69782
2010    9       3       0.1124727       33.12716
2010    9       4       0.1275879       36.71807
2010    9       5       0.1599984       44.48405
2010    9       6       0.2305227       60.01334
2010    9       7       0.2746649       69.09841
2010    10      0       0.264823        67.03559
2010    10      1       0.2362076       61.22331
2010    10      2       0.1702378       46.76813
2010    10      3       0.1430642       40.49055
2010    10      4       0.3332747       81.89365
2010    10      5       0.5193957       115.3359
2010    10      6       0.5244754       116.2433
2010    10      7       0.4199599       98.35048
2010    11      0       0.399314        94.3818
2010    11      1       0.4686076       106.4183
2010    11      2       0.5736505       122.9498
2010    11      3       0.8676428       161.3779
2010    11      4       1.025323        178.0404
2010    11      5       0.9274757       168.3268
2010    11      6       0.761874        148.9624
2010    11      7       0.6578217       135.0427
2010    12      0       0.676573        137.8306
2010    12      1       0.6300606       131.1056
2010    12      2       0.4680327       105.3571
2010    12      3       0.2606633       66.36324
2010    12      4       0.1408316       39.96765
2010    12      5       0.1404477       39.50898
2010    12      6       0.1490857       40.99214
2010    12      7       0.1430095       39.49112
2010    13      0       0.146417        40.34234
2010    13      1       0.1601137       43.4179
2010    13      2       0.1328681       37.30632
2010    13      3       0.1263388       35.7664
2010    13      4       0.1336233       37.51011
2010    13      5       0.1502789       41.43578
2010    13      6       0.1459482       40.74381
2010    13      7       0.1266837       36.48877
2010    14      0       0.1055899       31.56337
2010    14      1       0.08380435      26.23887
2010    14      2       0.06641516      21.77543
2010    14      3       0.06692198      21.68224
2010    14      4       0.07796686      24.29267
2010    14      5       0.1132694       32.57431
2010    14      6       0.1580935       42.76622
2010    14      7       0.1904985       49.91013
2010    15      0       0.1676075       45.4729
2010    15      1       0.1349381       38.32269
2010    15      2       0.107403        31.66101
2010    15      3       0.1050795       31.04589
2010    15      4       0.1362875       38.37886
2010    15      5       0.1784671       48.12296
2010    15      6       0.2082969       54.86955
2010    15      7       0.2493638       63.91013
2010    16      0       0.2691507       67.90928
2010    16      1       0.2621271       66.57749
2010    16      2       0.2506653       64.23602
2010    16      3       0.2352987       61.02876
2010    16      4       0.2377065       61.55132
2010    16      5       0.2843252       71.33297
2010    16      6       0.3224827       79.10272
2010    16      7       0.3384395       82.12073
2010    17      0       0.3313633       80.59379
2010    17      1       0.3173218       77.7955
2010    17      2       0.3087274       76.05065
2010    17      3       0.3078688       75.66598
2010    17      4       0.3513258       84.13391
2010    17      5       0.3848018       90.52054
2010    17      6       0.3933945       91.9171
2010    17      7       0.383806        89.96261
2010    18      0       0.4033877       93.0457
2010    18      1       0.3560138       84.21871
2010    18      2       0.3184808       77.34756
2010    18      3       0.3015737       74.32158
2010    18      4       0.4828617       106.8682
2010    18      5       0.5718632       120.9156
2010    18      6       0.6529553       132.9853
2010    18      7       0.7465851       144.3412
2010    19      0       0.5396855       114.9067
2010    19      1       0.6269697       128.4847
2010    19      2       0.6711653       134.8793
2010    19      3       0.5023155       109.9969
2010    19      4       0.4925971       107.9482
2010    19      5       0.4835795       106.6789
2010    19      6       0.4605941       103.0017
2010    19      7       0.4514684       101.3081
2010    20      0       0.4468846       100.5162
2010    20      1       0.4673167       104.0545
2010    20      2       0.5059289       110.2784
2010    20      3       0.5421913       115.8955
2010    20      4       0.5884026       123.0065
2010    20      5       0.6226231       128.2322
2010    20      6       0.6318357       129.6841
2010    20      7       0.6199248       128.2029
2010    21      0       0.5828457       122.8737
2010    21      1       0.5187401       113.1282
2010    21      2       0.4764324       106.168
2010    21      3       0.4617595       103.5129
2010    21      4       0.4418519       100.2665
2010    21      5       0.4298506       98.40242
2010    21      6       0.4189137       96.45254
2010    21      7       0.3986715       92.81842
2010    22      0       0.3901828       91.16178
2010    22      1       0.3784707       88.85392
2010    22      2       0.413618        94.91678
2010    22      3       0.5224588       113.1283
2010    22      4       0.6638395       133.7852
2010    22      5       0.7198784       141.008
2010    22      6       0.5443609       116.4172
2010    22      7       0.2586736       65.68503
2010    23      0       0.1125207       33.17086
2010    23      1       0.0505457       17.35555
2010    23      2       0.04153823      14.98713
2010    23      3       0.04022778      14.82663
2010    23      4       0.03902288      14.69705
2010    23      5       0.1223151       36.08983
2010    23      6       0.1373752       39.8442
2010    23      7       0.05287584      18.51028
2010    24      0       0.04084125      15.18732
2010    24      1       0.06071353      20.29787
2010    24      2       0.1049136       31.00424
2010    24      3       0.1707683       46.04268
2010    24      4       0.261885        65.59124
2010    24      5       0.3128513       76.11553
2010    24      6       0.2887701       71.76158
2010    24      7       0.2152217       56.65743
2010    25      0       0.170938        46.9788
2010    25      1       0.1572021       43.72711
2010    25      2       0.1369925       39.0146
2010    25      3       0.1117357       33.01538
2010    25      4       0.1171533       34.17434
2010    25      5       0.1437801       40.15924
2010    25      6       0.1635472       44.54405
2010    25      7       0.1838571       49.22372
2010    26      0       0.1914838       51.15559
2010    26      1       0.1987378       52.96276
2010    26      2       0.2243684       58.70096
2010    26      3       0.2440506       63.09145
2010    26      4       0.2652992       67.78225
2010    26      5       0.2869851       72.32405
2010    26      6       0.280441        71.08701
2010    26      7       0.2580977       66.50194
2010    27      0       0.2374479       62.19863
2010    27      1       0.2169204       57.77538
2010    27      2       0.2025945       54.61026
2010    27      3       0.1945733       52.73547
2010    27      4       0.1889422       51.53218
2010    27      5       0.170081        47.16026
2010    27      6       0.1409919       40.21476
2010    27      7       0.1201202       35.08828
2010    28      0       0.1023448       30.73535
2010    28      1       0.09277029      28.33108
2010    28      2       0.09091219      27.8154
2010    28      3       0.09273201      28.16248
2010    28      4       0.09167428      27.86474
2010    28      5       0.09168851      27.96302
2010    28      6       0.08998137      27.63376
2010    28      7       0.08243203      25.83471
2010    29      0       0.07442226      23.85716
2010    29      1       0.07858508      24.85163
2010    29      2       0.09770595      29.55751
2010    29      3       0.1474822       41.48881
2010    29      4       0.1956361       51.98995
2010    29      5       0.2705266       67.45415
2010    29      6       0.2845578       70.34048
2010    29      7       0.2570916       65.11882
2010    30      0       0.2349713       60.78146
2010    30      1       0.2264069       59.10824
2010    30      2       0.2271944       59.56376
2010    30      3       0.2114633       56.43259
2010    30      4       0.1847836       50.64048
2010    30      5       0.1730705       48.0013
2010    30      6       0.1693299       47.15768
2010    30      7       0.1557314       43.9522
2010    31      0       0.1291581       37.59472
2010    31      1       0.1093806       32.65431
2010    31      2       0.1193793       34.95752
2010    31      3       0.161168        44.80014
2010    31      4       0.2086886       55.55987
2010    31      5       0.2193008       57.96806
2010    31      6       0.1906749       51.71545
2010    31      7       0.1257184       36.70651
2011    1       0       0.5430113       118.0998
2011    1       1       0.5444844       118.1637
2011    1       2       0.5103848       112.2928
2011    1       3       0.5039894       110.8979
2011    1       4       0.5581544       119.4636
2011    1       5       0.632827        130.6256
2011    1       6       0.6442941       131.8937
2011    1       7       0.5364782       115.9162
2011    2       0       0.4622847       104.0013
2011    2       1       0.430075        98.43656
2011    2       2       0.4279466       97.86958
2011    2       3       0.485793        107.354
2011    2       4       0.5579721       118.5629
2011    2       5       0.5406843       115.9036
2011    2       6       0.6368924       129.5407
2011    2       7       0.6783723       135.5356
2011    3       0       0.6740544       135.1525
2011    3       1       0.6483524       132.3933
2011    3       2       0.6261834       129.7641
2011    3       3       0.6811305       137.2474
2011    3       4       0.7456431       145.9348
2011    3       5       0.7931931       151.8835
2011    3       6       0.7664473       148.6558
2011    3       7       0.6896148       138.8441
2011    4       0       0.7149668       142.5657
2011    4       1       1.140716        188.1183
2011    4       2       1.325204        201.9792
2011    4       3       1.481039        212.9292
2011    4       4       1.42435         209.1074
2011    4       5       1.248241        195.2163
2011    4       6       1.020019        174.4749
2011    4       7       0.8526496       157.3458
2011    5       0       1.016013        174.7037
2011    5       1       1.120656        184.7211
2011    5       2       1.088373        181.435
2011    5       3       0.9993702       173.2914
2011    5       4       0.9298062       166.4223
2011    5       5       0.9810108       171.6697
2011    5       6       1.065913        179.6119
2011    5       7       0.9501954       168.4627
2011    6       0       0.8539076       157.9106
2011    6       1       0.8101374       152.796
2011    6       2       0.7746647       148.2764
2011    6       3       0.6990612       138.5834
2011    6       4       0.6744945       135.4799
2011    6       5       0.634997        130.279
2011    6       6       0.5373484       115.5105
2011    6       7       0.4586709       102.5483
2011    7       0       0.3453577       82.17564
2011    7       1       0.2015398       52.94548
2011    7       2       0.1373837       38.34726
2011    7       3       0.1127282       32.54935
2011    7       4       0.103954        30.68505
2011    7       5       0.1112865       32.71211
2011    7       6       0.09842251      29.76304
2011    7       7       0.07133993      23.17144
2011    8       0       0.0513461       18.03322
2011    8       1       0.04200279      15.50159
2011    8       2       0.05320406      18.425
2011    8       3       0.09238386      28.38863
2011    8       4       0.1228099       35.77732
2011    8       5       0.1287553       37.1674
2011    8       6       0.1281843       37.05883
2011    8       7       0.1214348       35.46393
2011    9       0       0.126589        36.72096
2011    9       1       0.1336902       38.36408
2011    9       2       0.1247556       36.24421
2011    9       3       0.105794        31.61318
2011    9       4       0.0920664       28.2102
2011    9       5       0.08643978      26.82229
2011    9       6       0.08325789      26.04445
2011    9       7       0.08382188      26.1991
2011    10      0       0.08675473      26.95979
2011    10      1       0.1029101       31.03685
2011    10      2       0.1225162       35.80783
2011    10      3       0.1443188       40.95281
2011    10      4       0.1847406       50.14852
2011    10      5       0.2198562       57.78114
2011    10      6       0.2198007       57.70183
2011    10      7       0.190156        51.12032
2011    11      0       0.1667425       45.64552
2011    11      1       0.1629991       44.59972
2011    11      2       0.2055137       54.11895
2011    11      3       0.2316271       59.82129
2011    11      4       0.2564005       64.93464
2011    11      5       0.2832214       70.38501
2011    11      6       0.2923976       72.2182
2011    11      7       0.2799559       69.6761
2011    12      0       0.2501672       63.40823
2011    12      1       0.2468591       62.58385
2011    12      2       0.2687311       67.11019
2011    12      3       0.2788304       69.26795
2011    12      4       0.2305914       59.40358
2011    12      5       0.1676869       45.6736
2011    12      6       0.1334873       37.82825
2011    12      7       0.1191499       34.57838
2011    13      0       0.1097413       32.4363
2011    13      1       0.09646183      29.25918
2011    13      2       0.09071267      27.85523
2011    13      3       0.08185002      25.63182
2011    13      4       0.08422369      26.19235
2011    13      5       0.0945184       28.71197
2011    13      6       0.09847193      29.68026
2011    13      7       0.09738996      29.40332
2011    14      0       0.1023628       30.48096
2011    14      1       0.1070535       31.45404
2011    14      2       0.1066757       31.3212
2011    14      3       0.1088122       31.77257
2011    14      4       0.1144491       33.04756
2011    14      5       0.1182848       33.9902
2011    14      6       0.1172159       33.72516
2011    14      7       0.1137655       32.97465
2011    15      0       0.1162288       33.55673
2011    15      1       0.1180873       33.99585
2011    15      2       0.1183885       33.83738
2011    15      3       0.1264478       35.46678
2011    15      4       0.1441242       39.51058
2011    15      5       0.1923748       49.80302
2011    15      6       0.1922833       50.11399
2011    15      7       0.1856408       48.94469
2011    16      0       0.1894974       49.82
2011    16      1       0.1940412       50.77092
2011    16      2       0.2543695       63.77521
2011    16      3       0.2921898       70.96468
2011    16      4       0.3345872       78.92487
2011    16      5       0.3267447       77.97411
2011    16      6       0.3282503       78.41181
2011    16      7       0.3494729       82.86517
2011    17      0       0.4203442       94.90043
2011    17      1       0.4411866       97.8049
2011    17      2       0.5163851       110.1717
2011    17      3       0.5788966       119.3564
2011    17      4       0.4550718       100.4157
2011    17      5       0.4180869       94.24926
2011    17      6       0.4459311       99.35439
2011    17      7       0.5018312       108.7911
2011    18      0       0.6280347       127.7797
2011    18      1       0.6598554       132.0766
2011    18      2       0.5880716       121.7837
2011    18      3       0.5587142       117.4249
2011    18      4       0.6005989       123.4727
2011    18      5       0.728778        141.2674
2011    18      6       0.6556165       131.6013
2011    18      7       0.6561634       131.3861
2011    19      0       0.6336743       128.1434
2011    19      1       0.5795499       120.3534
2011    19      2       0.6096998       124.2221
2011    19      3       0.6488916       129.278
2011    19      4       0.6475118       129.1181
2011    19      5       0.7263816       139.5773
2011    19      6       0.7782624       146.0323
2011    19      7       0.7095807       137.8706
2011    20      0       0.67252         133.3391
2011    20      1       0.7322372       141.2257
2011    20      2       0.7966575       148.1807
2011    20      3       0.8354241       152.1868
2011    20      4       0.8858376       158.0136
2011    20      5       0.8296851       152.8766
2011    20      6       0.8162686       151.6576
2011    20      7       0.8320474       153.9228
2011    21      0       0.8024537       150.8048
2011    21      1       0.69165         137.0581
2011    21      2       0.6304378       128.4418
2011    21      3       0.5734249       119.639
2011    21      4       0.4796801       105.2175
2011    21      5       0.4354814       98.0252
2011    21      6       0.3172293       76.88998
2011    21      7       0.1738487       47.3254
2011    22      0       0.1294833       37.1183
2011    22      1       0.1272147       36.56581
2011    22      2       0.1373744       38.87835
2011    22      3       0.1774066       47.94211
2011    22      4       0.213481        55.7905
2011    22      5       0.2406048       61.4373
2011    22      6       0.2669152       67.09777
2011    22      7       0.2793154       70.04317
2011    23      0       0.2642143       66.9944
2011    23      1       0.2265446       59.02565
2011    23      2       0.1444663       40.62784
2011    23      3       0.09776033      29.31802
2011    23      4       0.1082565       31.83185
2011    23      5       0.1730123       47.15132
2011    23      6       0.2208171       57.56372
2011    23      7       0.351255        83.74278
2011    24      0       0.4284749       97.95901
2011    24      1       0.3328623       80.39103
2011    24      2       0.2915999       72.20663
2011    24      3       0.2645189       66.5674
2011    24      4       0.2431927       61.61688
2011    24      5       0.2362535       59.81873
2011    24      6       0.2362177       59.97055
2011    24      7       0.2531957       63.42186
2011    25      0       0.3050944       74.45703
2011    25      1       0.2689947       67.69778
2011    25      2       0.2528786       64.52578
2011    25      3       0.252892        64.70293
2011    25      4       0.2519242       64.52131
2011    25      5       0.2320034       60.22619
2011    25      6       0.1859739       50.21127
2011    25      7       0.1588706       44.17696
2011    26      0       0.1557459       43.5571
2011    26      1       0.1869735       50.63348
2011    26      2       0.2157132       56.75317
2011    26      3       0.2274062       58.86147
2011    26      4       0.2801054       69.49468
2011    26      5       0.3153576       77.18459
2011    26      6       0.3065788       75.82048
2011    26      7       0.2699422       68.55495
2011    27      0       0.2695675       68.4716
2011    27      1       0.2514895       64.73439
2011    27      2       0.2028443       54.39395
2011    27      3       0.1620066       45.25704
2011    27      4       0.1647948       45.93912
2011    27      5       0.1781875       49.01918
2011    27      6       0.1683375       46.72274
2011    27      7       0.1457562       41.40204
2011    28      0       0.1302007       37.63294
2011    28      1       0.1240466       36.09484
2011    28      2       0.1170714       34.38244
2011    28      3       0.1087338       32.3081
2011    28      4       0.1091042       32.33528
2011    28      5       0.1176366       34.38017
2011    28      6       0.1342358       38.36518
2011    28      7       0.156291        43.42591
2011    29      0       0.1838662       49.27408
2011    29      1       0.2031213       53.14381
2011    29      2       0.2058003       53.63297
2011    29      3       0.1925937       51.04502
2011    29      4       0.2071724       54.31671
2011    29      5       0.2193435       56.81143
2011    29      6       0.2151296       55.81311
2011    29      7       0.2233869       57.49021
2011    30      0       0.2567181       64.48263
2011    30      1       0.2919275       71.50276
2011    30      2       0.2854755       70.13184
2011    30      3       0.2815562       69.18836
2011    30      4       0.3270705       77.94231
2011    30      5       0.3556106       83.67309
2011    30      6       0.3698656       86.50538
2011    30      7       0.3916443       90.38464
2011    31      0       0.3559246       83.57185
2011    31      1       0.269871        67.09549
2011    31      2       0.2224853       57.6133
2011    31      3       0.1737238       47.36427
2011    31      4       0.158336        43.98304
2011    31      5       0.1426963       40.46343
2011    31      6       0.1414217       39.9682
2011    31      7       0.1387376       39.09486
2012    1       0       0.1362628       39.31013
2012    1       1       0.1161718       34.4871
2012    1       2       0.1016185       30.91246
2012    1       3       0.0885336       27.67138
2012    1       4       0.08089257      25.74379
2012    1       5       0.07630675      24.56482
2012    1       6       0.07028482      23.03022
2012    1       7       0.06507292      21.65997
2012    2       0       0.06524695      21.63167
2012    2       1       0.07400921      23.75231
2012    2       2       0.09525493      28.74872
2012    2       3       0.1158787       33.60683
2012    2       4       0.1253033       35.80831
2012    2       5       0.1345772       37.96328
2012    2       6       0.1375311       38.69336
2012    2       7       0.142832        39.92872
2012    3       0       0.1247488       35.7936
2012    3       1       0.1316184       37.07934
2012    3       2       0.1553401       42.11017
2012    3       3       0.1535126       41.707
2012    3       4       0.1607093       43.22996
2012    3       5       0.1630872       43.80369
2012    3       6       0.1298903       36.81134
2012    3       7       0.1211265       34.9264
2012    4       0       0.15773         43.24637
2012    4       1       0.2284796       58.44488
2012    4       2       0.2841112       69.75519
2012    4       3       0.3025069       73.28061
2012    4       4       0.290435        70.96896
2012    4       5       0.2683223       66.75519
2012    4       6       0.2601759       65.10145
2012    4       7       0.2490091       63.06632
2012    5       0       0.2549076       64.22994
2012    5       1       0.3074368       74.72948
2012    5       2       0.3843774       89.53368
2012    5       3       0.4484967       101.2175
2012    5       4       0.5134061       112.0786
2012    5       5       0.4911524       108.6111
2012    5       6       0.3651329       86.48756
2012    5       7       0.2731365       68.33733
2012    6       0       0.2344907       60.50463
2012    6       1       0.2129616       56.22264
2012    6       2       0.1924042       51.79709
2012    6       3       0.22601         59.24148
2012    6       4       0.2739562       69.59131
2012    6       5       0.2918656       73.46147
2012    6       6       0.28127         71.34259
2012    6       7       0.2607652       67.05505
2012    7       0       0.2914479       73.30138
2012    7       1       0.3209854       79.15233
2012    7       2       0.3267058       80.1743
2012    7       3       0.322206        79.1547
2012    7       4       0.3182427       78.34084
2012    7       5       0.3209081       78.87915
2012    7       6       0.2968425       74.06194
2012    7       7       0.265189        67.50667
2012    8       0       0.25581         65.49487
2012    8       1       0.2631006       66.99136
2012    8       2       0.2648938       67.32869
2012    8       3       0.2642269       67.02347
2012    8       4       0.2691865       67.91199
2012    8       5       0.2744969       68.89379
2012    8       6       0.2261796       58.78628
2012    8       7       0.1787503       48.27142
2012    9       0       0.2095712       54.82569
2012    9       1       0.2418511       61.58645
2012    9       2       0.2620131       65.70521
2012    9       3       0.2749963       68.26687
2012    9       4       0.2714592       67.5933
2012    9       5       0.2660485       66.54207
2012    9       6       0.2578188       64.8835
2012    9       7       0.2513988       63.6086
2012    10      0       0.252645        63.85399
2012    10      1       0.2588801       65.002
2012    10      2       0.2654259       66.25373
2012    10      3       0.2616716       65.41931
2012    10      4       0.2616649       65.50092
2012    10      5       0.2559799       64.4732
2012    10      6       0.2429523       61.94883
2012    10      7       0.2370807       60.98308
2012    11      0       0.2296624       59.4227
2012    11      1       0.2330611       59.91183
2012    11      2       0.2276055       58.71713
2012    11      3       0.2097819       54.81527
2012    11      4       0.2072455       54.45485
2012    11      5       0.2196457       57.25487
2012    11      6       0.2312838       59.70101
2012    11      7       0.2384897       61.46107
2012    12      0       0.2428485       62.26561
2012    12      1       0.2241481       58.43672
2012    12      2       0.2164686       56.64049
2012    12      3       0.2163803       56.96408
2012    12      4       0.2417799       62.19118
2012    12      5       0.2357831       60.82858
2012    12      6       0.232166        60.008
2012    12      7       0.2131722       56.06919
2012    13      0       0.201889        53.36691
2012    13      1       0.1843023       49.34963
2012    13      2       0.1752055       47.3484
2012    13      3       0.1671217       45.45677
2012    13      4       0.1634639       44.53227
2012    13      5       0.160596        43.98965
2012    13      6       0.1633363       44.64198
2012    13      7       0.1630327       44.56405
2012    14      0       0.1736419       46.96841
2012    14      1       0.1883165       50.27063
2012    14      2       0.1875641       50.12703
2012    14      3       0.1863477       49.85943
2012    14      4       0.2092198       54.95528
2012    14      5       0.2286278       59.76363
2012    14      6       0.2280763       60.17226
2012    14      7       0.2027029       54.4973
2012    15      0       0.1684175       46.23313
2012    15      1       0.1305299       37.38231
2012    15      2       0.124318        35.866
2012    15      3       0.1236212       35.51746
2012    15      4       0.1215861       35.11233
2012    15      5       0.1169025       34.13869
2012    15      6       0.1133662       33.29256
2012    15      7       0.1216681       35.09254
2012    16      0       0.1346417       38.04176
2012    16      1       0.1512045       41.67687
2012    16      2       0.154719        42.13127
2012    16      3       0.1807376       47.26834
2012    16      4       0.1745589       46.07622
2012    16      5       0.1764439       46.38131
2012    16      6       0.1835207       47.74621
2012    16      7       0.1895604       48.84015
2012    17      0       0.246248        60.88727
2012    17      1       0.331193        77.62125
2012    17      2       0.3801077       87.44938
2012    17      3       0.4691979       104.1187
2012    17      4       0.3407113       81.07557
2012    17      5       0.1517543       42.10132
2012    17      6       0.1067467       31.58285
2012    17      7       0.08929473      27.53884
2012    18      0       0.1866574       50.96814
2012    18      1       0.2439528       63.59244
2012    18      2       0.1538985       43.02776
2012    18      3       0.2653959       67.13646
2012    18      4       0.5170484       112.7006
2012    18      5       0.5989605       124.8837
2012    18      6       0.2744494       68.95313
2012    18      7       0.1324365       37.8477
2012    19      0       0.06922214      22.25706
2012    19      1       0.0436646       15.65609
2012    19      2       0.05139521      17.60006
2012    19      3       0.06951594      22.09284
2012    19      4       0.09192158      27.22067
2012    19      5       0.1618333       42.84446
2012    19      6       0.2347733       57.75108
2012    19      7       0.2294638       57.52297
2012    20      0       0.2342883       58.98739
2012    20      1       0.2491774       62.32562
2012    20      2       0.2472968       62.48426
2012    20      3       0.2436347       62.31017
2012    20      4       0.2843883       71.00842
2012    20      5       0.3003592       74.29506
2012    20      6       0.2929508       72.82002
2012    20      7       0.2748396       69.11576
2012    21      0       0.2819269       70.69799
2012    21      1       0.2862307       71.66723
2012    21      2       0.2849453       71.18304
2012    21      3       0.272805        68.51786
2012    21      4       0.2711086       68.24634
2012    21      5       0.2717571       68.53588
2012    21      6       0.2618753       66.51549
2012    21      7       0.2638955       66.74149
2012    22      0       0.3045283       74.65816
2012    22      1       0.3523697       83.04138
2012    22      2       0.3251739       77.19627
2012    22      3       0.3631379       83.82204
2012    22      4       0.2664265       66.68887
2012    22      5       0.200249        53.46734
2012    22      6       0.2231194       58.53995
2012    22      7       0.2717334       68.74396
2012    23      0       0.2672016       67.69585
2012    23      1       0.236804        61.1798
2012    23      2       0.2433656       62.34686
2012    23      3       0.2370264       60.51292
2012    23      4       0.1948204       51.46699
2012    23      5       0.194056        51.1439
2012    23      6       0.1903909       50.24881
2012    23      7       0.2546897       65.24893
2012    24      0       0.239933        62.47633
2012    24      1       0.1310739       37.9697
2012    24      2       0.08911         27.71179
2012    24      3       0.1138589       33.41758
2012    24      4       0.1450159       40.45422
2012    24      5       0.1565648       43.21994
2012    24      6       0.135088        38.62706
2012    24      7       0.1246418       36.25089
2012    25      0       0.1238265       36.18341
2012    25      1       0.1354105       39.03602
2012    25      2       0.1298992       37.80919
2012    25      3       0.121671        35.68848
2012    25      4       0.1197548       34.94787
2012    25      5       0.1281057       36.46505
2012    25      6       0.1219479       34.65973
2012    25      7       0.1344883       37.50217
2012    26      0       0.1567611       42.97196
2012    26      1       0.2481214       63.53062
2012    26      2       0.3258097       79.33928
2012    26      3       0.3588457       85.81134
2012    26      4       0.4278648       98.00619
2012    26      5       0.5292056       114.5301
2012    26      6       0.5240687       114.8403
2012    26      7       0.4748408       105.5498
2012    27      0       0.4889598       108.0497
2012    27      1       0.6123507       126.4423
2012    27      2       0.6380234       130.0727
2012    27      3       0.5953053       123.9597
2012    27      4       0.6004743       124.7891
2012    27      5       0.7015082       138.4971
2012    27      6       0.7098005       139.6435
2012    27      7       0.7256112       140.7643
2012    28      0       0.6506298       130.6507
2012    28      1       0.8673809       156.938
2012    28      2       0.9508814       167.4432
2012    28      3       0.9753679       169.8139
2012    28      4       0.9700098       169.5325
2012    28      5       1.138905        185.3986
2012    28      6       0.9686799       170.9179
2012    28      7       0.6633877       134.9367
2012    29      0       0.4261727       97.74976
2012    29      1       0.3874591       90.08386
2012    29      2       0.3589775       84.6899
2012    29      3       0.4200463       96.01809
2012    29      4       0.6037681       126.1993
2012    29      5       0.82518         154.8586
2012    29      6       1.116076        184.9127
2012    29      7       1.287936        198.7949
2012    30      0       1.228606        194.0102
2012    30      1       1.376488        204.8336
2012    30      2       1.328258        201.3648
2012    30      3       1.352523        203.9378
2012    30      4       1.271348        198.4166
2012    30      5       1.508189        214.597
2012    30      6       1.596576        218.8105
2012    30      7       1.397353        205.7489
2012    31      0       1.536002        213.5301
2012    31      1       1.27207         197.0261
2012    31      2       1.037975        176.4616
2012    31      3       0.80606         151.8693
2012    31      4       0.7593601       145.4757
2012    31      5       0.9639872       168.9335
2012    31      6       0.7670463       147.0871
2012    31      7       0.595232        123.1546
2013    1       0       0.459881        103.4882
2013    1       1       0.5378049       115.7366
2013    1       2       0.6030806       125.253
2013    1       3       0.5888071       122.7547
2013    1       4       0.4837362       107.3841
2013    1       5       0.359868        86.31161
2013    1       6       0.2510394       64.86728
2013    1       7       0.1821062       49.81074
2013    2       0       0.1925662       52.23102
2013    2       1       0.2617355       66.91621
2013    2       2       0.3841201       89.75682
2013    2       3       0.5204449       113.5082
2013    2       4       0.3468297       84.24799
2013    2       5       0.1421434       40.66683
2013    2       6       0.09856267      30.03882
2013    2       7       0.09340875      28.74817
2013    3       0       0.08887427      27.41723
2013    3       1       0.104547        31.22711
2013    3       2       0.1354095       38.87041
2013    3       3       0.1471355       41.85573
2013    3       4       0.1188842       34.80565
2013    3       5       0.1304166       37.32131
2013    3       6       0.1309051       37.17656
2013    3       7       0.1095563       32.20885
2013    4       0       0.0937889       28.60494
2013    4       1       0.08855139      27.41232
2013    4       2       0.08154871      25.74089
2013    4       3       0.0778146       24.84779
2013    4       4       0.07819677      24.92304
2013    4       5       0.08240566      25.96513
2013    4       6       0.08436426      26.49543
2013    4       7       0.08341665      26.29601
2013    5       0       0.08331257      26.23567
2013    5       1       0.08429572      26.403
2013    5       2       0.0848599       26.50217
2013    5       3       0.08996813      27.75849
2013    5       4       0.1001214       30.35011
2013    5       5       0.1127327       33.51592
2013    5       6       0.1138419       33.7904
2013    5       7       0.1121309       33.40189
2013    6       0       0.1177199       34.75215
2013    6       1       0.1290619       37.46402
2013    6       2       0.1429708       40.78279
2013    6       3       0.1525173       42.98905
2013    6       4       0.1634368       45.3696
2013    6       5       0.1679726       46.32599
2013    6       6       0.1532677       42.80812
2013    6       7       0.1349704       38.31101
2013    7       0       0.1478183       41.22995
2013    7       1       0.1601847       44.02507
2013    7       2       0.1619789       44.43524
2013    7       3       0.1592639       43.8533
2013    7       4       0.1618678       44.48055
2013    7       5       0.1629096       44.6965
2013    7       6       0.1482241       41.43992
2013    7       7       0.128389        36.9699
2013    8       0       0.1221742       35.57339
2013    8       1       0.1223322       35.68797
2013    8       2       0.1207849       35.33849
2013    8       3       0.1157359       34.13202
2013    8       4       0.116318        34.4056
2013    8       5       0.12224         36.01263
2013    8       6       0.119844        35.49215
2013    8       7       0.1065171       32.25692
2013    9       0       0.1131955       33.92441
2013    9       1       0.1350933       39.22828
2013    9       2       0.1448597       41.50776
2013    9       3       0.1567558       44.21944
2013    9       4       0.1714097       47.59468
2013    9       5       0.1819135       49.93525
2013    9       6       0.1755043       48.56134
2013    9       7       0.1627621       45.66536
2013    10      0       0.1670316       46.54077
2013    10      1       0.1749511       48.11831
2013    10      2       0.1817722       49.55622
2013    10      3       0.1846389       50.24541
2013    10      4       0.180439        49.27413
2013    10      5       0.1723278       47.47861
2013    10      6       0.1580463       44.24118
2013    10      7       0.1450422       41.18051
2013    11      0       0.1395197       39.88806
2013    11      1       0.1375918       39.4294
2013    11      2       0.1251769       36.42841
2013    11      3       0.1125826       33.35089
2013    11      4       0.1088663       32.45951
2013    11      5       0.1099096       32.73364
2013    11      6       0.1024631       31.01336
2013    11      7       0.09080907      28.18775
2013    12      0       0.08908322      27.68159
2013    12      1       0.1043478       31.06204
2013    12      2       0.124664        35.64095
2013    12      3       0.13122         37.17478
2013    12      4       0.1295549       36.86755
2013    12      5       0.1290794       36.82017
2013    12      6       0.1370831       38.7013
2013    12      7       0.1470611       41.02826
2013    13      0       0.1628086       44.66317
2013    13      1       0.1894895       50.43006
2013    13      2       0.1901237       50.42555
2013    13      3       0.1738122       46.7188
2013    13      4       0.1699824       45.85926
2013    13      5       0.1662176       45.35493
2013    13      6       0.1580026       43.69437
2013    13      7       0.1490277       41.62842
2013    14      0       0.1348655       38.42739
2013    14      1       0.1280206       36.82748
2013    14      2       0.1233047       35.69157
2013    14      3       0.1188254       34.605
2013    14      4       0.119133        34.69649
2013    14      5       0.1206367       35.04562
2013    14      6       0.1193381       34.80187
2013    14      7       0.1206598       35.19392
2013    15      0       0.1221562       35.59136
2013    15      1       0.1202417       35.1415
2013    15      2       0.1233199       35.88993
2013    15      3       0.1331101       38.16632
2013    15      4       0.1599925       44.31809
2013    15      5       0.1973234       52.78446
2013    15      6       0.2352476       61.11539
2013    15      7       0.3003707       74.64088
2013    16      0       0.2695169       67.95686
2013    16      1       0.2703891       67.8571
2013    16      2       0.2987311       73.55155
2013    16      3       0.3262254       79.17986
2013    16      4       0.3382544       81.45528
2013    16      5       0.3619743       85.94658
2013    16      6       0.3958589       92.22364
2013    16      7       0.3922394       91.53141
2013    17      0       0.3924565       91.60172
2013    17      1       0.4144838       95.69621
2013    17      2       0.4404202       99.99867
2013    17      3       0.4744096       105.44
2013    17      4       0.4909933       108.0934
2013    17      5       0.4696793       104.6908
2013    17      6       0.4379818       99.11733
2013    17      7       0.4711251       104.5468
2013    18      0       0.5953157       123.8137
2013    18      1       0.4509107       101.2145
2013    18      2       0.5042069       109.1223
2013    18      3       0.523889        112.0753
2013    18      4       0.439588        99.13515
2013    18      5       0.6474289       131.7691
2013    18      6       0.5328401       115.1947
2013    18      7       0.4725003       105.6048
2013    19      0       0.3900924       91.49656
2013    19      1       0.2526313       64.67074
2013    19      2       0.1347687       38.48311
2013    19      3       0.09180513      28.10597
2013    19      4       0.0758604       24.08173
2013    19      5       0.08187427      25.42408
2013    19      6       0.1035143       30.96818
2013    19      7       0.121044        35.2102
2013    20      0       0.1204785       35.07161
2013    20      1       0.115971        33.96875
2013    20      2       0.1480137       41.33522
2013    20      3       0.204793        53.68508
2013    20      4       0.1919715       51.03422
2013    20      5       0.1628696       44.39931
2013    20      6       0.1524985       42.08906
2013    20      7       0.1444005       40.3617
2013    21      0       0.1608245       43.93343
2013    21      1       0.1676969       45.40609
2013    21      2       0.1658252       44.7317
2013    21      3       0.159571        43.17596
2013    21      4       0.1825742       48.43685
2013    21      5       0.2166595       56.09131
2013    21      6       0.2525565       63.9852
2013    21      7       0.2445882       62.80746
2013    22      0       0.3049726       74.99943
2013    22      1       0.361107        85.87177
2013    22      2       0.3610951       85.85091
2013    22      3       0.3574807       85.09561
2013    22      4       0.345982        82.8913
2013    22      5       0.3341224       80.49695
2013    22      6       0.3430898       81.94986
2013    22      7       0.3117445       76.29733
2013    23      0       0.2559476       65.36425
2013    23      1       0.2355185       61.06357
2013    23      2       0.2291204       59.71595
2013    23      3       0.2205938       57.69019
2013    23      4       0.2177137       56.69502
2013    23      5       0.2060295       54.07589
2013    23      6       0.1840055       49.37488
2013    23      7       0.1636416       44.82771
2013    24      0       0.1788239       48.16909
2013    24      1       0.1919667       51.2342
2013    24      2       0.1690563       45.93024
2013    24      3       0.2022159       52.83736
2013    24      4       0.2429042       61.73101
2013    24      5       0.2442444       61.99987
2013    24      6       0.240404        61.1731
2013    24      7       0.4529791       99.94049
2013    25      0       0.5425906       116.3965
2013    25      1       0.2880186       71.54718
2013    25      2       0.1466498       40.05701
2013    25      3       0.1754308       45.61949
2013    25      4       0.1539972       40.78919
2013    25      5       0.1230118       34.42325
2013    25      6       0.1120442       32.35615
2013    25      7       0.05892423      19.57117
2013    26      0       0.05314061      17.98695
2013    26      1       0.05712029      19.13669
2013    26      2       0.0639652       20.85326
2013    26      3       0.07545174      23.7213
2013    26      4       0.08359         25.72169
2013    26      5       0.08449854      25.84956
2013    26      6       0.1026267       29.78321
2013    26      7       0.1277471       35.59199
2013    27      0       0.1378445       38.023
2013    27      1       0.2194556       56.7484
2013    27      2       0.3388829       80.98619
2013    27      3       0.4226786       96.1237
2013    27      4       0.4491956       100.9639
2013    27      5       0.4419523       99.81611
2013    27      6       0.4239962       96.60025
2013    27      7       0.4126683       94.22725
2013    28      0       0.4063584       93.3206
2013    28      1       0.2062356       53.90013
2013    28      2       0.1023546       30.09356
2013    28      3       0.09326317      28.00997
2013    28      4       0.1156152       33.57
2013    28      5       0.1449814       40.43211
2013    28      6       0.1564551       43.15264
2013    28      7       0.1741625       47.18874
2013    29      0       0.208918        54.93528
2013    29      1       0.2090935       55.12512
2013    29      2       0.1704476       46.86162
2013    29      3       0.1194496       35.18037
2013    29      4       0.1464719       41.53886
2013    29      5       0.174635        48.03137
2013    29      6       0.1674467       46.45605
2013    29      7       0.1366126       39.23853
2013    30      0       0.1255368       36.41034
2013    30      1       0.1114264       32.58567
2013    30      2       0.09825932      29.00549
2013    30      3       0.1251969       34.84335
2013    30      4       0.162086        43.19333
2013    30      5       0.2208892       55.73824
2013    30      6       0.2597198       63.81641
2013    30      7       0.2719118       66.61808
2013    31      0       0.3214846       76.55616
2013    31      1       0.3550838       83.60825
2013    31      2       0.3736468       87.47019
2013    31      3       0.3667664       86.62347
2013    31      4       0.2972737       73.67452
2013    31      5       0.2026526       53.93754
2013    31      6       0.1546245       43.18612
2013    31      7       0.08140013      25.62061
2014    1       0       0.3766991       89.14281
2014    1       1       0.2440045       62.48729
2014    1       2       0.1885894       50.04147
2014    1       3       0.1698568       45.48915
2014    1       4       0.1760624       46.86331
2014    1       5       0.1894481       49.94406
2014    1       6       0.1963646       51.60737
2014    1       7       0.1996243       52.5074
2014    2       0       0.199689        52.76509
2014    2       1       0.2013772       53.23231
2014    2       2       0.2004592       53.06493
2014    2       3       0.1937821       51.61947
2014    2       4       0.1710058       46.45062
2014    2       5       0.1823543       49.22015
2014    2       6       0.1798092       48.72924
2014    2       7       0.1789588       48.64231
2014    3       0       0.1861556       50.34359
2014    3       1       0.193592        52.05788
2014    3       2       0.196205        52.72215
2014    3       3       0.1916221       51.7159
2014    3       4       0.1833827       49.85049
2014    3       5       0.1874869       50.90782
2014    3       6       0.2083728       55.59861
2014    3       7       0.2230651       58.8535
2014    4       0       0.2407236       62.60667
2014    4       1       0.2590374       66.39955
2014    4       2       0.249099        64.38427
2014    4       3       0.2426364       63.0959
2014    4       4       0.2557538       65.83882
2014    4       5       0.2668099       68.09556
2014    4       6       0.2396495       62.43654
2014    4       7       0.1872245       50.89703
2014    5       0       0.1545651       43.20927
2014    5       1       0.1474756       41.4343
2014    5       2       0.1367481       38.84812
2014    5       3       0.1273514       36.53543
2014    5       4       0.112949        33.057
2014    5       5       0.09915154      29.71694
2014    5       6       0.08976892      27.44365
2014    5       7       0.07809142      24.58174
2014    6       0       0.07172237      23.09159
2014    6       1       0.06918783      22.53971
2014    6       2       0.06305722      20.93568
2014    6       3       0.06071552      20.25396
2014    6       4       0.06657864      21.76239
2014    6       5       0.07449662      23.81954
2014    6       6       0.08110099      25.52535
2014    6       7       0.09824929      29.84616
2014    7       0       0.1265594       36.64175
2014    7       1       0.1433686       40.54245
2014    7       2       0.1343388       38.31793
2014    7       3       0.1200099       34.81363
2014    7       4       0.1177848       34.2775
2014    7       5       0.1187888       34.56554
2014    7       6       0.1190904       34.68831
2014    7       7       0.122478        35.5339
2014    8       0       0.1247713       36.1405
2014    8       1       0.1353319       38.54887
2014    8       2       0.1439499       40.43558
2014    8       3       0.1466408       41.01086
2014    8       4       0.166764        45.65311
2014    8       5       0.1660613       45.55085
2014    8       6       0.158281        43.58052
2014    8       7       0.1589113       43.56076
2014    9       0       0.1779279       47.62829
2014    9       1       0.1984259       51.90883
2014    9       2       0.2525158       62.61484
2014    9       3       0.2552435       63.33087
2014    9       4       0.2262294       57.77139
2014    9       5       0.2525999       63.2975
2014    9       6       0.2403759       61.08087
2014    9       7       0.217981        56.58408
2014    10      0       0.2004764       52.94136
2014    10      1       0.204024        53.60514
2014    10      2       0.1956909       51.89379
2014    10      3       0.1895246       50.54275
2014    10      4       0.1950031       51.5565
2014    10      5       0.2129361       55.33586
2014    10      6       0.2442639       62.2347
2014    10      7       0.2583906       65.54412
2014    11      0       0.2602454       65.85414
2014    11      1       0.2690138       67.09721
2014    11      2       0.2349742       59.94405
2014    11      3       0.1636045       44.91725
2014    11      4       0.1420124       40.14167
2014    11      5       0.1288746       37.17292
2014    11      6       0.1139796       33.73827
2014    11      7       0.1046378       31.3275
2014    12      0       0.1185437       34.43589
2014    12      1       0.09990649      30.0595
2014    12      2       0.07597527      24.06532
2014    12      3       0.06503967      21.34278
2014    12      4       0.07537485      23.85562
2014    12      5       0.09485877      28.6176
2014    12      6       0.12027         34.82715
2014    12      7       0.1477005       41.42302
2014    13      0       0.1555377       43.44109
2014    13      1       0.1416781       40.28749
2014    13      2       0.1274941       36.69508
2014    13      3       0.1371711       38.68535
2014    13      4       0.1340682       38.40943
2014    13      5       0.1466965       41.27334
2014    13      6       0.1434505       40.6556
2014    13      7       0.1448616       40.96473
2014    14      0       0.1429793       40.58019
2014    14      1       0.1445617       40.85231
2014    14      2       0.1556397       43.12573
2014    14      3       0.1429046       40.35965
2014    14      4       0.1457666       41.13023
2014    14      5       0.1631411       45.14921
2014    14      6       0.1587184       44.11451
2014    14      7       0.1506525       42.28885
2014    15      0       0.1484993       41.81249
2014    15      1       0.1430781       40.54655
2014    15      2       0.1525771       42.82215
2014    15      3       0.1295852       37.25189
2014    15      4       0.1178685       34.40333
2014    15      5       0.1039915       30.99126
2014    15      6       0.09811148      29.51603
2014    15      7       0.09548659      28.88647
2014    16      0       0.09306802      28.45616
2014    16      1       0.09680932      29.56118
2014    16      2       0.09652912      29.46365
2014    16      3       0.09274678      28.44566
2014    16      4       0.09213792      28.31918
2014    16      5       0.09093014      28.03971
2014    16      6       0.09226361      28.31273
2014    16      7       0.09466511      28.79617
2014    17      0       0.09026596      27.61895
2014    17      1       0.0962149       28.69759
2014    17      2       0.1120908       32.58982
2014    17      3       0.2478087       63.76246
2014    17      4       0.4397151       101.0052
2014    17      5       0.515385        113.8006
2014    17      6       0.5717444       122.6936
2014    17      7       0.6150461       129.3134
2014    18      0       0.5246846       115.4018
2014    18      1       0.429344        98.95807
2014    18      2       0.2999821       74.44707
2014    18      3       0.2597413       66.25073
2014    18      4       0.3077059       75.56454
2014    18      5       0.4319354       98.32759
2014    18      6       0.4951974       108.8647
2014    18      7       0.5539465       117.691
2014    19      0       0.6183843       127.0731
2014    19      1       0.6845178       135.8884
2014    19      2       0.649844        131.2505
2014    19      3       0.7492444       143.437
2014    19      4       0.6713976       133.347
2014    19      5       0.2462438       62.59629
2014    19      6       0.2248039       58.1329
2014    19      7       0.2511237       63.74535
2014    20      0       0.3256408       78.331
2014    20      1       0.3092108       75.15095
2014    20      2       0.3190853       76.91586
2014    20      3       0.3348148       79.78508
2014    20      4       0.3329927       80.10667
2014    20      5       0.2973828       73.48895
2014    20      6       0.3015026       73.62339
2014    20      7       0.2829168       70.11999
2014    21      0       0.2636889       65.95586
2014    21      1       0.3511158       82.13876
2014    21      2       0.4462218       99.43078
2014    21      3       0.5275973       113.2842
2014    21      4       0.5613825       118.8079
2014    21      5       0.570904        120.1111
2014    21      6       0.6637115       133.3243
2014    21      7       0.7429213       143.6709
2014    22      0       0.5953055       123.6191
2014    22      1       0.6618633       132.886
2014    22      2       0.6115226       126.1604
2014    22      3       0.5444303       116.5116
2014    22      4       0.5314415       114.6442
2014    22      5       0.5120883       111.6155
2014    22      6       0.5254384       113.6619
2014    22      7       0.5631254       119.3793
2014    23      0       0.5623797       119.2072
2014    23      1       0.5390085       115.6923
2014    23      2       0.5589177       118.5023
2014    23      3       0.5419173       115.8534
2014    23      4       0.5516541       117.3505
2014    23      5       0.6749879       134.228
2014    23      6       0.7941177       149.1329
2014    23      7       0.8444068       155.169
2014    24      0       0.7473823       143.6269
2014    24      1       0.6158023       126.4594
2014    24      2       0.5323573       114.4501
2014    24      3       0.5583285       117.6099
2014    24      4       0.5372202       114.8414
2014    24      5       0.6073207       125.2884
2014    24      6       0.6847564       136.4131
2014    24      7       0.8271582       155.6743
2014    25      0       0.590852        123.6169
2014    25      1       0.7475475       145.9504
2014    25      2       0.6013662       125.0297
2014    25      3       0.5731047       120.6819
2014    25      4       0.5611263       118.7881
2014    25      5       0.5608161       118.8635
2014    25      6       0.5231467       113.1856
2014    25      7       0.5366734       115.0257
2014    26      0       0.698072        138.8589
2014    26      1       0.5382266       115.6727
2014    26      2       0.460492        103.1003
2014    26      3       0.4750823       105.153
2014    26      4       0.5277444       113.6461
2014    26      5       0.4888874       107.2636
2014    26      6       0.4894391       107.206
2014    26      7       0.5446579       115.5206
2014    27      0       0.5116926       111.1514
2014    27      1       0.5153525       111.9005
2014    27      2       0.4806314       106.2567
2014    27      3       0.3584541       84.91494
2014    27      4       0.289166        71.81985
2014    27      5       0.2535989       64.44471
2014    27      6       0.2364244       59.75314
2014    27      7       0.3316165       78.50336
2014    28      0       0.5242526       111.8484
2014    28      1       0.7217973       140.0708
2014    28      2       0.8181045       152.7435
2014    28      3       0.7835093       149.8839
2014    28      4       0.7406201       145.0628
2014    28      5       0.68828         138.7151
2014    28      6       0.527064        115.3747
2014    28      7       0.391435        92.2175
2014    29      0       0.2989768       74.57044
2014    29      1       0.2253758       58.79259
2014    29      2       0.1732257       46.94014
2014    29      3       0.1443861       40.33716
2014    29      4       0.1281042       36.65498
2014    29      5       0.1159044       33.83375
2014    29      6       0.123468        35.59825
2014    29      7       0.1279316       36.77451
2014    30      0       0.1326096       37.86282
2014    30      1       0.1262555       36.41934
2014    30      2       0.1233801       35.82615
2014    30      3       0.1313642       37.80169
2014    30      4       0.1397876       39.84931
2014    30      5       0.1523045       42.8169
2014    30      6       0.1554477       43.54489
2014    30      7       0.1541162       43.24999
2014    31      0       0.1762678       48.18863
2014    31      1       0.1907711       51.41087
2014    31      2       0.211731        55.83035
2014    31      3       0.2169036       57.05351
2014    31      4       0.2363532       61.06524
2014    31      5       0.2558629       65.04207
2014    31      6       0.2363205       61.02254
2014    31      7       0.1850076       50.37579
2015    1       0       0.352275        83.14101
2015    1       1       0.4073439       93.0166
2015    1       2       0.5761265       120.5264
2015    1       3       0.6982865       138.5008
2015    1       4       0.7289219       142.403
2015    1       5       0.5835796       121.8186
2015    1       6       0.5661886       120.0737
2015    1       7       0.5887723       123.9714
2015    2       0       0.5958221       125.0785
2015    2       1       0.6398284       131.6302
2015    2       2       0.7266823       143.4946
2015    2       3       0.7937425       152.0959
2015    2       4       0.8420056       158.2253
2015    2       5       0.9362463       168.6048
2015    2       6       0.8561179       160.2615
2015    2       7       0.7607976       149.3015
2015    3       0       0.7308589       145.4777
2015    3       1       0.76182         149.2608
2015    3       2       0.6245008       130.5865
2015    3       3       0.6857228       138.4395
2015    3       4       0.8242357       155.9586
2015    3       5       0.9511701       169.9135
2015    3       6       0.9393975       169.1889
2015    3       7       0.8826529       162.9124
2015    4       0       0.9506393       170.0691
2015    4       1       0.9965719       174.5234
2015    4       2       1.328106        202.6436
2015    4       3       1.030319        176.9427
2015    4       4       0.9836561       172.4903
2015    4       5       0.9439336       168.3836
2015    4       6       0.9702993       171.6707
2015    4       7       0.8568291       159.951
2015    5       0       0.8241653       156.5327
2015    5       1       0.8325063       157.5195
2015    5       2       0.7985904       153.2881
2015    5       3       0.7649171       149.0421
2015    5       4       0.7127825       142.6464
2015    5       5       0.6906891       140.0823
2015    5       6       0.6081598       128.5373
2015    5       7       0.4681887       106.3527
2015    6       0       0.4253526       98.83737
2015    6       1       0.4293173       99.36076
2015    6       2       0.392392        92.61847
2015    6       3       0.3618318       87.05459
2015    6       4       0.3628332       87.48661
2015    6       5       0.3667926       88.34526
2015    6       6       0.3928905       93.13076
2015    6       7       0.4103925       96.26795
2015    7       0       0.3836414       91.10913
2015    7       1       0.3479482       83.34621
2015    7       2       0.3202845       77.83975
2015    7       3       0.2758768       68.79998
2015    7       4       0.1743622       47.6089
2015    7       5       0.1707432       46.64185
2015    7       6       0.179891        48.64086
2015    7       7       0.180204        48.93313
2015    8       0       0.2010492       53.20381
2015    8       1       0.1961212       52.29395
2015    8       2       0.2020247       53.70001
2015    8       3       0.220174        57.64535
2015    8       4       0.3564683       85.63357
2015    8       5       0.5737817       123.2098
2015    8       6       0.6345494       132.6093
2015    8       7       0.5711056       123.2379
2015    9       0       0.4813111       108.618
2015    9       1       0.5692695       122.7489
2015    9       2       0.672748        137.6941
2015    9       3       0.6763879       137.9529
2015    9       4       0.6336228       132.2669
2015    9       5       0.5738432       123.5625
2015    9       6       0.5019062       112.1725
2015    9       7       0.4341402       100.6455
2015    10      0       0.4175195       97.64449
2015    10      1       0.4280993       99.50201
2015    10      2       0.4262827       99.10443
2015    10      3       0.3706589       88.81023
2015    10      4       0.2972886       74.5314
2015    10      5       0.2677896       68.52859
2015    10      6       0.2454845       63.89066
2015    10      7       0.2374566       62.14974
2015    11      0       0.2803396       71.08309
2015    11      1       0.337282        82.25932
2015    11      2       0.374375        89.00344
2015    11      3       0.3830496       90.46186
2015    11      4       0.4459389       101.7661
2015    11      5       0.539588        117.2897
2015    11      6       0.5151223       113.5218
2015    11      7       0.421777        97.72265
2015    12      0       0.3362239       81.98379
2015    12      1       0.3111729       77.0607
2015    12      2       0.3134547       77.31684
2015    12      3       0.2824822       70.96147
2015    12      4       0.2315265       60.26024
2015    12      5       0.1859608       50.03684
2015    12      6       0.272492        67.48674
2015    12      7       0.3126498       75.66489
2015    13      0       0.2929096       71.91923
2015    13      1       0.2423964       61.81444
2015    13      2       0.175496        47.48781
2015    13      3       0.1246298       35.82463
2015    13      4       0.1080698       31.82115
2015    13      5       0.1175502       33.97365
2015    13      6       0.1238359       35.38613
2015    13      7       0.1272309       36.10008
2015    14      0       0.149995        41.15078
2015    14      1       0.1756679       46.74561
2015    14      2       0.189323        49.8019
2015    14      3       0.2036226       53.1007
2015    14      4       0.2409369       61.03387
2015    14      5       0.2584887       64.83947
2015    14      6       0.2764089       68.49595
2015    14      7       0.3796941       88.19232
2015    15      0       0.5134741       111.7369
2015    15      1       0.6646824       134.7072
2015    15      2       0.6304729       130.2086
2015    15      3       0.6981493       139.9731
2015    15      4       0.7631695       149.2872
2015    15      5       0.700566        141.4597
2015    15      6       0.3314236       81.59244
2015    15      7       0.1608655       44.95866
2015    16      0       0.1154165       33.86856
2015    16      1       0.1233864       35.01565
2015    16      2       0.1597405       43.01324
2015    16      3       0.2904152       71.59409
2015    16      4       0.5461091       117.3569
2015    16      5       0.4737079       105.8693
2015    16      6       0.3258374       79.10359
2015    16      7       0.2231998       58.09393
2015    17      0       0.2576606       65.72543
2015    17      1       0.2471309       63.45436
2015    17      2       0.2013259       53.66619
2015    17      3       0.1869598       50.5391
2015    17      4       0.1856456       50.27003
2015    17      5       0.1717131       47.15532
2015    17      6       0.2031124       53.67841
2015    17      7       0.2523662       63.62939
2015    18      0       0.2938857       72.20062
2015    18      1       0.3546997       84.05309
2015    18      2       0.4183077       96.45082
2015    18      3       0.3694239       88.33502
2015    18      4       0.2700966       69.20312
2015    18      5       0.2124591       56.93064
2015    18      6       0.1990933       53.63572
2015    18      7       0.1421584       40.55288
2015    19      0       0.132721        38.46655
2015    19      1       0.1577962       44.27935
2015    19      2       0.1350848       38.93135
2015    19      3       0.100227        30.41892
2015    19      4       0.1059052       31.90425
2015    19      5       0.09283209      28.65872
2015    19      6       0.08304935      26.09295
2015    19      7       0.06816713      22.27109
2015    20      0       0.06058232      20.31902
2015    20      1       0.09227312      28.35301
2015    20      2       0.1380483       39.54493
2015    20      3       0.1686255       46.57463
2015    20      4       0.3275933       79.50608
2015    20      5       0.4312425       96.95739
2015    20      6       0.4670883       102.6282
2015    20      7       0.4279888       96.25059
2015    21      0       0.3232597       77.67333
2015    21      1       0.2914848       71.67862
2015    21      2       0.2978211       72.9591
2015    21      3       0.3346229       80.06777
2015    21      4       0.4052249       92.94009
2015    21      5       0.5341919       113.6508
2015    21      6       0.5462201       115.7461
2015    21      7       0.4854769       106.5366
2015    22      0       0.4060841       93.01611
2015    22      1       0.3117699       75.71396
2015    22      2       0.3195048       76.79622
2015    22      3       0.3908224       89.45841
2015    22      4       0.4960548       107.2977
2015    22      5       0.6146831       125.7735
2015    22      6       0.7091339       138.1274
2015    22      7       0.8343359       152.5923
2015    23      0       0.8782934       157.6646
2015    23      1       0.8714111       157.0008
2015    23      2       0.8713954       156.3074
2015    23      3       0.8964977       158.5687
2015    23      4       1.030455        171.4233
2015    23      5       1.086473        177.2216
2015    23      6       1.045371        175.0303
2015    23      7       0.8730863       159.1115
2015    24      0       0.8613766       158.5965
2015    24      1       1.055259        179.4303
2015    24      2       0.9461164       167.6844
2015    24      3       0.8874979       161.2132
2015    24      4       0.8344058       154.6778
2015    24      5       0.7858598       148.2076
2015    24      6       0.8143594       150.3159
2015    24      7       0.8191817       150.0615
2015    25      0       0.6099534       123.9669
2015    25      1       0.3406196       81.50167
2015    25      2       0.1234522       36.06866
2015    25      3       0.05840084      19.74646
2015    25      4       0.06018232      20.21198
2015    25      5       0.06723345      22.0551
2015    25      6       0.06296583      20.93599
2015    25      7       0.06697467      21.84996
2015    26      0       0.08883845      27.12531
2015    26      1       0.09551236      28.59023
2015    26      2       0.09716275      28.92187
2015    26      3       0.1364591       38.17311
2015    26      4       0.1604605       43.59632
2015    26      5       0.1584405       43.34155
2015    26      6       0.1878979       50.15709
2015    26      7       0.2226226       58.1813
2015    27      0       0.2284819       59.53642
2015    27      1       0.2104715       55.2449
2015    27      2       0.1580122       43.40577
2015    27      3       0.1218871       34.70484
2015    27      4       0.1420281       39.0073
2015    27      5       0.1547113       42.02266
2015    27      6       0.1312022       37.31632
2015    27      7       0.1248473       35.9859
2015    28      0       0.1142894       33.56224
2015    28      1       0.1064773       31.64094
2015    28      2       0.1014854       30.47829
2015    28      3       0.0976815       29.54028
2015    28      4       0.1034851       30.85518
2015    28      5       0.1088353       32.1355
2015    28      6       0.1137982       33.29023
2015    28      7       0.121           34.96517
2015    29      0       0.1299042       36.99719
2015    29      1       0.140865        39.41576
2015    29      2       0.1391813       39.11254
2015    29      3       0.1375387       38.81063
2015    29      4       0.1412867       39.68846
2015    29      5       0.1347312       38.21356
2015    29      6       0.1208449       34.88999
2015    29      7       0.107275        31.67696
2015    30      0       0.1005903       30.27417
2015    30      1       0.1146821       33.83088
2015    30      2       0.1201984       34.99595
2015    30      3       0.1260724       36.10681
2015    30      4       0.1258936       35.92242
2015    30      5       0.1786534       47.96373
2015    30      6       0.1940788       52.14694
2015    30      7       0.1463461       41.66769
2015    31      0       0.1284264       37.22604
2015    31      1       0.1454677       40.67171
2015    31      2       0.1643956       44.92616
2015    31      3       0.1334793       37.76983
2015    31      4       0.1180152       34.06038
2015    31      5       0.1037945       30.73977
2015    31      6       0.1110136       32.46739
2015    31      7       0.1296721       36.94919
2016    1       0       0.1007698       30.67768
2016    1       1       0.1033046       31.28505
2016    1       2       0.1007773       30.58434
2016    1       3       0.09708271      29.60203
2016    1       4       0.09509607      29.06206
2016    1       5       0.0928847       28.50644
2016    1       6       0.08759746      27.19862
2016    1       7       0.08379125      26.19448
2016    2       0       0.0873383       27.02623
2016    2       1       0.1002235       30.06193
2016    2       2       0.1097712       32.21224
2016    2       3       0.135023        37.65919
2016    2       4       0.1496402       40.80609
2016    2       5       0.1318117       37.04132
2016    2       6       0.1421389       39.2787
2016    2       7       0.1531313       41.67159
2016    3       0       0.243814        59.93157
2016    3       1       0.256516        63.02221
2016    3       2       0.1705724       45.9222
2016    3       3       0.1721808       46.32535
2016    3       4       0.1893249       49.99285
2016    3       5       0.195702        51.29582
2016    3       6       0.1988359       51.92146
2016    3       7       0.1890574       49.96847
2016    4       0       0.1711122       46.16538
2016    4       1       0.1651365       44.92733
2016    4       2       0.1581451       43.39777
2016    4       3       0.151599        41.89996
2016    4       4       0.1499915       41.49405
2016    4       5       0.1505741       41.52295
2016    4       6       0.1610916       43.80395
2016    4       7       0.184348        48.88787
2016    5       0       0.1957295       51.52567
2016    5       1       0.2125809       55.5803
2016    5       2       0.2266883       58.69442
2016    5       3       0.2373875       61.03315
2016    5       4       0.2421856       62.06079
2016    5       5       0.248502        63.41406
2016    5       6       0.2736279       68.66364
2016    5       7       0.2939252       72.73358
2016    6       0       0.2852878       70.95683
2016    6       1       0.2747009       68.75022
2016    6       2       0.2645683       66.74668
2016    6       3       0.2446291       62.72287
2016    6       4       0.2223091       58.08529
2016    6       5       0.2136293       56.27194
2016    6       6       0.2083655       55.25476
2016    6       7       0.2009579       53.73674
2016    7       0       0.1988491       53.24646
2016    7       1       0.1877518       50.76419
2016    7       2       0.1895756       51.14716
2016    7       3       0.1735855       47.46604
2016    7       4       0.1789334       48.49813
2016    7       5       0.200351        52.92068
2016    7       6       0.2148145       55.93579
2016    7       7       0.2289439       58.90085
2016    8       0       0.2644894       66.30876
2016    8       1       0.2965442       72.77266
2016    8       2       0.3076138       74.80313
2016    8       3       0.3162178       76.32078
2016    8       4       0.3366154       80.20985
2016    8       5       0.3535064       83.26313
2016    8       6       0.3415432       81.10663
2016    8       7       0.3380362       80.44371
2016    9       0       0.3416091       81.21328
2016    9       1       0.4020262       92.63654
2016    9       2       0.2991028       73.07511
2016    9       3       0.2540967       64.40463
2016    9       4       0.2405581       61.7548
2016    9       5       0.2518754       63.93482
2016    9       6       0.2605875       65.42842
2016    9       7       0.2319234       59.72704
2016    10      0       0.2162292       56.4332
2016    10      1       0.2049472       53.98256
2016    10      2       0.194929        51.83856
2016    10      3       0.1996656       52.82303
2016    10      4       0.2073293       54.54168
2016    10      5       0.1989799       53.00293
2016    10      6       0.1802383       49.07307
2016    10      7       0.1665798       46.17114
2016    11      0       0.1736392       47.80669
2016    11      1       0.1882842       51.01961
2016    11      2       0.2054402       54.75624
2016    11      3       0.2107163       55.8769
2016    11      4       0.1898917       51.28205
2016    11      5       0.1713105       47.0416
2016    11      6       0.171336        46.91715
2016    11      7       0.1879154       50.44805
2016    12      0       0.1963426       52.2854
2016    12      1       0.1855785       50.10292
2016    12      2       0.1876441       50.68897
2016    12      3       0.1893725       51.01233
2016    12      4       0.1969596       52.74661
2016    12      5       0.1844925       50.01051
2016    12      6       0.1802017       48.75265
2016    12      7       0.1748342       47.5138
2016    13      0       0.2031103       54.16814
2016    13      1       0.2277455       59.67716
2016    13      2       0.2056947       54.93869
2016    13      3       0.1902632       51.5351
2016    13      4       0.2038337       54.53236
2016    13      5       0.1793282       49.01626
2016    13      6       0.1200985       35.1025
2016    13      7       0.1021406       30.41642
2016    14      0       0.1205142       34.62886
2016    14      1       0.1357878       38.09463
2016    14      2       0.1613039       43.98307
2016    14      3       0.2043189       53.49229
2016    14      4       0.2645987       66.16643
2016    14      5       0.3166375       76.537
2016    14      6       0.3318446       79.34423
2016    14      7       0.3599283       84.61601
2016    15      0       0.3687237       86.58583
2016    15      1       0.4189765       95.68436
2016    15      2       0.4308334       97.85434
2016    15      3       0.4511981       101.132
2016    15      4       0.5858899       122.292
2016    15      5       0.8815108       160.3594
2016    15      6       0.6680904       134.2715
2016    15      7       0.6623692       132.5797
2016    16      0       0.7218928       140.063
2016    16      1       0.8824709       159.3848
2016    16      2       0.9567075       167.0507
2016    16      3       0.9324849       164.3176
2016    16      4       0.9180315       162.952
2016    16      5       0.9423355       165.957
2016    16      6       0.6137714       126.3073
2016    16      7       0.6252254       127.0884
2016    17      0       0.6191115       125.2065
2016    17      1       0.661539        131.5753
2016    17      2       0.6940655       135.9739
2016    17      3       0.7143552       138.464
2016    17      4       0.5824045       120.9198
2016    17      5       0.509554        110.4546
2016    17      6       0.4877144       106.874
2016    17      7       0.51086         110.2106
2016    18      0       0.4615108       102.5466
2016    18      1       0.4087602       93.85956
2016    18      2       0.4017611       92.45097
2016    18      3       0.3644572       85.65061
2016    18      4       0.3159464       76.88874
2016    18      5       0.3000297       74.11466
2016    18      6       0.281932        70.61268
2016    18      7       0.2688915       68.0222
2016    19      0       0.2386349       61.78136
2016    19      1       0.2333058       60.6929
2016    19      2       0.2195356       57.76919
2016    19      3       0.2253889       58.79773
2016    19      4       0.2165095       56.84442
2016    19      5       0.2097711       55.3626
2016    19      6       0.1945039       51.98832
2016    19      7       0.1805172       48.90885
2016    20      0       0.1865377       50.21477
2016    20      1       0.1937009       51.85148
2016    20      2       0.2018359       53.62692
2016    20      3       0.2002236       53.22662
2016    20      4       0.1932703       51.71709
2016    20      5       0.1753961       47.81704
2016    20      6       0.1571569       43.75766
2016    20      7       0.1492585       41.9602
2016    21      0       0.144985        40.91196
2016    21      1       0.1442227       40.63268
2016    21      2       0.1407559       39.77124
2016    21      3       0.1248001       36.00688
2016    21      4       0.1173232       34.34435
2016    21      5       0.1678787       46.2317
2016    21      6       0.2543638       65.04759
2016    21      7       0.2641808       67.05218
2016    22      0       0.2328727       60.37455
2016    22      1       0.188869        50.98604
2016    22      2       0.1590173       44.2081
2016    22      3       0.1374973       39.19179
2016    22      4       0.1235182       35.87814
2016    22      5       0.1428366       40.55942
2016    22      6       0.1484127       41.95167
2016    22      7       0.1450829       41.15405
2016    23      0       0.1479131       41.81051
2016    23      1       0.1353917       38.81176
2016    23      2       0.1158506       34.00268
2016    23      3       0.1313947       37.4681
2016    23      4       0.1733003       46.76142
2016    23      5       0.1660833       45.34799
2016    23      6       0.1742491       47.08682
2016    23      7       0.1864163       49.42315
2016    24      0       0.3934303       89.22351
2016    24      1       0.5922808       123.245
2016    24      2       0.7973831       150.871
2016    24      3       0.6671031       133.608
2016    24      4       0.521602        112.2899
2016    24      5       0.3784335       88.02099
2016    24      6       0.3065222       74.19938
2016    24      7       0.4314472       96.1251
2016    25      0       0.7048543       135.977
2016    25      1       0.7405772       139.8933
2016    25      2       0.6597795       129.8913
2016    25      3       0.7181044       137.4106
2016    25      4       0.7411677       139.3814
2016    25      5       0.9561463       162.6607
2016    25      6       0.9185696       159.4754
2016    25      7       0.9598766       163.2183
2016    26      0       0.9789187       165.3892
2016    26      1       1.00903         169.0021
2016    26      2       0.9696436       165.3349
2016    26      3       0.9412662       163.0929
2016    26      4       0.8968758       158.9631
2016    26      5       0.8965894       159.3546
2016    26      6       0.8660212       155.3477
2016    26      7       0.8366077       151.4462
2016    27      0       0.7265232       139.1665
2016    27      1       0.6518737       129.0388
2016    27      2       0.49342         105.6891
2016    27      3       0.4409465       97.51728
2016    27      4       0.4591054       101.5977
2016    27      5       0.3614688       85.61517
2016    27      6       0.3426256       82.59842
2016    27      7       0.3775876       89.25771
2016    28      0       0.3642225       86.61796
2016    28      1       0.4161639       95.72751
2016    28      2       0.3091124       75.89895
2016    28      3       0.2099981       55.62496
2016    28      4       0.1301671       37.6271
2016    28      5       0.0869997       27.05943
2016    28      6       0.1114489       33.02975
2016    28      7       0.1620438       44.83066
2016    29      0       0.1237707       35.67218
2016    29      1       0.1305274       37.31918
2016    29      2       0.1619638       44.69481
2016    29      3       0.1774401       48.014
2016    29      4       0.1783874       48.08256
2016    29      5       0.1291456       36.43745
2016    29      6       0.134572        37.63161
2016    29      7       0.1509615       41.20675
2016    30      0       0.1790906       46.96613
2016    30      1       0.1826125       47.64303
2016    30      2       0.1859659       48.59708
2016    30      3       0.1811173       47.83368
2016    30      4       0.2097304       54.32689
2016    30      5       0.2246866       57.74992
2016    30      6       0.2191582       56.59288
2016    30      7       0.2245597       57.91744
2016    31      0       0.2231402       57.59654
2016    31      1       0.2160253       56.07752
2016    31      2       0.2348229       59.57416
2016    31      3       0.2553778       63.2322
2016    31      4       0.241476        60.52388
2016    31      5       0.2002142       52.05714
2016    31      6       0.1338758       37.7678
2016    31      7       0.06837334      22.36095
2017    1       0       0.1586189       44.52031
2017    1       1       0.1544607       43.58783
2017    1       2       0.1478032       42.14671
2017    1       3       0.1345787       39.0569
2017    1       4       0.118715        35.18935
2017    1       5       0.1174108       34.83508
2017    1       6       0.1214866       35.8254
2017    1       7       0.1234857       36.31633
2017    2       0       0.1239355       36.35301
2017    2       1       0.1336414       38.59245
2017    2       2       0.1558775       43.82623
2017    2       3       0.1930873       52.29384
2017    2       4       0.2564264       66.22743
2017    2       5       0.3230824       79.81119
2017    2       6       0.3492557       84.68699
2017    2       7       0.3646132       87.51638
2017    3       0       0.373973        89.40858
2017    3       1       0.3258491       80.11457
2017    3       2       0.2332814       60.84859
2017    3       3       0.1938896       52.05607
2017    3       4       0.1855522       50.36539
2017    3       5       0.1767842       48.65667
2017    3       6       0.1641407       45.8349
2017    3       7       0.1596615       44.87489
2017    4       0       0.1515505       42.79995
2017    4       1       0.1570062       43.77237
2017    4       2       0.1644969       45.54044
2017    4       3       0.1575958       43.98988
2017    4       4       0.159787        44.54903
2017    4       5       0.1658246       45.97949
2017    4       6       0.1654944       45.96839
2017    4       7       0.1639645       45.67549
2017    5       0       0.1586139       44.40163
2017    5       1       0.1541632       43.3232
2017    5       2       0.1464271       41.51188
2017    5       3       0.1287103       37.29305
2017    5       4       0.1230062       36.00552
2017    5       5       0.1290765       37.5684
2017    5       6       0.1099552       32.88111
2017    5       7       0.09038925      27.92435
2017    6       0       0.08305662      26.00419
2017    6       1       0.07942576      25.06905
2017    6       2       0.08769105      27.11023
2017    6       3       0.1122276       33.05979
2017    6       4       0.1395622       39.66003
2017    6       5       0.1639876       45.40785
2017    6       6       0.1783705       48.79329
2017    6       7       0.1788055       48.94602
2017    7       0       0.1698114       46.82124
2017    7       1       0.1593051       44.21399
2017    7       2       0.1620001       44.61541
2017    7       3       0.1700993       46.34129
2017    7       4       0.1748153       47.49549
2017    7       5       0.1759798       47.8242
2017    7       6       0.154156        42.87253
2017    7       7       0.1173485       34.33147
2017    8       0       0.0941649       28.71258
2017    8       1       0.09191936      28.06625
2017    8       2       0.09023961      27.65206
2017    8       3       0.08740737      26.9543
2017    8       4       0.0922168       28.20264
2017    8       5       0.09944431      30.02543
2017    8       6       0.08923331      27.55553
2017    8       7       0.07527089      24.02635
2017    9       0       0.07152079      23.10086
2017    9       1       0.07566309      24.19832
2017    9       2       0.08091346      25.51775
2017    9       3       0.08479056      26.42833
2017    9       4       0.1007765       30.16549
2017    9       5       0.1262765       35.96982
2017    9       6       0.164653        44.22214
2017    9       7       0.1943913       50.60627
2017    10      0       0.2013424       52.39495
2017    10      1       0.2184843       56.2965
2017    10      2       0.2222244       57.31586
2017    10      3       0.2040104       53.67817
2017    10      4       0.2218106       57.43155
2017    10      5       0.2560514       64.57699
2017    10      6       0.2945032       72.5922
2017    10      7       0.2785618       69.70924
2017    11      0       0.2436299       62.6644
2017    11      1       0.2258543       58.90227
2017    11      2       0.2189417       57.42841
2017    11      3       0.2195169       57.57764
2017    11      4       0.2308146       60.1338
2017    11      5       0.2521178       64.79464
2017    11      6       0.2802168       70.53625
2017    11      7       0.3086588       76.02641
2017    12      0       0.3453716       82.52517
2017    12      1       0.4541172       100.7431
2017    12      2       0.4800355       105.038
2017    12      3       0.5002961       108.0322
2017    12      4       0.441043        98.81261
2017    12      5       0.5064227       109.2639
2017    12      6       0.5676134       118.6196
2017    12      7       0.560118        117.618
2017    13      0       0.6183059       125.9459
2017    13      1       0.6186534       125.7543
2017    13      2       0.6061568       124.53
2017    13      3       0.5642589       118.9576
2017    13      4       0.5809604       121.7464
2017    13      5       0.5793932       121.3612
2017    13      6       0.5792883       120.6162
2017    13      7       0.6219558       126.6954
2017    14      0       0.6967021       136.5472
2017    14      1       0.7474304       142.941
2017    14      2       0.7680899       145.8738
2017    14      3       0.6583655       132.1819
2017    14      4       0.6266854       128.515
2017    14      5       0.7593534       145.9873
2017    14      6       0.8010347       150.6649
2017    14      7       0.8018916       150.4461
2017    15      0       0.7815352       147.2186
2017    15      1       0.7350932       141.0706
2017    15      2       0.6605624       131.5102
2017    15      3       0.5477296       115.5829
2017    15      4       0.5170713       111.5217
2017    15      5       0.5458906       115.7635
2017    15      6       0.7009072       137.1747
2017    15      7       0.735514        142.0861
2017    16      0       0.6477945       130.5247
2017    16      1       0.747275        143.2624
2017    16      2       0.7722495       145.9445
2017    16      3       0.5884231       121.8666
2017    16      4       0.6513666       130.6985
2017    16      5       0.7425317       142.8265
2017    16      6       0.6684844       133.1359
2017    16      7       0.5771628       120.6933
2017    17      0       0.5660501       118.6934
2017    17      1       0.4374444       98.45805
2017    17      2       0.2624079       66.64663
2017    17      3       0.2635604       66.84306
2017    17      4       0.3243606       78.49567
2017    17      5       0.3327949       80.0472
2017    17      6       0.2844602       70.04926
2017    17      7       0.2835376       69.27075
2017    18      0       0.3102442       74.44543
2017    18      1       0.3590361       84.09743
2017    18      2       0.394667        91.42617
2017    18      3       0.3727975       88.15379
2017    18      4       0.3186117       78.32498
2017    18      5       0.2486448       64.17891
2017    18      6       0.2006761       53.68706
2017    18      7       0.202664        54.25689
2017    19      0       0.2239811       58.95615
2017    19      1       0.2344494       61.05247
2017    19      2       0.2305118       60.22749
2017    19      3       0.1778353       48.91865
2017    19      4       0.1749041       47.93875
2017    19      5       0.2051482       54.39593
2017    19      6       0.205612        54.47369
2017    19      7       0.1896516       50.87568
2017    20      0       0.178668        48.4239
2017    20      1       0.1669316       45.77372
2017    20      2       0.1543364       42.84031
2017    20      3       0.1465102       40.99571
2017    20      4       0.1436906       40.34123
2017    20      5       0.1346759       38.32089
2017    20      6       0.1232005       35.63397
2017    20      7       0.1131744       33.24398
2017    21      0       0.113738        33.39288
2017    21      1       0.1152758       33.77382
2017    21      2       0.1170207       34.17957
2017    21      3       0.1208551       35.07888
2017    21      4       0.1333431       38.02662
2017    21      5       0.163238        45.05155
2017    21      6       0.1776082       48.44682
2017    21      7       0.1898388       51.02418
2017    22      0       0.2330181       60.36649
2017    22      1       0.2984524       73.58938
2017    22      2       0.3168934       76.95878
2017    22      3       0.2730311       68.31827
2017    22      4       0.2537009       64.15438
2017    22      5       0.2370566       60.68763
2017    22      6       0.2083506       54.34404
2017    22      7       0.1879532       49.25288
2017    23      0       0.1663461       44.50351
2017    23      1       0.173196        45.89034
2017    23      2       0.1650394       44.26898
2017    23      3       0.1858385       48.70779
2017    23      4       0.2837321       68.37668
2017    23      5       0.2508514       61.90407
2017    23      6       0.1423913       39.44591
2017    23      7       0.1180756       34.10657
2017    24      0       0.1043003       31.05939
2017    24      1       0.1170405       34.23984
2017    24      2       0.16318         44.86836
2017    24      3       0.2160868       56.21826
2017    24      4       0.346499        80.55827
2017    24      5       0.5387656       113.5751
2017    24      6       0.6449394       129.2272
2017    24      7       0.5294627       113.2575
2017    25      0       0.4339715       97.77058
2017    25      1       0.4745259       104.7453
2017    25      2       0.4161721       95.29835
2017    25      3       0.3490711       83.40819
2017    25      4       0.333953        80.62532
2017    25      5       0.3206249       78.22436
2017    25      6       0.2970594       73.86286
2017    25      7       0.272607        69.2008
2017    26      0       0.2777006       70.05935
2017    26      1       0.3030134       74.93658
2017    26      2       0.3819379       89.42483
2017    26      3       0.4699401       104.1236
2017    26      4       0.5031129       109.2358
2017    26      5       0.4362904       98.43685
2017    26      6       0.4197409       95.91962
2017    26      7       0.3639919       86.03824
2017    27      0       0.3031563       74.39251
2017    27      1       0.2576923       65.12434
2017    27      2       0.2509886       63.66663
2017    27      3       0.2573865       64.93219
2017    27      4       0.2715764       67.76209
2017    27      5       0.2809146       69.53399
2017    27      6       0.2893025       70.94294
2017    27      7       0.3197045       76.38287
2017    28      0       0.3082231       74.35466
2017    28      1       0.3130866       75.08524
2017    28      2       0.3577052       82.69438
2017    28      3       0.358942        83.33559
2017    28      4       0.3387623       80.07094
2017    28      5       0.3067535       74.27303
2017    28      6       0.298741        72.55444
2017    28      7       0.2915532       71.1265
2017    29      0       0.3012729       73.18196
2017    29      1       0.3009045       73.50338
2017    29      2       0.2922941       71.9056
2017    29      3       0.2749953       68.45542
2017    29      4       0.2655567       66.37404
2017    29      5       0.2574497       64.70957
2017    29      6       0.2326766       59.75095
2017    29      7       0.1770654       47.84367
2017    30      0       0.146361        41.08965
2017    30      1       0.1309139       37.68281
2017    30      2       0.125971        36.58729
2017    30      3       0.1238361       36.08336
2017    30      4       0.1179013       34.66512
2017    30      5       0.1136725       33.66167
2017    30      6       0.1123064       33.35341
2017    30      7       0.1147056       33.9664
2017    31      0       0.1115478       33.18975
2017    31      1       0.1102466       32.80545
2017    31      2       0.118497        34.7181
2017    31      3       0.1281295       36.90317
2017    31      4       0.1232072       35.77759
2017    31      5       0.1137536       33.51167
2017    31      6       0.1173799       34.42499
2017    31      7       0.1238759       35.98199
2018    1       0       0.3456739       82.51289
2018    1       1       0.3718781       87.46175
2018    1       2       0.3796857       88.75638
2018    1       3       0.3765437       87.96979
2018    1       4       0.3949431       91.22554
2018    1       5       0.3886925       90.15996
2018    1       6       0.3567295       84.3619
2018    1       7       0.3202644       77.51105
2018    2       0       0.2988647       73.4772
2018    2       1       0.2884952       71.5052
2018    2       2       0.2884262       71.49652
2018    2       3       0.3053536       74.74182
2018    2       4       0.3476031       82.6892
2018    2       5       0.3834636       89.2748
2018    2       6       0.3915432       90.98901
2018    2       7       0.392679        91.48346
2018    3       0       0.3721395       87.73918
2018    3       1       0.3483824       83.29811
2018    3       2       0.352462        83.97199
2018    3       3       0.371914        87.50444
2018    3       4       0.3644922       86.01452
2018    3       5       0.3714759       87.40594
2018    3       6       0.4059083       93.5054
2018    3       7       0.4469266       100.8538
2018    4       0       0.4289387       97.32624
2018    4       1       0.5097277       109.5818
2018    4       2       0.553251        116.4484
2018    4       3       0.4713146       104.285
2018    4       4       0.5101717       110.2806
2018    4       5       0.5252241       112.8138
2018    4       6       0.5140664       111.5596
2018    4       7       0.5253639       113.7482
2018    5       0       0.4806499       106.9803
2018    5       1       0.5243667       113.6219
2018    5       2       0.6396594       129.7687
2018    5       3       0.6634057       132.7918
2018    5       4       0.6252922       127.6127
2018    5       5       0.6053709       124.768
2018    5       6       0.5386145       115.1098
2018    5       7       0.4394964       99.55476
2018    6       0       0.3511353       84.14046
2018    6       1       0.278911        70.10951
2018    6       2       0.2524849       64.48621
2018    6       3       0.2616896       66.26795
2018    6       4       0.2967242       72.72146
2018    6       5       0.3900767       90.0288
2018    6       6       0.6154775       126.3042
2018    6       7       0.6073232       126.926
2018    7       0       0.5183788       113.2532
2018    7       1       0.5230435       113.8717
2018    7       2       0.5378164       116.2716
2018    7       3       0.510143        111.7374
2018    7       4       0.4845793       107.5028
2018    7       5       0.4339925       98.7061
2018    7       6       0.3311703       80.18454
2018    7       7       0.2756888       69.3225
2018    8       0       0.2394416       61.68194
2018    8       1       0.1875543       50.4168
2018    8       2       0.1818541       48.8705
2018    8       3       0.2430205       61.69656
2018    8       4       0.27708         68.74473
2018    8       5       0.2256098       57.78546
2018    8       6       0.126394        36.13006
2018    8       7       0.1149809       33.98282
2018    9       0       0.1428557       41.0275
2018    9       1       0.2127883       57.22241
2018    9       2       0.2728268       69.93445
2018    9       3       0.3250605       80.11476
2018    9       4       0.4008548       94.03642
2018    9       5       0.3634276       86.61538
2018    9       6       0.3878381       91.06175
2018    9       7       0.3439546       83.11761
2018    10      0       0.455912        104.243
2018    10      1       0.4825006       109.0368
2018    10      2       0.3769505       90.33169
2018    10      3       0.3000396       75.64804
2018    10      4       0.2097027       56.28699
2018    10      5       0.1888275       51.63472
2018    10      6       0.1909999       52.22596
2018    10      7       0.1830172       50.20695
2018    11      0       0.163973        45.48177
2018    11      1       0.1516242       42.72234
2018    11      2       0.1348777       38.57734
2018    11      3       0.1598511       44.60352
2018    11      4       0.1863731       50.7611
2018    11      5       0.1924764       52.22234
2018    11      6       0.1810636       49.76048
2018    11      7       0.165135        46.23054
2018    12      0       0.150219        42.74207
2018    12      1       0.1384286       39.84984
2018    12      2       0.1367995       39.45593
2018    12      3       0.137857        39.742
2018    12      4       0.1380349       39.81268
2018    12      5       0.1422604       40.81709
2018    12      6       0.1424434       40.81932
2018    12      7       0.1467903       41.70859
2018    13      0       0.1536262       43.16266
2018    13      1       0.1587145       44.24189
2018    13      2       0.2161049       57.32079
2018    13      3       0.3101303       77.21205
2018    13      4       0.3111924       77.29788
2018    13      5       0.3310347       79.95338
2018    13      6       0.3290139       78.39954
2018    13      7       0.2161978       56.51531
2018    14      0       0.2185127       57.29175
2018    14      1       0.2421676       62.54771
2018    14      2       0.2550892       65.19311
2018    14      3       0.2705107       68.18834
2018    14      4       0.2694169       67.87422
2018    14      5       0.2588392       65.82041
2018    14      6       0.2413049       62.35986
2018    14      7       0.2253895       59.05279
2018    15      0       0.2156945       56.95792
2018    15      1       0.2044005       54.47678
2018    15      2       0.1840633       49.93731
2018    15      3       0.1755712       47.93741
2018    15      4       0.1749021       47.70179
2018    15      5       0.1691802       46.54786
2018    15      6       0.1649788       45.58332
2018    15      7       0.1595899       44.32159
2018    16      0       0.1554625       43.40381
2018    16      1       0.1481772       41.7857
2018    16      2       0.1418488       40.38524
2018    16      3       0.1320257       38.12194
2018    16      4       0.1220448       35.70126
2018    16      5       0.1217373       35.50267
2018    16      6       0.115418        33.79307
2018    16      7       0.101747        30.18266
2018    17      0       0.0787051       24.5141
2018    17      1       0.06906682      22.08948
2018    17      2       0.07120356      22.4762
2018    17      3       0.08884579      26.63455
2018    17      4       0.1200225       34.21594
2018    17      5       0.1668648       45.50509
2018    17      6       0.2393673       61.93673
2018    17      7       0.2770829       69.85651
2018    18      0       0.2927336       72.85826
2018    18      1       0.2920524       72.61609
2018    18      2       0.2822098       70.35085
2018    18      3       0.2611198       65.71086
2018    18      4       0.1939533       51.21874
2018    18      5       0.1238107       35.3381
2018    18      6       0.0801044       24.98012
2018    18      7       0.09569792      29.00623
2018    19      0       0.1176532       34.30386
2018    19      1       0.1221646       35.24558
2018    19      2       0.09937619      29.70419
2018    19      3       0.07254981      23.20002
2018    19      4       0.07731887      24.46778
2018    19      5       0.08748303      26.95897
2018    19      6       0.1793285       48.94037
2018    19      7       0.1343356       38.54449
2018    20      0       0.08723198      27.01471
2018    20      1       0.08505228      26.45939
2018    20      2       0.07829035      24.70776
2018    20      3       0.08820644      27.14703
2018    20      4       0.1176272       34.2813
2018    20      5       0.1618636       44.61392
2018    20      6       0.2889014       71.82851
2018    20      7       0.3169825       77.28535
2018    21      0       0.2779411       69.3625
2018    21      1       0.2630788       66.19709
2018    21      2       0.2650523       66.41795
2018    21      3       0.3273662       78.5352
2018    21      4       0.3537827       83.71252
2018    21      5       0.3897589       90.37405
2018    21      6       0.4539372       101.9604
2018    21      7       0.4780351       105.7384
2018    22      0       0.5242008       113.1304
2018    22      1       0.5629212       119.4246
2018    22      2       0.6601366       132.6905
2018    22      3       0.4881404       106.8852
2018    22      4       0.4873347       106.7762
2018    22      5       0.5998473       124.236
2018    22      6       0.7005886       138.1408
2018    22      7       0.6427056       130.1664
2018    23      0       0.4920079       107.7962
2018    23      1       0.3664076       86.2837
2018    23      2       0.3619519       85.42267
2018    23      3       0.3893994       90.40331
2018    23      4       0.362352        85.80629
2018    23      5       0.3475207       83.25422
2018    23      6       0.3125708       76.43911
2018    23      7       0.290609        72.12041
2018    24      0       0.2860518       70.90165
2018    24      1       0.3034265       74.11693
2018    24      2       0.2926394       71.86396
2018    24      3       0.3019618       73.6691
2018    24      4       0.264487        66.37204
2018    24      5       0.2457284       62.52247
2018    24      6       0.2798017       69.24226
2018    24      7       0.2759324       68.43384
2018    25      0       0.2754644       68.52331
2018    25      1       0.3330491       80.06421
2018    25      2       0.451274        101.5233
2018    25      3       0.3964389       91.98266
2018    25      4       0.3609063       85.29122
2018    25      5       0.3229756       78.05519
2018    25      6       0.3375467       80.91237
2018    25      7       0.4316799       97.9166
2018    26      0       0.4759366       105.4326
2018    26      1       0.5314688       113.724
2018    26      2       0.5947645       122.8784
2018    26      3       0.6356891       127.9397
2018    26      4       0.7348939       140.4041
2018    26      5       0.7490475       141.895
2018    26      6       0.7589067       142.821
2018    26      7       0.7727388       144.7103
2018    27      0       0.7560937       143.6135
2018    27      1       0.7532229       143.7418
2018    27      2       0.6676675       133.5504
2018    27      3       0.6908237       137.1612
2018    27      4       0.7294271       142.3383
2018    27      5       0.8643973       158.7546
2018    27      6       0.9052891       163.9463
2018    27      7       0.7945488       151.4424
2018    28      0       0.6484542       132.2341
2018    28      1       0.6207463       127.9002
2018    28      2       0.7337702       143.5353
2018    28      3       0.4078672       94.4062
2018    28      4       0.105608        31.32069
2018    28      5       0.0625756       20.77241
2018    28      6       0.1410975       39.48173
2018    28      7       0.2275801       58.61338
2018    29      0       0.2512877       63.83797
2018    29      1       0.2618788       66.19636
2018    29      2       0.2178968       57.17763
2018    29      3       0.1291945       37.1024
2018    29      4       0.1790309       48.78577
2018    29      5       0.2195007       57.43552
2018    29      6       0.1607862       44.20636
2018    29      7       0.08642071      26.58558
2018    30      0       0.09293084      27.99154
2018    30      1       0.1755012       46.71057
2018    30      2       0.2052258       53.59114
2018    30      3       0.2745065       68.10544
2018    30      4       0.3198289       77.33264
2018    30      5       0.291197        71.73225
2018    30      6       0.222405        56.62742
2018    30      7       0.162828        43.71901
2018    31      0       0.1662724       45.29871
2018    31      1       0.1561409       43.26667
2018    31      2       0.1448379       40.94968
2018    31      3       0.1618581       45.03945
2018    31      4       0.160866        44.86657
2018    31      5       0.0971327       29.5022
2018    31      6       0.08595347      26.55795
2018    31      7       0.102707        30.78989
