####################################################################################################
# Month: 02Feb                                                                                     #
# Station: BMAC                                                                                    #
# Frequency: 230 GHz                                                                               #
# Columns are: year    day     tau     Tb (K)                                                      #
####################################################################################################
2009    1       0.4672835       103.62714625
2009    2       0.72637035      135.93429
2009    3       0.35059398      84.04969375
2009    4       0.21758206      56.84906375
2009    5       0.54596683      113.33803125
2009    6       0.59069806      118.29780875
2009    7       0.18358325      49.59867
2009    8       0.73267766      129.81877125
2009    9       1.06844844      176.34785
2009    10      1.02452831      170.937575
2009    11      0.8698893       155.743075
2009    12      0.82826625      152.121875
2009    13      1.07567352      177.1093125
2009    14      0.96333958      166.7633125
2009    15      0.77625276      141.7098225
2009    16      0.20158759      53.68579
2009    17      0.1618571       44.34340375
2009    18      0.48597979      98.6027025
2009    19      1.16449295      185.92465
2009    20      1.30604689      196.0412
2009    21      1.14602505      185.8030875
2009    22      0.8257791       147.357965
2009    23      0.4803922       104.905235
2009    24      0.81862244      149.5849
2009    25      1.06236704      176.693025
2009    26      0.8705912       157.8933875
2009    27      0.53293181      110.61146375
2009    28      0.74194565      139.851925
2010    1       0.27756582      69.23433375
2010    2       0.23995854      61.6335875
2010    3       0.37489895      85.4577975
2010    4       0.36607301      86.3281975
2010    5       0.43822004      100.29587625
2010    6       0.40823252      93.602185
2010    7       0.71270568      140.2094875
2010    8       0.72895275      141.572775
2010    9       0.51923735      113.47420625
2010    10      1.08670628      180.8172625
2010    11      1.03836832      177.325775
2010    12      1.00914535      173.5356375
2010    13      0.73197076      144.60145
2010    14      0.46333718      103.53511125
2010    15      0.60287231      124.9477025
2010    16      1.16782711      187.592875
2010    17      0.43915912      97.63018125
2010    18      0.26151061      65.566715
2010    19      0.27149682      68.58410125
2010    20      0.22078002      57.20643875
2010    21      0.49980731      106.1712475
2010    22      0.97641119      161.9805375
2010    23      1.1275567       183.1342
2010    24      1.06504721      176.82715
2010    25      0.88159944      157.2664375
2010    26      0.48414584      103.24828375
2010    27      0.18146638      49.07807125
2010    28      0.16635285      46.1740225
2011    1       0.57067074      117.808205
2011    2       0.40536118      92.76849375
2011    3       0.73261302      136.58240875
2011    4       1.00290171      171.208325
2011    5       1.05953346      175.1952375
2011    6       1.03348675      174.6919375
2011    7       0.7126966       138.4428625
2011    8       0.4995883       108.48556875
2011    9       0.92782795      164.47875
2011    10      1.07670239      173.9619625
2011    11      1.0880693       180.15545
2011    12      0.92028888      162.048875
2011    13      0.92712334      163.921475
2011    14      0.39176531      87.82227125
2011    15      0.22490875      57.69873625
2011    16      0.26914352      66.2961125
2011    17      0.9509948       155.25963625
2011    18      1.22546859      190.872425
2011    19      0.65340755      128.8810375
2011    20      0.26082116      64.86732375
2011    21      0.70292796      134.27954
2011    22      0.83477979      153.83675
2011    23      0.47305978      104.23731
2011    24      0.47601645      104.8019525
2011    25      0.52542296      110.75290375
2011    26      0.20685916      54.30201125
2011    27      0.22203001      57.9205675
2011    28      0.12737489      36.84061125
2012    1       1.10795246      179.83375
2012    2       1.44283604      206.706325
2012    3       1.07097414      175.56465
2012    4       0.62528885      126.037445
2012    5       0.29178134      72.41184625
2012    6       0.18525675      50.25076
2012    7       0.20558572      53.079555
2012    8       1.08247232      175.26345
2012    9       1.04279232      174.3418875
2012    10      1.1604608       187.4481875
2012    11      0.16336158      44.7279975
2012    12      0.21199044      55.073735
2012    13      0.19569444      52.245155
2012    14      0.26809899      67.77302125
2012    15      0.42282144      97.08586375
2012    16      0.30819935      76.38377125
2012    17      0.81069966      145.6051525
2012    18      0.63998966      130.0488125
2012    19      0.68164246      132.49207125
2012    20      0.90514715      161.1332625
2012    21      0.89140748      160.849375
2012    22      0.26014486      64.98514125
2012    23      0.17806426      48.5495775
2012    24      0.25615683      65.3177575
2012    25      0.30967778      76.12214125
2012    26      0.43894605      97.17066875
2012    27      0.69432061      137.4454625
2012    28      0.79410346      150.1174375
2012    29      0.86008794      153.9269125
2013    1       0.092386        27.85338375
2013    2       0.17074509      46.53312875
2013    3       0.6068139       121.69786875
2013    4       0.4515263       96.99048375
2013    5       0.15571145      42.93555125
2013    6       0.28544855      69.76121125
2013    7       0.27056085      67.1925475
2013    8       0.32643215      79.37811375
2013    9       0.43128056      95.68863125
2013    10      0.82168733      148.2381875
2013    11      0.60936396      123.60470125
2013    12      0.37696499      87.40088375
2013    13      0.54676007      115.47951375
2013    14      0.39086171      91.22847125
2013    15      0.64037031      125.97664125
2013    16      0.31771315      74.1195575
2013    17      0.49686095      104.5744625
2013    18      0.51648742      111.819235
2013    19      0.84788487      153.651625
2013    20      0.29626375      70.17092
2013    21      0.19686445      52.72803
2013    22      0.20635796      54.51074625
2013    23      0.30752121      74.84128375
2013    24      0.19594079      52.83898
2013    25      0.21504003      56.5384925
2013    26      0.4391706       96.4703725
2013    27      0.50623026      110.23242
2013    28      0.78130961      145.3485625
2014    1       0.99752092      167.9879
2014    2       1.16973801      186.2332
2014    3       0.45390829      101.51206125
2014    4       0.63685651      120.8913025
2014    5       1.16198013      184.5442125
2014    6       0.58501286      121.69709875
2014    7       0.4751631       104.99564125
2014    8       0.86209322      156.105375
2014    9       0.4938858       109.24282625
2014    10      0.33284492      81.3665575
2014    11      0.36992755      88.54606375
2014    12      0.42470168      97.90722375
2014    13      0.85849901      156.445225
2014    14      0.793481        148.4932875
2014    15      0.96165406      168.3445625
2014    16      0.8616816       156.7451
2014    17      0.77719186      147.56495
2014    18      0.90507065      158.0596125
2014    19      1.16138009      184.6382125
2014    20      0.7819488       143.7474725
2014    21      1.04971614      178.3497125
2014    22      0.79257616      147.6118875
2014    23      0.842403        152.986775
2014    24      0.94432196      165.00075
2014    25      0.27806918      64.86471875
2014    26      0.14841149      41.22937
2014    27      0.20716781      54.50422875
2014    28      0.74197891      140.8441075
2015    1       0.46895714      102.80936125
2015    2       0.42061621      94.00835875
2015    3       0.38286146      89.672045
2015    4       0.36714085      87.09192625
2015    5       0.37307819      87.2518925
2015    6       0.31168901      74.899155
2015    7       0.19141404      51.5972075
2015    8       0.15707626      44.02649375
2015    9       0.23301024      60.3816375
2015    10      0.66365356      130.78326375
2015    11      0.45256515      102.39405625
2015    12      0.68322504      132.58981375
2015    13      0.82895201      152.38791125
2015    14      0.30092952      71.82785
2015    15      0.21355283      54.92702125
2015    16      0.11305667      32.5886725
2015    17      0.20714161      53.75048125
2015    18      0.4200091       96.16635375
2015    19      0.40054656      92.43591125
2015    20      0.35305911      83.9181325
2015    21      0.63404412      125.6303225
2015    22      0.1095467       32.31412875
2015    23      0.54645335      111.488065
2015    24      0.56487048      117.09127875
2015    25      0.50437634      108.1100775
2015    26      0.40103122      92.20303125
2015    27      0.70766548      134.9714625
2015    28      0.58958896      117.53112
2016    1       0.27844781      70.15322125
2016    2       0.67790294      127.03577625
2016    3       0.95241669      165.6990625
2016    4       0.4557521       97.58701375
2016    5       0.12677582      35.96940125
2016    6       0.20288825      54.03618375
2016    7       0.17193604      47.396065
2016    8       0.19488065      51.8312375
2016    9       0.11559272      33.56096375
2016    10      0.18489141      50.07795
2016    11      0.14990504      42.3708425
2016    12      0.35618156      82.96700625
2016    13      0.71976455      141.2425625
2016    14      0.52224236      113.88545
2016    15      0.76307609      142.9239625
2016    16      0.82589378      152.14925
2016    17      0.84538132      153.4128875
2016    18      0.81407683      150.95341125
2016    19      0.40535497      86.9671825
2016    20      0.35189644      77.9500275
2016    21      0.19473482      51.34210125
2016    22      0.15496076      43.05171875
2016    23      0.37358756      86.33036625
2016    24      0.59586251      119.61239
2016    25      0.86825151      157.21785
2016    26      0.59033751      118.68213125
2016    27      0.16225555      44.64473125
2016    28      0.24105082      61.961475
2016    29      0.51046286      109.24814375
2017    1       0.34612268      82.81941125
2017    2       1.03390346      170.7920125
2017    3       0.97295084      165.9393
2017    4       1.03224376      176.081075
2017    5       1.02195173      173.9620125
2017    6       1.03592786      175.638775
2017    7       0.957204        164.632
2017    8       0.60256274      125.1006125
2017    9       0.72177394      141.9807
2017    10      0.87047719      156.2706125
2017    11      0.91565026      162.430675
2017    12      0.9987422       167.90645
2017    13      0.72427329      138.49550875
2017    14      0.44492381      99.527035
2017    15      1.05995243      173.271275
2017    16      1.04043881      178.2279
2017    17      0.63765581      131.0996125
2017    18      0.87183859      157.081925
2017    19      1.09911991      182.533625
2017    20      1.04519556      175.556475
2017    21      0.73711906      142.3553
2017    22      0.51424423      110.40887125
2017    23      0.53525661      110.92816375
2017    24      0.64546704      128.62248
2017    25      0.59287724      119.05461875
2017    26      0.22296433      58.16641375
2017    27      0.2941711       72.46184375
2017    28      0.54078762      112.86068625
2018    1       0.40065839      92.72546375
2018    2       0.46044671      99.49933125
2018    3       0.3525985       83.36149
2018    4       0.31588974      77.1884175
2018    5       0.24233109      62.71145875
2018    6       0.58418106      114.08653625
2018    7       0.82658464      153.6486875
2018    8       0.53595612      115.233855
2018    9       0.4620881       102.68089
2018    10      0.95615332      163.20667125
2018    11      0.91886026      163.3484625
2018    12      1.02708685      174.648125
2018    13      0.92944124      166.2542625
2018    14      0.83321945      151.69245
2018    15      0.64083342      128.8354225
2018    16      0.55289209      112.455575
2018    17      0.44507385      101.07599125
2018    18      0.66070194      126.879135
2018    19      0.9466531       159.5375775
2018    20      0.46589546      100.49101125
2018    21      0.52011362      111.14706875
2018    22      0.41799962      94.22651875
2018    23      0.64905742      130.485975
2018    24      0.56317675      117.01226125
2018    25      0.12940011      36.15539875
2018    26      0.08209726      25.63915125
2018    27      0.23779166      58.80120625
2018    28      0.44024818      96.3504925
