####################################################################################################
# Month: 01Jan                                                                                     #
# Station: PAM                                                                                     #
# Frequency: 345 GHz                                                                               #
# Columns are: year    day     segment         tau     Tb (K)                                      #
####################################################################################################
2009    1       0       0.2172073       53.55379
2009    1       1       0.2138477       52.8583
2009    1       2       0.2289788       55.76636
2009    1       3       0.2593969       61.65647
2009    1       4       0.2547673       60.99399
2009    1       5       0.2391685       58.15423
2009    1       6       0.2680852       63.42268
2009    1       7       0.3330678       75.44597
2009    2       0       0.3474637       78.23811
2009    2       1       0.3647697       81.38443
2009    2       2       0.4601736       97.07369
2009    2       3       0.5232877       106.9737
2009    2       4       0.522944        106.8783
2009    2       5       0.5070396       104.557
2009    2       6       0.4894548       102.0708
2009    2       7       0.5071972       104.6105
2009    3       0       0.4884146       101.6633
2009    3       1       0.444091        94.72988
2009    3       2       0.4485338       95.30609
2009    3       3       0.51612         105.4307
2009    3       4       0.4575989       96.58309
2009    3       5       0.4433715       94.233
2009    3       6       0.3656446       81.6952
2009    3       7       0.3594777       80.32616
2009    4       0       0.3434415       77.39932
2009    4       1       0.320693        73.31723
2009    4       2       0.3374583       76.1017
2009    4       3       0.3523923       78.58841
2009    4       4       0.3314818       74.98875
2009    4       5       0.3046418       70.16077
2009    4       6       0.2449746       59.1429
2009    4       7       0.2076214       51.87859
2009    5       0       0.18142         46.65331
2009    5       1       0.1641959       43.15582
2009    5       2       0.1591791       42.23251
2009    5       3       0.1513061       40.72977
2009    5       4       0.14849         40.13792
2009    5       5       0.1523266       40.93717
2009    5       6       0.1598685       42.53634
2009    5       7       0.1614124       42.83626
2009    6       0       0.160648        42.61257
2009    6       1       0.1631282       43.09293
2009    6       2       0.1692248       44.29707
2009    6       3       0.1811391       46.69375
2009    6       4       0.1988232       50.16978
2009    6       5       0.2000909       50.41551
2009    6       6       0.1895822       48.29213
2009    6       7       0.1801749       46.38084
2009    7       0       0.1671288       43.69152
2009    7       1       0.1626066       42.70645
2009    7       2       0.1779319       45.76583
2009    7       3       0.2010044       50.3158
2009    7       4       0.2117802       52.40393
2009    7       5       0.1979134       49.80033
2009    7       6       0.1877201       47.88975
2009    7       7       0.1714109       44.72935
2009    8       0       0.1487826       40.18786
2009    8       1       0.1313828       36.55626
2009    8       2       0.1285409       35.90151
2009    8       3       0.1296579       36.17817
2009    8       4       0.1349325       37.34081
2009    8       5       0.1288961       36.07042
2009    8       6       0.1065069       31.08206
2009    8       7       0.1044052       30.49954
2009    9       0       0.1110219       31.90882
2009    9       1       0.1133889       32.46587
2009    9       2       0.128291        35.6559
2009    9       3       0.1593582       42.12864
2009    9       4       0.1606693       42.53017
2009    9       5       0.1730928       44.8378
2009    9       6       0.1872485       47.64524
2009    9       7       0.2062233       51.36816
2009    10      0       0.2010055       50.31589
2009    10      1       0.1925724       48.696
2009    10      2       0.1929066       48.81868
2009    10      3       0.1999971       50.30889
2009    10      4       0.193742        49.22511
2009    10      5       0.1607856       42.66587
2009    10      6       0.1356884       37.34427
2009    10      7       0.1283057       35.6499
2009    11      0       0.125948        34.98276
2009    11      1       0.1355382       36.98188
2009    11      2       0.1438726       38.74151
2009    11      3       0.1559472       41.3462
2009    11      4       0.1606224       42.4937
2009    11      5       0.1793399       46.16027
2009    11      6       0.1877439       47.77538
2009    11      7       0.2045225       51.07979
2009    12      0       0.2269513       55.41999
2009    12      1       0.2204097       54.21812
2009    12      2       0.2061284       51.60204
2009    12      3       0.2187518       53.93553
2009    12      4       0.2417475       58.34469
2009    12      5       0.2389138       57.74807
2009    12      6       0.2203339       54.40118
2009    12      7       0.2450717       59.183
2009    13      0       0.2496804       59.99855
2009    13      1       0.2314569       56.608
2009    13      2       0.2490736       59.98806
2009    13      3       0.3016595       69.57117
2009    13      4       0.3165128       72.1117
2009    13      5       0.2597302       62.03263
2009    13      6       0.3044444       70.10072
2009    13      7       0.2895946       67.48842
2009    14      0       0.2934658       68.11155
2009    14      1       0.2976573       68.8459
2009    14      2       0.3165213       72.23075
2009    14      3       0.3671939       80.97843
2009    14      4       0.3244453       73.73688
2009    14      5       0.3161132       72.35261
2009    14      6       0.3349232       75.92139
2009    14      7       0.3031755       70.25893
2009    15      0       0.3159115       72.42198
2009    15      1       0.3065616       70.78386
2009    15      2       0.3609381       80.32924
2009    15      3       0.3842486       84.28066
2009    15      4       0.3961494       86.41999
2009    15      5       0.3676815       81.9685
2009    15      6       0.3624516       81.11491
2009    15      7       0.3672992       81.77936
2009    16      0       0.3757373       83.11654
2009    16      1       0.3439769       77.72212
2009    16      2       0.4193606       90.20943
2009    16      3       0.401839        87.89858
2009    16      4       0.5098077       104.5316
2009    16      5       0.4341503       93.4337
2009    16      6       0.4856861       101.2309
2009    16      7       0.4122354       89.91713
2009    17      0       0.480052        100.3962
2009    17      1       0.4646611       97.90889
2009    17      2       0.413689        89.49147
2009    17      3       0.4182181       89.97286
2009    17      4       0.2697239       64.15871
2009    17      5       0.2189043       54.4482
2009    17      6       0.1949914       49.48476
2009    17      7       0.2061705       51.54626
2009    18      0       0.2394371       58.06199
2009    18      1       0.2619175       62.32834
2009    18      2       0.2870549       66.85046
2009    18      3       0.3222482       73.1869
2009    18      4       0.2990914       69.14986
2009    18      5       0.3106628       71.23649
2009    18      6       0.347248        77.66223
2009    18      7       0.2924475       67.79928
2009    19      0       0.2555869       60.92841
2009    19      1       0.2807434       65.63588
2009    19      2       0.255152        60.90086
2009    19      3       0.235722        57.18188
2009    19      4       0.2159742       53.37583
2009    19      5       0.1852464       47.45763
2009    19      6       0.1564634       41.79534
2009    19      7       0.1376123       38.06453
2009    20      0       0.0966358       29.23361
2009    20      1       0.07046245      23.18101
2009    20      2       0.0539082       19.13662
2009    20      3       0.07496063      24.21354
2009    20      4       0.0800063       25.08304
2009    20      5       0.1093464       31.37842
2009    20      6       0.1888753       48.00922
2009    20      7       0.2592246       62.39835
2009    21      0       0.3033885       70.7284
2009    21      1       0.2942167       68.77758
2009    21      2       0.244217        59.81504
2009    21      3       0.2574177       62.4149
2009    21      4       0.2181347       54.85612
2009    21      5       0.2300712       56.88011
2009    21      6       0.2277979       56.27208
2009    21      7       0.2510232       60.55555
2009    22      0       0.2911193       68.03479
2009    22      1       0.3182825       72.89084
2009    22      2       0.3159695       72.66071
2009    22      3       0.3051594       70.79987
2009    22      4       0.2645662       63.49617
2009    22      5       0.2562245       61.87608
2009    22      6       0.2651573       63.4991
2009    22      7       0.2651864       63.56253
2009    23      0       0.2465972       60.35537
2009    23      1       0.2237916       56.07521
2009    23      2       0.193901        50.05074
2009    23      3       0.2068292       52.39559
2009    23      4       0.2081501       52.53927
2009    23      5       0.1887408       48.5681
2009    23      6       0.1956618       49.89293
2009    23      7       0.2455863       59.66356
2009    24      0       0.2697457       64.28113
2009    24      1       0.2791283       66.16758
2009    24      2       0.3022707       70.46297
2009    24      3       0.3328036       75.9823
2009    24      4       0.2977921       69.99779
2009    24      5       0.2975306       69.82639
2009    24      6       0.292617        68.82887
2009    24      7       0.2790431       66.28153
2009    25      0       0.2776569       66.31953
2009    25      1       0.2851526       67.88147
2009    25      2       0.4586017       97.23522
2009    25      3       0.5963995       117.4377
2009    25      4       0.4910632       102.4466
2009    25      5       0.4278891       92.74498
2009    25      6       0.3728763       83.52596
2009    25      7       0.3235344       74.90801
2009    26      0       0.3239374       74.5872
2009    26      1       0.3335118       75.94287
2009    26      2       0.4004592       87.18353
2009    26      3       0.487172        101.0806
2009    26      4       0.5154202       105.2961
2009    26      5       0.4835432       100.5461
2009    26      6       0.4191564       90.62743
2009    26      7       0.4593141       96.90403
2009    27      0       0.5016914       103.2996
2009    27      1       0.4412309       93.77555
2009    27      2       0.4204724       90.07527
2009    27      3       0.3993441       86.71661
2009    27      4       0.3258206       74.48352
2009    27      5       0.2836195       66.97635
2009    27      6       0.2693699       64.08995
2009    27      7       0.2486274       60.15981
2009    28      0       0.2696699       64.21106
2009    28      1       0.2977273       69.30788
2009    28      2       0.3445529       77.37835
2009    28      3       0.4025142       87.03305
2009    28      4       0.3302267       75.18347
2009    28      5       0.3177211       72.98299
2009    28      6       0.3372573       76.36403
2009    28      7       0.3466221       78.12587
2009    29      0       0.3441411       77.58268
2009    29      1       0.2850006       67.07531
2009    29      2       0.2755211       65.14128
2009    29      3       0.3393967       76.48041
2009    29      4       0.3149873       72.24547
2009    29      5       0.2591173       62.01416
2009    29      6       0.2084491       52.29097
2009    29      7       0.179056        46.41832
2009    30      0       0.21833         54.2572
2009    30      1       0.2063438       51.93962
2009    30      2       0.2237156       55.31429
2009    30      3       0.2813482       66.07852
2009    30      4       0.293688        68.23429
2009    30      5       0.2233897       54.97274
2009    30      6       0.139352        38.18703
2009    30      7       0.1183007       33.68244
2009    31      0       0.1103583       31.82586
2009    31      1       0.1118718       32.04416
2009    31      2       0.1516941       40.56531
2009    31      3       0.1947656       49.57251
2009    31      4       0.231801        56.80433
2009    31      5       0.263698        62.87889
2009    31      6       0.2909057       67.9537
2009    31      7       0.2936281       68.54734
2010    1       0       0.2606459       62.96101
2010    1       1       0.2424929       59.99576
2010    1       2       0.2326227       58.2183
2010    1       3       0.2065018       52.92866
2010    1       4       0.2332795       57.87141
2010    1       5       0.2321129       57.68447
2010    1       6       0.2198634       55.3677
2010    1       7       0.2157679       54.66596
2010    2       0       0.2028947       52.0552
2010    2       1       0.1928754       49.86197
2010    2       2       0.1782851       46.8131
2010    2       3       0.1881451       49.03136
2010    2       4       0.1865209       48.61852
2010    2       5       0.1787179       46.85475
2010    2       6       0.1750734       45.91607
2010    2       7       0.200335        50.80367
2010    3       0       0.2434925       59.04793
2010    3       1       0.2987381       69.13017
2010    3       2       0.3258164       74.04907
2010    3       3       0.3809923       83.53176
2010    3       4       0.367256        81.45188
2010    3       5       0.3299779       75.20642
2010    3       6       0.2564335       62.26629
2010    3       7       0.2301608       57.38607
2010    4       0       0.2645376       63.63179
2010    4       1       0.2302019       57.22623
2010    4       2       0.2160975       54.28351
2010    4       3       0.2578154       62.71408
2010    4       4       0.2613466       63.2111
2010    4       5       0.2645464       63.69404
2010    4       6       0.2622728       63.28371
2010    4       7       0.2909072       68.46887
2010    5       0       0.2984576       69.66249
2010    5       1       0.2883922       67.8734
2010    5       2       0.2982515       69.51062
2010    5       3       0.3117372       71.90018
2010    5       4       0.3168895       72.94399
2010    5       5       0.2890964       67.8834
2010    5       6       0.2869236       67.54542
2010    5       7       0.31107         72.21715
2010    6       0       0.3303442       75.75623
2010    6       1       0.3273016       75.20559
2010    6       2       0.3203902       73.92133
2010    6       3       0.2759576       65.96641
2010    6       4       0.2183768       54.98792
2010    6       5       0.1818976       47.73107
2010    6       6       0.1999276       51.1795
2010    6       7       0.2053432       51.99843
2010    7       0       0.2027561       51.41954
2010    7       1       0.1948559       49.85615
2010    7       2       0.2065414       52.1915
2010    7       3       0.2511772       60.79479
2010    7       4       0.2681697       64.02534
2010    7       5       0.2884058       67.61656
2010    7       6       0.2834986       66.58918
2010    7       7       0.2674645       63.78594
2010    8       0       0.2055075       52.17725
2010    8       1       0.1800766       46.83956
2010    8       2       0.1839048       47.48081
2010    8       3       0.2116118       52.79949
2010    8       4       0.249001        60.03096
2010    8       5       0.2725752       64.41048
2010    8       6       0.2897662       67.55007
2010    8       7       0.288652        67.29752
2010    9       0       0.2630341       62.52709
2010    9       1       0.2402406       58.14145
2010    9       2       0.2017611       50.71338
2010    9       3       0.1954768       49.57216
2010    9       4       0.1930996       49.18597
2010    9       5       0.1638822       43.35515
2010    9       6       0.1365948       37.60856
2010    9       7       0.1141809       32.79476
2010    10      0       0.09472955      28.48996
2010    10      1       0.08624858      26.55371
2010    10      2       0.09648269      28.83826
2010    10      3       0.1088064       31.5986
2010    10      4       0.1163909       33.33045
2010    10      5       0.1317848       36.71183
2010    10      6       0.1456135       39.67202
2010    10      7       0.1519856       41.03088
2010    11      0       0.1422494       38.97507
2010    11      1       0.121253        34.47267
2010    11      2       0.119709        34.15267
2010    11      3       0.1333385       37.07877
2010    11      4       0.1306828       36.55223
2010    11      5       0.1214703       34.60439
2010    11      6       0.1009469       30.10656
2010    11      7       0.06827691      22.50782
2010    12      0       0.05297827      18.72151
2010    12      1       0.057938        19.84952
2010    12      2       0.06550499      21.60519
2010    12      3       0.08892137      27.1758
2010    12      4       0.09121423      27.73456
2010    12      5       0.07450921      23.80481
2010    12      6       0.06942393      22.57745
2010    12      7       0.06801989      22.23794
2010    13      0       0.07095417      22.90864
2010    13      1       0.08708418      26.55449
2010    13      2       0.1115021       31.95316
2010    13      3       0.1546847       41.32749
2010    13      4       0.1689187       44.5959
2010    13      5       0.1802199       46.77886
2010    13      6       0.2371508       58.2723
2010    13      7       0.2719949       64.87498
2010    14      0       0.2854959       67.58598
2010    14      1       0.3058869       71.15243
2010    14      2       0.3028021       70.52642
2010    14      3       0.4145094       89.60828
2010    14      4       0.3409754       77.26712
2010    14      5       0.3187088       73.30178
2010    14      6       0.3049738       71.01122
2010    14      7       0.3337216       76.08683
2010    15      0       0.4092167       88.65431
2010    15      1       0.3815935       84.03579
2010    15      2       0.3190278       73.20881
2010    15      3       0.3065955       70.73845
2010    15      4       0.3335406       75.51426
2010    15      5       0.3361705       75.9958
2010    15      6       0.3578992       79.92276
2010    15      7       0.3457273       77.85864
2010    16      0       0.3582066       79.9379
2010    16      1       0.3625219       80.68228
2010    16      2       0.4124839       88.71378
2010    16      3       0.3736519       82.64834
2010    16      4       0.3494839       78.74368
2010    16      5       0.3359933       76.57924
2010    16      6       0.3618578       81.05116
2010    16      7       0.4073833       88.52734
2010    17      0       0.3766152       83.2794
2010    17      1       0.3351765       75.98293
2010    17      2       0.3239163       74.10984
2010    17      3       0.3213504       73.60006
2010    17      4       0.3065826       70.92711
2010    17      5       0.306548        70.97434
2010    17      6       0.3325298       75.35158
2010    17      7       0.3065          70.57206
2010    18      0       0.2673981       63.39013
2010    18      1       0.2607156       62.08567
2010    18      2       0.2856045       66.70463
2010    18      3       0.310941        71.2579
2010    18      4       0.2971993       68.81879
2010    18      5       0.2814872       65.78412
2010    18      6       0.2698351       63.70666
2010    18      7       0.2489681       59.86042
2010    19      0       0.2465203       59.23895
2010    19      1       0.2673148       62.94961
2010    19      2       0.3018863       69.3857
2010    19      3       0.3321623       74.98173
2010    19      4       0.3184618       73.04324
2010    19      5       0.2920643       68.44349
2010    19      6       0.2869424       67.40336
2010    19      7       0.3022172       70.35928
2010    20      0       0.3480176       78.66983
2010    20      1       0.3858897       85.29992
2010    20      2       0.4760694       99.05508
2010    20      3       0.470154        98.0183
2010    20      4       0.3867608       85.03321
2010    20      5       0.3399308       77.22612
2010    20      6       0.3966012       86.48206
2010    20      7       0.3853467       85.04058
2010    21      0       0.462185        96.97896
2010    21      1       0.3849399       84.67919
2010    21      2       0.3307159       75.44868
2010    21      3       0.3121088       72.29829
2010    21      4       0.3213017       74.0438
2010    21      5       0.3309316       75.58249
2010    21      6       0.3260072       74.63591
2010    21      7       0.329072        75.32303
2010    22      0       0.3375801       76.84177
2010    22      1       0.3408039       77.60315
2010    22      2       0.4502051       95.01851
2010    22      3       0.44578         94.58645
2010    22      4       0.4349875       93.11344
2010    22      5       0.3884118       85.72675
2010    22      6       0.3847165       84.8034
2010    22      7       0.3712298       82.51174
2010    23      0       0.2947732       68.96188
2010    23      1       0.2791969       66.07041
2010    23      2       0.3728813       82.13823
2010    23      3       0.3173988       72.92843
2010    23      4       0.3044316       70.79071
2010    23      5       0.3115773       71.95393
2010    23      6       0.2988507       69.7102
2010    23      7       0.3488593       78.39698
2010    24      0       0.3632929       80.91998
2010    24      1       0.3706145       82.20933
2010    24      2       0.3605382       80.43185
2010    24      3       0.3487196       78.27097
2010    24      4       0.3693792       81.94921
2010    24      5       0.3465591       77.8455
2010    24      6       0.2416693       58.77545
2010    24      7       0.1428095       39.06955
2010    25      0       0.120692        34.26836
2010    25      1       0.115003        32.99117
2010    25      2       0.1355019       37.51466
2010    25      3       0.1494164       40.561
2010    25      4       0.182519        47.31227
2010    25      5       0.2122555       53.20648
2010    25      6       0.181537        47.00274
2010    25      7       0.1451741       39.20007
2010    26      0       0.173606        45.07087
2010    26      1       0.2529411       60.87209
2010    26      2       0.2807961       66.69678
2010    26      3       0.3765354       83.47104
2010    26      4       0.3997974       87.14036
2010    26      5       0.3602114       80.57957
2010    26      6       0.3347165       76.30071
2010    26      7       0.3269854       74.87708
2010    27      0       0.3253841       74.47505
2010    27      1       0.299346        69.88362
2010    27      2       0.3190298       73.15901
2010    27      3       0.3665077       81.12075
2010    27      4       0.3265048       74.42536
2010    27      5       0.3123485       71.8759
2010    27      6       0.2921225       68.30826
2010    27      7       0.2483747       60.29552
2010    28      0       0.2385165       58.25652
2010    28      1       0.2666035       63.64304
2010    28      2       0.3345518       75.97598
2010    28      3       0.3900649       85.36103
2010    28      4       0.3533723       79.13282
2010    28      5       0.3263572       74.5024
2010    28      6       0.3727545       82.36905
2010    28      7       0.3552913       79.60807
2010    29      0       0.3724425       82.42745
2010    29      1       0.291406        68.32362
2010    29      2       0.243938        59.30157
2010    29      3       0.2514083       60.42082
2010    29      4       0.2427092       58.8438
2010    29      5       0.182534        47.35441
2010    29      6       0.1328762       36.86905
2010    29      7       0.1535986       40.96348
2010    30      0       0.1703305       44.48273
2010    30      1       0.194004        49.11596
2010    30      2       0.2072009       51.68584
2010    30      3       0.2359295       57.32438
2010    30      4       0.2527038       60.47707
2010    30      5       0.2508998       60.08353
2010    30      6       0.2536557       60.618
2010    30      7       0.2420881       58.49036
2010    31      0       0.2320148       56.64629
2010    31      1       0.2221828       54.68318
2010    31      2       0.245453        59.137
2010    31      3       0.2625791       62.36666
2010    31      4       0.2602395       61.894
2010    31      5       0.264159        62.68796
2010    31      6       0.2535535       60.68918
2010    31      7       0.2440185       58.81478
2011    1       0       0.06653278      22.17328
2011    1       1       0.06896233      22.72968
2011    1       2       0.08442636      26.35932
2011    1       3       0.104291        30.77253
2011    1       4       0.1198185       34.15331
2011    1       5       0.1283125       35.967
2011    1       6       0.1310308       36.59712
2011    1       7       0.1358308       37.56049
2011    2       0       0.1427217       38.97322
2011    2       1       0.1471746       39.89148
2011    2       2       0.1344017       37.03891
2011    2       3       0.1278944       35.58163
2011    2       4       0.1157055       32.9739
2011    2       5       0.1195687       33.82292
2011    2       6       0.1377423       37.65626
2011    2       7       0.1581671       41.86507
2011    3       0       0.1631742       42.99676
2011    3       1       0.1674693       43.81177
2011    3       2       0.1524383       40.74648
2011    3       3       0.1560883       41.63081
2011    3       4       0.1637189       43.27543
2011    3       5       0.176493        45.84721
2011    3       6       0.202705        51.18469
2011    3       7       0.2333582       57.14735
2011    4       0       0.2490794       60.12141
2011    4       1       0.2431234       58.93638
2011    4       2       0.2609959       62.26665
2011    4       3       0.2797924       65.72373
2011    4       4       0.2430465       58.90696
2011    4       5       0.2223263       54.96631
2011    4       6       0.178472        46.25385
2011    4       7       0.1390931       38.14647
2011    5       0       0.1211687       34.11083
2011    5       1       0.1328635       36.41142
2011    5       2       0.1399238       37.94454
2011    5       3       0.1455411       39.15374
2011    5       4       0.1427275       38.73676
2011    5       5       0.1583408       41.86546
2011    5       6       0.1920236       48.80703
2011    5       7       0.2223784       54.83203
2011    6       0       0.2500143       60.04621
2011    6       1       0.2559288       61.2869
2011    6       2       0.2897181       67.63871
2011    6       3       0.3291531       74.52049
2011    6       4       0.2898586       67.5942
2011    6       5       0.2641868       62.84935
2011    6       6       0.2627689       62.42268
2011    6       7       0.2773501       65.24319
2011    7       0       0.27123         64.11078
2011    7       1       0.2872781       67.02433
2011    7       2       0.3000187       69.32736
2011    7       3       0.2637763       62.60496
2011    7       4       0.2451895       59.10618
2011    7       5       0.2143317       53.13752
2011    7       6       0.1935762       49.06553
2011    7       7       0.196525        49.65655
2011    8       0       0.2018478       50.58631
2011    8       1       0.1998055       50.13064
2011    8       2       0.1857585       47.24382
2011    8       3       0.1721299       44.55589
2011    8       4       0.1591898       41.93325
2011    8       5       0.1508313       40.25681
2011    8       6       0.1447429       39.05885
2011    8       7       0.1359177       37.22103
2011    9       0       0.1290031       35.6784
2011    9       1       0.1182754       33.40499
2011    9       2       0.1234726       34.53316
2011    9       3       0.1197185       33.72111
2011    9       4       0.1155048       32.81251
2011    9       5       0.1133642       32.34877
2011    9       6       0.1038961       30.32376
2011    9       7       0.09036522      27.3564
2011    10      0       0.08490214      26.16484
2011    10      1       0.07881938      24.78908
2011    10      2       0.07863199      24.75074
2011    10      3       0.08949357      27.06771
2011    10      4       0.151349        40.20787
2011    10      5       0.2485359       59.67443
2011    10      6       0.3331248       75.30848
2011    10      7       0.3769768       82.83507
2011    11      0       0.3814511       83.81033
2011    11      1       0.3472491       78.07426
2011    11      2       0.3207952       73.46803
2011    11      3       0.269435        64.07499
2011    11      4       0.2666672       63.43771
2011    11      5       0.2876472       67.15054
2011    11      6       0.3027785       69.8678
2011    11      7       0.2216695       54.74505
2011    12      0       0.1846778       47.35617
2011    12      1       0.1727787       45.01786
2011    12      2       0.1699703       44.35294
2011    12      3       0.1869263       47.63516
2011    12      4       0.1960931       49.44534
2011    12      5       0.1919712       48.7171
2011    12      6       0.1904805       48.40716
2011    12      7       0.2040921       51.02573
2011    13      0       0.2114316       52.43445
2011    13      1       0.1995591       50.20964
2011    13      2       0.166257        43.47357
2011    13      3       0.1787935       45.83735
2011    13      4       0.2668187       62.8554
2011    13      5       0.2346823       56.98334
2011    13      6       0.2161482       53.53201
2011    13      7       0.2093956       52.3463
2011    14      0       0.2979807       68.84034
2011    14      1       0.2743958       64.6402
2011    14      2       0.2677886       63.30574
2011    14      3       0.2436042       58.69052
2011    14      4       0.2592548       61.64668
2011    14      5       0.2572099       61.29269
2011    14      6       0.2986008       68.84979
2011    14      7       0.2895067       67.28813
2011    15      0       0.2100814       52.27112
2011    15      1       0.1916203       48.61484
2011    15      2       0.1897984       48.1124
2011    15      3       0.1773027       45.56715
2011    15      4       0.1874026       47.53982
2011    15      5       0.1893801       47.99962
2011    15      6       0.1362793       37.29825
2011    15      7       0.1015452       29.80721
2011    16      0       0.09201499      27.65589
2011    16      1       0.114932        32.59874
2011    16      2       0.1459333       39.18463
2011    16      3       0.1579302       41.83014
2011    16      4       0.1989146       50.1466
2011    16      5       0.2296621       56.22541
2011    16      6       0.275988        64.99046
2011    16      7       0.3167257       72.53529
2011    17      0       0.2838854       66.62411
2011    17      1       0.2316713       56.59019
2011    17      2       0.1879811       47.95274
2011    17      3       0.2033402       50.88093
2011    17      4       0.2216051       54.4645
2011    17      5       0.2324733       56.56992
2011    17      6       0.2033083       50.83821
2011    17      7       0.2021495       50.59598
2011    18      0       0.180408        46.1721
2011    18      1       0.1638318       42.71223
2011    18      2       0.1672246       43.31553
2011    18      3       0.1672219       43.39636
2011    18      4       0.1618525       42.42472
2011    18      5       0.1599898       42.10027
2011    18      6       0.1691343       44.01768
2011    18      7       0.1564613       41.4211
2011    19      0       0.1430328       38.57809
2011    19      1       0.1158877       32.79631
2011    19      2       0.1158513       32.81953
2011    19      3       0.1132549       32.32945
2011    19      4       0.1022792       29.97097
2011    19      5       0.09897616      29.24462
2011    19      6       0.09096426      27.51752
2011    19      7       0.1039249       30.3615
2011    20      0       0.1613649       42.52191
2011    20      1       0.209618        52.27855
2011    20      2       0.2436319       58.80769
2011    20      3       0.2950607       68.34118
2011    20      4       0.3161393       72.20494
2011    20      5       0.3145879       71.97161
2011    20      6       0.3113052       71.43534
2011    20      7       0.2944764       68.54883
2011    21      0       0.2805459       66.0127
2011    21      1       0.2686646       63.7348
2011    21      2       0.2304223       56.34263
2011    21      3       0.2392086       57.99498
2011    21      4       0.2379817       57.80866
2011    21      5       0.2347166       57.0638
2011    21      6       0.1806915       46.35613
2011    21      7       0.1524889       40.65922
2011    22      0       0.146653        39.33345
2011    22      1       0.1449936       38.92649
2011    22      2       0.1539121       40.65127
2011    22      3       0.1699015       43.88845
2011    22      4       0.1802264       46.00978
2011    22      5       0.1641648       42.91666
2011    22      6       0.1559076       41.20036
2011    22      7       0.1469219       39.29194
2011    23      0       0.1603022       42.03648
2011    23      1       0.1641744       42.81043
2011    23      2       0.1652602       43.00951
2011    23      3       0.1764862       45.30846
2011    23      4       0.1842639       46.75797
2011    23      5       0.1689112       43.63261
2011    23      6       0.1297986       35.66934
2011    23      7       0.1066736       30.83158
2011    24      0       0.09572932      28.46281
2011    24      1       0.08709782      26.46566
2011    24      2       0.08947961      27.10051
2011    24      3       0.08951143      27.06314
2011    24      4       0.0899546       27.16259
2011    24      5       0.09065572      27.29839
2011    24      6       0.08730712      26.52788
2011    24      7       0.08294508      25.52753
2011    25      0       0.07310296      23.31324
2011    25      1       0.06388416      21.21835
2011    25      2       0.06662676      21.83401
2011    25      3       0.07412183      23.49872
2011    25      4       0.08078706      24.93079
2011    25      5       0.08188355      25.15719
2011    25      6       0.08063763      24.8967
2011    25      7       0.08078975      24.92178
2011    26      0       0.08144309      25.04779
2011    26      1       0.08289021      25.34475
2011    26      2       0.08737797      26.37352
2011    26      3       0.09755689      28.71718
2011    26      4       0.1115171       31.79187
2011    26      5       0.1269172       35.10014
2011    26      6       0.1531943       40.55294
2011    26      7       0.1762736       45.36322
2011    27      0       0.1578136       41.63814
2011    27      1       0.1388583       37.60095
2011    27      2       0.1363264       37.24816
2011    27      3       0.1392374       38.00999
2011    27      4       0.1896859       48.14049
2011    27      5       0.2119077       52.71782
2011    27      6       0.2552575       61.27133
2011    27      7       0.2876108       67.60025
2011    28      0       0.300094        69.98428
2011    28      1       0.3018923       70.27429
2011    28      2       0.3693515       81.40862
2011    28      3       0.4084105       87.7973
2011    28      4       0.3657921       80.96384
2011    28      5       0.3438972       77.36809
2011    28      6       0.3054841       70.57771
2011    28      7       0.3049526       70.38022
2011    29      0       0.2932797       68.30082
2011    29      1       0.2773174       65.3119
2011    29      2       0.26434         62.94628
2011    29      3       0.2869108       67.00714
2011    29      4       0.2852555       66.78077
2011    29      5       0.2868248       67.0562
2011    29      6       0.2855989       66.92119
2011    29      7       0.2641769       63.14232
2011    30      0       0.2509758       60.71368
2011    30      1       0.243892        59.34693
2011    30      2       0.2316934       56.93489
2011    30      3       0.2138046       53.26607
2011    30      4       0.2728936       64.36555
2011    30      5       0.2974749       69.01046
2011    30      6       0.2953106       68.95074
2011    30      7       0.3153426       72.51479
2011    31      0       0.3128986       71.98405
2011    31      1       0.3060441       70.63944
2011    31      2       0.3285688       74.49608
2011    31      3       0.2930187       68.3921
2011    31      4       0.2921748       68.18979
2011    31      5       0.2095733       52.9366
2011    31      6       0.1197493       34.03333
2011    31      7       0.1606063       42.34445
2012    1       0       0.2031705       51.27078
2012    1       1       0.2020691       50.81524
2012    1       2       0.2056648       51.54666
2012    1       3       0.2106537       52.59183
2012    1       4       0.2089242       52.3569
2012    1       5       0.1720542       45.08516
2012    1       6       0.1290933       36.27658
2012    1       7       0.1129151       32.83611
2012    2       0       0.09030545      27.67636
2012    2       1       0.08748813      26.91665
2012    2       2       0.120187        34.00938
2012    2       3       0.2027538       51.19825
2012    2       4       0.2550114       61.21384
2012    2       5       0.2704132       64.1607
2012    2       6       0.2571189       61.70826
2012    2       7       0.2934159       68.17568
2012    3       0       0.3056634       70.52043
2012    3       1       0.2890725       67.46663
2012    3       2       0.2899352       67.53779
2012    3       3       0.3024444       69.70984
2012    3       4       0.2698581       63.72937
2012    3       5       0.255017        60.98158
2012    3       6       0.2431522       58.6893
2012    3       7       0.2136275       53.10024
2012    4       0       0.2150595       53.27649
2012    4       1       0.226429        55.40385
2012    4       2       0.2270929       55.60827
2012    4       3       0.2594378       61.77122
2012    4       4       0.2818204       65.84289
2012    4       5       0.2529816       60.53292
2012    4       6       0.2279539       55.80849
2012    4       7       0.2311556       56.30653
2012    5       0       0.2185486       53.70304
2012    5       1       0.1768374       45.58754
2012    5       2       0.224672        54.82268
2012    5       3       0.2200464       53.98047
2012    5       4       0.2266797       55.25235
2012    5       5       0.2339675       56.65308
2012    5       6       0.2369769       57.21115
2012    5       7       0.2249082       54.89072
2012    6       0       0.2095402       51.76033
2012    6       1       0.1826904       46.40308
2012    6       2       0.1757227       45.05781
2012    6       3       0.1776808       45.38229
2012    6       4       0.1697867       43.8286
2012    6       5       0.1671949       43.37073
2012    6       6       0.1635946       42.7241
2012    6       7       0.169749        43.94536
2012    7       0       0.1800725       46.16259
2012    7       1       0.1753643       45.22642
2012    7       2       0.1749639       45.08
2012    7       3       0.1709605       44.32278
2012    7       4       0.170187        44.15513
2012    7       5       0.170871        44.29381
2012    7       6       0.1850234       47.03767
2012    7       7       0.1935464       48.65241
2012    8       0       0.1806569       46.14836
2012    8       1       0.1668299       43.38649
2012    8       2       0.1655147       43.04713
2012    8       3       0.1749682       44.86777
2012    8       4       0.1742613       44.68742
2012    8       5       0.1619772       42.19822
2012    8       6       0.1467934       39.08467
2012    8       7       0.1375118       37.13491
2012    9       0       0.1302275       35.62293
2012    9       1       0.1234284       34.23694
2012    9       2       0.1254161       34.71797
2012    9       3       0.1297899       35.75305
2012    9       4       0.1364185       37.19093
2012    9       5       0.1332812       36.6384
2012    9       6       0.1186979       33.64063
2012    9       7       0.1115859       32.16659
2012    10      0       0.1107205       32.00047
2012    10      1       0.08719485      26.76051
2012    10      2       0.08553555      26.38294
2012    10      3       0.1077187       31.25619
2012    10      4       0.1380844       37.7033
2012    10      5       0.2238867       54.87165
2012    10      6       0.2474959       59.47401
2012    10      7       0.2275761       55.71454
2012    11      0       0.216859        53.55969
2012    11      1       0.2166918       53.45073
2012    11      2       0.2219673       54.30078
2012    11      3       0.2228365       54.32573
2012    11      4       0.2100169       51.83609
2012    11      5       0.1983603       49.57144
2012    11      6       0.1587745       41.61676
2012    11      7       0.1391548       37.47729
2012    12      0       0.1370295       37.0591
2012    12      1       0.143354        38.31243
2012    12      2       0.1513559       39.91417
2012    12      3       0.1671846       43.26912
2012    12      4       0.1873449       47.36996
2012    12      5       0.1536521       40.73822
2012    12      6       0.126221        34.89181
2012    12      7       0.18582         47.18588
2012    13      0       0.2225097       54.58417
2012    13      1       0.2343805       56.90538
2012    13      2       0.2171125       53.69262
2012    13      3       0.2521676       60.44264
2012    13      4       0.2606075       62.01959
2012    13      5       0.2774796       65.32384
2012    13      6       0.2902612       67.63668
2012    13      7       0.3223804       73.35902
2012    14      0       0.237252        57.75145
2012    14      1       0.205839        51.52685
2012    14      2       0.2571934       61.14458
2012    14      3       0.2861641       66.65801
2012    14      4       0.3046745       70.13366
2012    14      5       0.3969047       86.12269
2012    14      6       0.430066        91.90097
2012    14      7       0.4330622       92.19131
2012    15      0       0.297627        69.3814
2012    15      1       0.3240296       73.79218
2012    15      2       0.3594071       79.92079
2012    15      3       0.3679469       81.2136
2012    15      4       0.3082903       70.84159
2012    15      5       0.2441243       58.81418
2012    15      6       0.2192952       53.91199
2012    15      7       0.1958176       49.27504
2012    16      0       0.1650352       43.20268
2012    16      1       0.1293892       35.92315
2012    16      2       0.09037316      27.58712
2012    16      3       0.09442435      28.50107
2012    16      4       0.09660202      29.00908
2012    16      5       0.08691008      26.783
2012    16      6       0.07707838      24.51628
2012    16      7       0.06510541      21.6921
2012    17      0       0.05861574      20.16297
2012    17      1       0.05565943      19.47248
2012    17      2       0.05529126      19.35556
2012    17      3       0.06761902      22.21013
2012    17      4       0.07403542      23.67981
2012    17      5       0.07376416      23.60176
2012    17      6       0.06689844      22.08375
2012    17      7       0.06161241      20.90253
2012    18      0       0.05697322      19.82017
2012    18      1       0.05292095      18.85738
2012    18      2       0.05506692      19.35222
2012    18      3       0.07174128      23.18804
2012    18      4       0.08390563      25.91131
2012    18      5       0.08058311      25.17111
2012    18      6       0.07357276      23.59245
2012    18      7       0.07080608      22.9522
2012    19      0       0.0685882       22.43708
2012    19      1       0.06748413      22.17906
2012    19      2       0.06771385      22.20129
2012    19      3       0.07665027      24.25395
2012    19      4       0.08743499      26.67
2012    19      5       0.09127373      27.52398
2012    19      6       0.08736698      26.70886
2012    19      7       0.08711139      26.65065
2012    20      0       0.08712973      26.61903
2012    20      1       0.08244949      25.54185
2012    20      2       0.07501047      23.85998
2012    20      3       0.08764102      26.63106
2012    20      4       0.08550763      26.18334
2012    20      5       0.06301802      21.12959
2012    20      6       0.05564256      19.3878
2012    20      7       0.06343605      21.1792
2012    21      0       0.08558805      26.12361
2012    21      1       0.1231236       34.2241
2012    21      2       0.1318057       36.10379
2012    21      3       0.1595326       41.81527
2012    21      4       0.1605804       42.04249
2012    21      5       0.1678156       43.52961
2012    21      6       0.2004718       49.95272
2012    21      7       0.2132397       52.49204
2012    22      0       0.2216303       54.1641
2012    22      1       0.2074751       51.48636
2012    22      2       0.2041041       51.0518
2012    22      3       0.2125051       52.59763
2012    22      4       0.2137377       52.82654
2012    22      5       0.2132274       52.78585
2012    22      6       0.189247        47.86597
2012    22      7       0.2407202       57.79621
2012    23      0       0.2149316       52.835
2012    23      1       0.1887751       47.69278
2012    23      2       0.1829047       46.49814
2012    23      3       0.1519767       40.3158
2012    23      4       0.1227478       34.41258
2012    23      5       0.1003142       29.54623
2012    23      6       0.09457384      28.28817
2012    23      7       0.1331573       36.43256
2012    24      0       0.1439772       38.70709
2012    24      1       0.136528        37.17211
2012    24      2       0.1401403       37.82434
2012    24      3       0.1698511       43.90279
2012    24      4       0.1884256       47.5804
2012    24      5       0.1835076       46.61003
2012    24      6       0.1855087       47.0028
2012    24      7       0.1720562       44.35682
2012    25      0       0.1620369       42.36382
2012    25      1       0.164447        42.86619
2012    25      2       0.1641183       42.7802
2012    25      3       0.1964758       49.24506
2012    25      4       0.2065407       51.37387
2012    25      5       0.2133916       52.64764
2012    25      6       0.22363         54.59351
2012    25      7       0.2259731       55.00348
2012    26      0       0.2199726       53.84803
2012    26      1       0.1964005       49.17171
2012    26      2       0.1828369       46.33239
2012    26      3       0.1887802       47.5346
2012    26      4       0.1498043       39.7022
2012    26      5       0.1106496       31.51826
2012    26      6       0.08854337      26.67854
2012    26      7       0.08627357      26.06214
2012    27      0       0.1051403       30.21228
2012    27      1       0.120048        33.5145
2012    27      2       0.1290694       35.50656
2012    27      3       0.1560478       41.17786
2012    27      4       0.1706605       44.08555
2012    27      5       0.1700012       43.87838
2012    27      6       0.1604892       41.9804
2012    27      7       0.1605734       42.00094
2012    28      0       0.1601484       41.91906
2012    28      1       0.1526493       40.31548
2012    28      2       0.1567528       41.09288
2012    28      3       0.1727652       44.38472
2012    28      4       0.1735635       44.60935
2012    28      5       0.1635633       42.76626
2012    28      6       0.1412214       38.12807
2012    28      7       0.1440473       38.67023
2012    29      0       0.1356409       36.94935
2012    29      1       0.1318526       36.18886
2012    29      2       0.1313096       36.19222
2012    29      3       0.1514073       40.43405
2012    29      4       0.1533573       40.97437
2012    29      5       0.1538678       40.99743
2012    29      6       0.1430671       38.80341
2012    29      7       0.1357589       37.24717
2012    30      0       0.1724879       44.8192
2012    30      1       0.1635073       43.07156
2012    30      2       0.1753677       45.41
2012    30      3       0.2407803       58.15393
2012    30      4       0.2644381       62.49065
2012    30      5       0.2432298       58.62382
2012    30      6       0.2441118       58.69514
2012    30      7       0.2192437       53.92166
2012    31      0       0.1852885       47.27577
2012    31      1       0.1434797       38.82991
2012    31      2       0.1236302       34.57992
2012    31      3       0.1464639       39.27799
2012    31      4       0.1511392       40.142
2012    31      5       0.1344224       36.65239
2012    31      6       0.1112157       31.76085
2012    31      7       0.1018765       29.7339
2013    1       0       0.1071123       31.46359
2013    1       1       0.1145649       33.0954
2013    1       2       0.131442        36.6869
2013    1       3       0.1715849       44.76798
2013    1       4       0.220904        54.38855
2013    1       5       0.22772         55.8845
2013    1       6       0.1625801       43.31842
2013    1       7       0.1130311       32.83138
2013    2       0       0.09233019      27.98009
2013    2       1       0.1030929       30.34059
2013    2       2       0.1133804       32.55552
2013    2       3       0.1446835       39.44834
2013    2       4       0.1471951       40.15892
2013    2       5       0.1460276       39.72906
2013    2       6       0.1696384       44.25552
2013    2       7       0.1688579       44.02239
2013    3       0       0.1829685       46.73827
2013    3       1       0.1923101       48.6138
2013    3       2       0.1956199       49.3054
2013    3       3       0.2132795       52.71187
2013    3       4       0.219837        53.97026
2013    3       5       0.2251262       54.92674
2013    3       6       0.2087778       51.70328
2013    3       7       0.2001902       49.95477
2013    4       0       0.1771377       45.2879
2013    4       1       0.1408201       37.87384
2013    4       2       0.1195396       33.55705
2013    4       3       0.1095285       31.4979
2013    4       4       0.1173796       33.15309
2013    4       5       0.1162535       32.95071
2013    4       6       0.1185818       33.41123
2013    4       7       0.110737        31.7382
2013    5       0       0.1080065       31.15368
2013    5       1       0.1187891       33.43157
2013    5       2       0.1170166       33.01513
2013    5       3       0.1111198       31.82649
2013    5       4       0.1018598       29.9281
2013    5       5       0.09685893      28.86245
2013    5       6       0.09118158      27.59771
2013    5       7       0.09142868      27.64501
2013    6       0       0.09283577      28.00988
2013    6       1       0.0956759       28.6751
2013    6       2       0.1083137       31.41486
2013    6       3       0.1392501       37.96065
2013    6       4       0.159822        42.12448
2013    6       5       0.1677347       43.60407
2013    6       6       0.1742075       44.76988
2013    6       7       0.1772433       45.33768
2013    7       0       0.1693595       43.8129
2013    7       1       0.1551617       40.99366
2013    7       2       0.1494749       39.88517
2013    7       3       0.1366672       37.29602
2013    7       4       0.1369457       37.32754
2013    7       5       0.1434926       38.66107
2013    7       6       0.1376403       37.51699
2013    7       7       0.1317739       36.29618
2013    8       0       0.1248455       34.82331
2013    8       1       0.1188367       33.59815
2013    8       2       0.145779        39.20243
2013    8       3       0.1864133       47.4504
2013    8       4       0.2414444       58.18239
2013    8       5       0.2851857       66.43953
2013    8       6       0.2861366       66.73962
2013    8       7       0.2660825       63.15699
2013    9       0       0.3099462       71.08454
2013    9       1       0.3008595       69.39535
2013    9       2       0.305238        70.05822
2013    9       3       0.2748353       64.51432
2013    9       4       0.2291384       56.07021
2013    9       5       0.1985196       50.05996
2013    9       6       0.1816226       46.62958
2013    9       7       0.1685862       43.98572
2013    10      0       0.1779902       45.93153
2013    10      1       0.1817788       46.76783
2013    10      2       0.1664484       43.73344
2013    10      3       0.1869937       47.96177
2013    10      4       0.1950458       49.68996
2013    10      5       0.1804235       46.81231
2013    10      6       0.1730966       45.319
2013    10      7       0.1740698       45.39829
2013    11      0       0.1897456       48.49927
2013    11      1       0.2448497       59.26751
2013    11      2       0.3737939       82.65961
2013    11      3       0.3886821       85.4512
2013    11      4       0.4353824       92.96458
2013    11      5       0.3194993       73.90876
2013    11      6       0.3455816       78.08799
2013    11      7       0.4032774       88.05573
2013    12      0       0.5159059       105.5313
2013    12      1       0.5223454       106.2964
2013    12      2       0.4780037       99.28391
2013    12      3       0.3602063       79.87032
2013    12      4       0.2348873       57.10587
2013    12      5       0.1155404       32.73687
2013    12      6       0.07011273      22.71182
2013    12      7       0.07019325      22.62696
2013    13      0       0.08089283      25.14185
2013    13      1       0.07499579      23.87123
2013    13      2       0.06828971      22.3356
2013    13      3       0.08320981      25.62929
2013    13      4       0.0994679       29.11291
2013    13      5       0.1097589       31.31136
2013    13      6       0.1136538       32.18386
2013    13      7       0.09995048      29.41265
2013    14      0       0.09286309      27.92581
2013    14      1       0.09576558      28.61677
2013    14      2       0.09850139      29.26703
2013    14      3       0.1181526       33.59931
2013    14      4       0.1315083       36.43403
2013    14      5       0.1479178       39.73048
2013    14      6       0.1685577       43.88268
2013    14      7       0.2014895       50.57938
2013    15      0       0.2450834       59.03489
2013    15      1       0.2478577       59.47302
2013    15      2       0.2411343       58.10977
2013    15      3       0.2591522       61.49424
2013    15      4       0.2625562       62.11386
2013    15      5       0.2450984       58.79307
2013    15      6       0.2398893       57.78657
2013    15      7       0.2358482       56.93477
2013    16      0       0.2268611       55.13214
2013    16      1       0.209186        51.66614
2013    16      2       0.2019489       50.18324
2013    16      3       0.2093607       51.65486
2013    16      4       0.2198974       53.73638
2013    16      5       0.2198703       53.79059
2013    16      6       0.2131717       52.51158
2013    16      7       0.2069933       51.33723
2013    17      0       0.2132092       52.55627
2013    17      1       0.2087207       51.82451
2013    17      2       0.2062203       51.32777
2013    17      3       0.2141378       52.82074
2013    17      4       0.2299579       55.84318
2013    17      5       0.2364497       57.12588
2013    17      6       0.2415088       58.18452
2013    17      7       0.2285773       55.90203
2013    18      0       0.1889384       48.07824
2013    18      1       0.1664312       43.48909
2013    18      2       0.1861433       47.25698
2013    18      3       0.1936525       48.75895
2013    18      4       0.1861188       47.24057
2013    18      5       0.1774177       45.42994
2013    18      6       0.1661565       43.12408
2013    18      7       0.1238866       34.53945
2013    19      0       0.086977        26.60659
2013    19      1       0.07173678      23.04329
2013    19      2       0.08662264      26.25172
2013    19      3       0.1166355       32.72388
2013    19      4       0.1486934       39.41668
2013    19      5       0.1888618       47.61314
2013    19      6       0.1677907       43.47064
2013    19      7       0.1600662       41.83905
2013    20      0       0.1563258       41.07893
2013    20      1       0.1357761       36.97946
2013    20      2       0.1068801       31.01724
2013    20      3       0.1188136       33.47499
2013    20      4       0.1301258       35.74409
2013    20      5       0.1464718       39.07191
2013    20      6       0.1416088       38.20293
2013    20      7       0.1357821       37.05102
2013    21      0       0.1450602       39.05054
2013    21      1       0.160707        42.38438
2013    21      2       0.166577        43.47947
2013    21      3       0.1850353       47.18253
2013    21      4       0.1897342       48.17476
2013    21      5       0.1665339       43.58942
2013    21      6       0.1505389       40.26995
2013    21      7       0.157184        41.66683
2013    22      0       0.1772931       45.7231
2013    22      1       0.1957485       49.50757
2013    22      2       0.1920858       48.93377
2013    22      3       0.2117264       52.73335
2013    22      4       0.2492736       59.89837
2013    22      5       0.2968396       68.56188
2013    22      6       0.275485        64.46355
2013    22      7       0.2522571       60.07886
2013    23      0       0.2077078       51.508
2013    23      1       0.1838842       46.8302
2013    23      2       0.1681218       43.71237
2013    23      3       0.1348795       37.04271
2013    23      4       0.1216856       34.28815
2013    23      5       0.1161132       33.06865
2013    23      6       0.1191397       33.63383
2013    23      7       0.1286902       35.55363
2013    24      0       0.1503214       40.1052
2013    24      1       0.1761714       45.63774
2013    24      2       0.1795605       46.38288
2013    24      3       0.1808349       46.68387
2013    24      4       0.1994324       50.43147
2013    24      5       0.1921823       49.13034
2013    24      6       0.1766289       46.11987
2013    24      7       0.1626582       43.29297
2013    25      0       0.1801179       46.69144
2013    25      1       0.2088543       52.19848
2013    25      2       0.2277759       55.75243
2013    25      3       0.2625371       62.35392
2013    25      4       0.2561623       61.2638
2013    25      5       0.232948        57.01898
2013    25      6       0.1816831       47.02051
2013    25      7       0.1382865       38.14646
2013    26      0       0.1265839       35.56875
2013    26      1       0.1205139       34.1101
2013    26      2       0.1187237       33.7492
2013    26      3       0.1635871       43.03707
2013    26      4       0.1727601       45.28548
2013    26      5       0.1994034       50.48352
2013    26      6       0.2569985       61.74987
2013    26      7       0.3082181       71.59898
2013    27      0       0.3616964       80.91977
2013    27      1       0.3558665       80.12883
2013    27      2       0.3543682       79.75012
2013    27      3       0.4778442       99.44028
2013    27      4       0.4660106       97.67086
2013    27      5       0.4268073       91.30884
2013    27      6       0.2605324       62.84152
2013    27      7       0.2463762       59.90011
2013    28      0       0.2748891       64.92019
2013    28      1       0.2486272       59.90303
2013    28      2       0.2178813       54.19114
2013    28      3       0.1965318       50.01348
2013    28      4       0.2181008       54.21674
2013    28      5       0.2361046       57.73657
2013    28      6       0.1954189       49.72418
2013    28      7       0.1563479       41.62819
2013    29      0       0.1447611       39.04855
2013    29      1       0.1942971       49.42384
2013    29      2       0.1963586       50.22486
2013    29      3       0.2452859       59.81807
2013    29      4       0.2998213       70.04798
2013    29      5       0.304384        71.02024
2013    29      6       0.2951937       69.25558
2013    29      7       0.3221693       74.02999
2013    30      0       0.3745029       83.21312
2013    30      1       0.4092252       89.29322
2013    30      2       0.4587656       97.1086
2013    30      3       0.5078481       105.0803
2013    30      4       0.5347786       109.0701
2013    30      5       0.4852768       101.6736
2013    30      6       0.4702879       99.26074
2013    30      7       0.4619032       98.11664
2013    31      0       0.4143522       90.70576
2013    31      1       0.4343955       93.40487
2013    31      2       0.3658865       81.86862
2013    31      3       0.3398596       76.98865
2013    31      4       0.342947        77.4447
2013    31      5       0.2896925       68.50072
2013    31      6       0.2221593       55.79638
2013    31      7       0.1381779       38.46096
2014    1       0       0.2353302       56.78277
2014    1       1       0.2181056       53.56288
2014    1       2       0.206322        51.28487
2014    1       3       0.1775356       45.60326
2014    1       4       0.165088        43.08787
2014    1       5       0.1588885       41.83376
2014    1       6       0.1322634       36.41339
2014    1       7       0.1016351       29.98412
2014    2       0       0.08161893      25.52301
2014    2       1       0.07309551      23.52631
2014    2       2       0.07907929      24.89229
2014    2       3       0.08147937      25.3726
2014    2       4       0.09226719      27.77465
2014    2       5       0.1236565       34.68455
2014    2       6       0.1623441       43.00007
2014    2       7       0.1935036       49.36778
2014    3       0       0.1945753       49.55276
2014    3       1       0.215486        53.55846
2014    3       2       0.2207079       54.53142
2014    3       3       0.2320113       56.91686
2014    3       4       0.2849232       66.6824
2014    3       5       0.3156549       72.21956
2014    3       6       0.3057409       70.46212
2014    3       7       0.2773033       65.25701
2014    4       0       0.2751239       64.80823
2014    4       1       0.2678368       63.53187
2014    4       2       0.2535847       60.91678
2014    4       3       0.2241769       55.31682
2014    4       4       0.2287686       56.04698
2014    4       5       0.2278967       55.92518
2014    4       6       0.2572789       61.47858
2014    4       7       0.2877802       66.993
2014    5       0       0.244754        58.83023
2014    5       1       0.2154141       53.11495
2014    5       2       0.2134642       52.72007
2014    5       3       0.2086208       51.73977
2014    5       4       0.2155583       53.05709
2014    5       5       0.1946561       48.9982
2014    5       6       0.1740492       44.89051
2014    5       7       0.156289        41.29281
2014    6       0       0.1441907       38.70446
2014    6       1       0.1342532       36.59884
2014    6       2       0.1350546       36.72501
2014    6       3       0.1324044       36.14463
2014    6       4       0.1347733       36.62165
2014    6       5       0.1335958       36.51106
2014    6       6       0.1239019       34.58271
2014    6       7       0.1125709       32.24398
2014    7       0       0.09380088      28.13367
2014    7       1       0.07953035      24.96268
2014    7       2       0.07650206      24.30121
2014    7       3       0.07779941      24.52283
2014    7       4       0.08526094      26.12101
2014    7       5       0.1072387       30.85747
2014    7       6       0.1611369       42.16242
2014    7       7       0.2257166       55.33457
2014    8       0       0.2399669       58.34999
2014    8       1       0.2923011       67.90253
2014    8       2       0.2989555       69.22411
2014    8       3       0.3345885       75.48802
2014    8       4       0.3253447       73.86312
2014    8       5       0.3131024       71.48272
2014    8       6       0.2963382       68.49737
2014    8       7       0.2714723       63.94369
2014    9       0       0.2453027       58.95855
2014    9       1       0.2214971       54.27677
2014    9       2       0.2224005       54.42766
2014    9       3       0.210814        52.20007
2014    9       4       0.2151987       52.98007
2014    9       5       0.2217404       54.22746
2014    9       6       0.2428085       58.15849
2014    9       7       0.2554199       60.46918
2014    10      0       0.2333246       56.31423
2014    10      1       0.2112037       52.09613
2014    10      2       0.1960784       49.09635
2014    10      3       0.1849675       46.94965
2014    10      4       0.1793728       45.95818
2014    10      5       0.1647577       43.16409
2014    10      6       0.1481553       39.91276
2014    10      7       0.1228763       34.67671
2014    11      0       0.08920338      27.26868
2014    11      1       0.08123825      25.25436
2014    11      2       0.1012859       29.59141
2014    11      3       0.1067653       30.87501
2014    11      4       0.1185347       33.30329
2014    11      5       0.1124132       32.27288
2014    11      6       0.09587659      28.85229
2014    11      7       0.09847744      29.41362
2014    12      0       0.1386275       37.87633
2014    12      1       0.1649031       43.24836
2014    12      2       0.1974295       49.99257
2014    12      3       0.2316422       56.83588
2014    12      4       0.2838114       66.61493
2014    12      5       0.3174569       72.90635
2014    12      6       0.2877195       67.8386
2014    12      7       0.2795726       66.24176
2014    13      0       0.3893514       85.01013
2014    13      1       0.3434713       77.48066
2014    13      2       0.3212999       73.57832
2014    13      3       0.2828028       66.51604
2014    13      4       0.2770239       65.33007
2014    13      5       0.2945647       68.65258
2014    13      6       0.3175332       72.7902
2014    13      7       0.3053973       70.49525
2014    14      0       0.2884897       67.38568
2014    14      1       0.2525036       60.77086
2014    14      2       0.2292816       56.47262
2014    14      3       0.2102609       52.73236
2014    14      4       0.1929307       49.34727
2014    14      5       0.1745103       45.72796
2014    14      6       0.1648047       43.70599
2014    14      7       0.1797296       46.71747
2014    15      0       0.1977895       50.44414
2014    15      1       0.1871272       48.5204
2014    15      2       0.1631421       43.62476
2014    15      3       0.1664235       44.2028
2014    15      4       0.1756378       46.0478
2014    15      5       0.1716467       45.2477
2014    15      6       0.1812385       47.15111
2014    15      7       0.1983829       50.5897
2014    16      0       0.2167238       54.11049
2014    16      1       0.2302728       56.63514
2014    16      2       0.2472531       59.96631
2014    16      3       0.2649235       62.97631
2014    16      4       0.2601164       62.06083
2014    16      5       0.2150432       53.56637
2014    16      6       0.1295476       36.05389
2014    16      7       0.07878097      24.84589
2014    17      0       0.07176064      23.24222
2014    17      1       0.07376541      23.67112
2014    17      2       0.1162609       33.2909
2014    17      3       0.1540785       41.23784
2014    17      4       0.1658524       43.70667
2014    17      5       0.1531856       41.14788
2014    17      6       0.1433239       39.19265
2014    17      7       0.1423589       39.06749
2014    18      0       0.1304872       36.64161
2014    18      1       0.1194745       34.23636
2014    18      2       0.113307        32.80073
2014    18      3       0.1133239       32.71222
2014    18      4       0.1071295       31.37427
2014    18      5       0.1059859       31.06342
2014    18      6       0.1069647       31.11468
2014    18      7       0.1040218       30.5505
2014    19      0       0.09137707      27.81621
2014    19      1       0.09696002      28.78172
2014    19      2       0.1072905       31.02832
2014    19      3       0.1027484       30.13573
2014    19      4       0.1041422       30.49935
2014    19      5       0.1182084       33.51674
2014    19      6       0.1494139       40.11432
2014    19      7       0.1940614       49.34116
2014    20      0       0.2127401       53.23395
2014    20      1       0.1509134       40.895
2014    20      2       0.1542341       41.36664
2014    20      3       0.1744532       45.33799
2014    20      4       0.1812153       46.81704
2014    20      5       0.1827895       47.2324
2014    20      6       0.1998721       50.62219
2014    20      7       0.2542429       61.06576
2014    21      0       0.2406968       58.38281
2014    21      1       0.227974        55.88832
2014    21      2       0.2488914       59.7652
2014    21      3       0.2563756       61.20509
2014    21      4       0.2519768       60.47196
2014    21      5       0.2392905       58.27746
2014    21      6       0.231573        56.94373
2014    21      7       0.2041076       51.6663
2014    22      0       0.2019201       51.17017
2014    22      1       0.2055713       51.80311
2014    22      2       0.2173285       54.07154
2014    22      3       0.2145747       53.59878
2014    22      4       0.2191673       54.28357
2014    22      5       0.2416687       58.45867
2014    22      6       0.2550794       61.01884
2014    22      7       0.2626046       62.50892
2014    23      0       0.2670676       63.16565
2014    23      1       0.2523464       60.43226
2014    23      2       0.2431415       58.62096
2014    23      3       0.248941        59.72813
2014    23      4       0.2467385       59.54699
2014    23      5       0.2425166       58.79576
2014    23      6       0.2492671       60.01087
2014    23      7       0.2482882       59.83185
2014    24      0       0.2455996       59.25829
2014    24      1       0.2271768       55.78462
2014    24      2       0.2146468       53.39348
2014    24      3       0.1853286       47.7183
2014    24      4       0.2424595       58.64591
2014    24      5       0.2686376       63.78671
2014    24      6       0.2974124       68.96081
2014    24      7       0.2778083       65.69815
2014    25      0       0.2988647       69.31856
2014    25      1       0.2846734       66.76814
2014    25      2       0.2951742       68.69296
2014    25      3       0.3358192       75.75639
2014    25      4       0.3056979       70.37263
2014    25      5       0.2978778       69.01994
2014    25      6       0.2746395       64.80804
2014    25      7       0.2985491       69.24772
2014    26      0       0.2625045       62.56101
2014    26      1       0.2673133       63.38792
2014    26      2       0.2974942       68.89356
2014    26      3       0.2269674       55.67301
2014    26      4       0.2058617       51.77665
2014    26      5       0.1791497       46.79555
2014    26      6       0.1984561       50.61557
2014    26      7       0.2391442       58.3426
2014    27      0       0.2538246       61.17219
2014    27      1       0.2302349       56.60734
2014    27      2       0.2346314       57.50934
2014    27      3       0.243979        59.19669
2014    27      4       0.2922885       68.17155
2014    27      5       0.3023015       70.16264
2014    27      6       0.3216531       73.70095
2014    27      7       0.3177639       73.20296
2014    28      0       0.2814332       66.73142
2014    28      1       0.2511493       60.9907
2014    28      2       0.3187076       73.41365
2014    28      3       0.2996421       69.91228
2014    28      4       0.3068763       71.23009
2014    28      5       0.2893476       68.39304
2014    28      6       0.2217219       55.92035
2014    28      7       0.1724968       46.04138
2014    29      0       0.1439917       39.94924
2014    29      1       0.1056153       31.48435
2014    29      2       0.1064399       31.66996
2014    29      3       0.1338034       37.584
2014    29      4       0.1671525       44.42483
2014    29      5       0.2467531       59.96731
2014    29      6       0.2821024       66.67106
2014    29      7       0.2844958       67.31611
2014    30      0       0.296759        69.34792
2014    30      1       0.3245675       74.11868
2014    30      2       0.3263836       74.41682
2014    30      3       0.3494304       78.16853
2014    30      4       0.2961869       69.01149
2014    30      5       0.2689021       64.08
2014    30      6       0.2610372       62.53457
2014    30      7       0.240784        58.85939
2014    31      0       0.2421427       59.01377
2014    31      1       0.2552762       61.36399
2014    31      2       0.2622906       62.56972
2014    31      3       0.2629084       62.62095
2014    31      4       0.2580449       61.83479
2014    31      5       0.2786994       65.76657
2014    31      6       0.2949002       68.8258
2014    31      7       0.2769974       65.62873
2015    1       0       0.172488        45.3138
2015    1       1       0.1514089       40.92082
2015    1       2       0.1583137       42.29262
2015    1       3       0.1624298       43.25024
2015    1       4       0.1752825       45.78752
2015    1       5       0.1712919       44.90462
2015    1       6       0.1425421       38.92764
2015    1       7       0.1272694       35.60178
2015    2       0       0.1343531       37.1645
2015    2       1       0.1401965       38.46621
2015    2       2       0.1398464       38.50674
2015    2       3       0.1571075       42.10181
2015    2       4       0.1813303       46.9751
2015    2       5       0.2116969       52.98684
2015    2       6       0.2675327       63.56357
2015    2       7       0.2762407       65.09564
2015    3       0       0.2687797       63.69195
2015    3       1       0.2545989       60.96408
2015    3       2       0.2438944       58.83711
2015    3       3       0.2421088       58.47011
2015    3       4       0.2831915       66.17302
2015    3       5       0.2827473       66.14432
2015    3       6       0.2888225       67.14185
2015    3       7       0.2658555       62.90865
2015    4       0       0.2183781       53.96778
2015    4       1       0.2421084       58.28622
2015    4       2       0.2786812       65.1303
2015    4       3       0.2626925       62.23848
2015    4       4       0.2538097       60.6959
2015    4       5       0.3074978       70.56144
2015    4       6       0.3514475       78.50903
2015    4       7       0.3354971       76.02369
2015    5       0       0.408744        88.43288
2015    5       1       0.3884566       85.22134
2015    5       2       0.3274817       74.27419
2015    5       3       0.359256        79.80441
2015    5       4       0.4195837       89.89395
2015    5       5       0.3899644       85.28549
2015    5       6       0.4032385       87.4202
2015    5       7       0.301259        70.16918
2015    6       0       0.2482393       60.09915
2015    6       1       0.2440107       59.07405
2015    6       2       0.261149        62.32116
2015    6       3       0.268069        63.63099
2015    6       4       0.2459137       59.5257
2015    6       5       0.224376        55.27552
2015    6       6       0.2021441       51.23003
2015    6       7       0.1194714       34.12711
2015    7       0       0.09048446      27.46513
2015    7       1       0.1166709       33.14507
2015    7       2       0.1320324       36.57672
2015    7       3       0.143217        39.04199
2015    7       4       0.1224973       34.78406
2015    7       5       0.100584        30.04693
2015    7       6       0.09335942      28.47062
2015    7       7       0.09761774      29.5117
2015    8       0       0.1141748       33.19189
2015    8       1       0.1167515       33.88008
2015    8       2       0.1034837       31.06886
2015    8       3       0.1228795       35.44238
2015    8       4       0.1854062       48.80623
2015    8       5       0.249865        61.70089
2015    8       6       0.2795485       67.2795
2015    8       7       0.2498953       61.57264
2015    9       0       0.2482812       60.96867
2015    9       1       0.2250211       56.33938
2015    9       2       0.2169413       54.67406
2015    9       3       0.23269         57.53871
2015    9       4       0.2597551       62.51534
2015    9       5       0.2701126       64.35063
2015    9       6       0.2854685       67.06432
2015    9       7       0.2928937       68.37045
2015    10      0       0.2670954       63.69911
2015    10      1       0.2255299       55.92538
2015    10      2       0.2029634       51.39816
2015    10      3       0.2167375       53.94981
2015    10      4       0.2265156       55.84826
2015    10      5       0.2473849       60.00154
2015    10      6       0.2694158       64.47518
2015    10      7       0.2857102       67.64173
2015    11      0       0.3618224       80.91119
2015    11      1       0.3691982       82.36663
2015    11      2       0.3626365       81.53138
2015    11      3       0.356397        80.72686
2015    11      4       0.3503011       79.58287
2015    11      5       0.3466993       78.88146
2015    11      6       0.3466899       78.91655
2015    11      7       0.3748331       83.62923
2015    12      0       0.3975485       86.97941
2015    12      1       0.3827366       84.44115
2015    12      2       0.3844225       84.96448
2015    12      3       0.4478248       95.2519
2015    12      4       0.4741084       99.47855
2015    12      5       0.4755471       99.81291
2015    12      6       0.4439069       94.98158
2015    12      7       0.5165555       105.8256
2015    13      0       0.5260337       106.9029
2015    13      1       0.5130353       104.6381
2015    13      2       0.5111898       104.0169
2015    13      3       0.441574        93.40755
2015    13      4       0.4764638       98.80032
2015    13      5       0.4647576       96.86523
2015    13      6       0.3823893       83.85371
2015    13      7       0.3278086       74.59978
2015    14      0       0.2747889       65.18208
2015    14      1       0.2199239       54.97655
2015    14      2       0.1980078       50.63556
2015    14      3       0.2034423       51.46037
2015    14      4       0.2244513       55.22755
2015    14      5       0.2420273       58.53656
2015    14      6       0.2304069       56.4099
2015    14      7       0.194105        49.43037
2015    15      0       0.1878081       48.10687
2015    15      1       0.1870682       47.91732
2015    15      2       0.1816069       46.9192
2015    15      3       0.1795394       46.45348
2015    15      4       0.1671849       43.90205
2015    15      5       0.161666        42.73251
2015    15      6       0.1488492       40.1909
2015    15      7       0.1401432       38.50772
2015    16      0       0.1303329       36.50354
2015    16      1       0.1176543       33.78504
2015    16      2       0.1190218       34.08499
2015    16      3       0.1143319       33.10504
2015    16      4       0.1152249       33.24644
2015    16      5       0.1129336       32.66673
2015    16      6       0.1180275       33.59291
2015    16      7       0.129102        35.83414
2015    17      0       0.1391517       37.98562
2015    17      1       0.137412        37.71725
2015    17      2       0.141508        38.50121
2015    17      3       0.1659478       43.57215
2015    17      4       0.2106637       52.63215
2015    17      5       0.2425889       58.85796
2015    17      6       0.2744689       64.9492
2015    17      7       0.2835742       66.7183
2015    18      0       0.2461769       59.70211
2015    18      1       0.1714635       45.08367
2015    18      2       0.1415029       38.74702
2015    18      3       0.1695072       44.43719
2015    18      4       0.2116597       52.78707
2015    18      5       0.2276125       55.9819
2015    18      6       0.2330597       57.14939
2015    18      7       0.2471875       59.8223
2015    19      0       0.2945934       68.61439
2015    19      1       0.3228203       73.68164
2015    19      2       0.2791211       65.84029
2015    19      3       0.2306619       56.74634
2015    19      4       0.2443418       59.33657
2015    19      5       0.2335809       57.48764
2015    19      6       0.2654818       63.44912
2015    19      7       0.2956131       68.96397
2015    20      0       0.2587976       62.33796
2015    20      1       0.247251        60.09373
2015    20      2       0.2491287       60.8227
2015    20      3       0.2920101       68.56696
2015    20      4       0.3184175       73.3478
2015    20      5       0.322081        74.16503
2015    20      6       0.3221347       74.15117
2015    20      7       0.3468064       78.21645
2015    21      0       0.3279107       74.93932
2015    21      1       0.3047233       70.68789
2015    21      2       0.3593482       79.83443
2015    21      3       0.3517107       78.46482
2015    21      4       0.2751622       65.27359
2015    21      5       0.3615478       80.44532
2015    21      6       0.4339645       92.27021
2015    21      7       0.3372158       76.35402
2015    22      0       0.2477523       59.77811
2015    22      1       0.2257333       55.42099
2015    22      2       0.2093292       52.21936
2015    22      3       0.2252107       55.17416
2015    22      4       0.2422423       58.46838
2015    22      5       0.2584696       61.53145
2015    22      6       0.2509639       60.17705
2015    22      7       0.2599597       61.85146
2015    23      0       0.2624088       62.19666
2015    23      1       0.2285549       55.76547
2015    23      2       0.2252902       55.00522
2015    23      3       0.2130402       52.62433
2015    23      4       0.2133855       52.74884
2015    23      5       0.2010048       50.43807
2015    23      6       0.2057407       51.20782
2015    23      7       0.2085025       51.70084
2015    24      0       0.2213673       54.28532
2015    24      1       0.2498231       59.5652
2015    24      2       0.2427449       58.24122
2015    24      3       0.2209783       53.99863
2015    24      4       0.2522585       60.10634
2015    24      5       0.2645222       62.3917
2015    24      6       0.2588126       61.29923
2015    24      7       0.2336615       56.63511
2015    25      0       0.1891559       48.0948
2015    25      1       0.1629559       42.95879
2015    25      2       0.1684726       44.14806
2015    25      3       0.1833215       47.11237
2015    25      4       0.2057387       51.3894
2015    25      5       0.2060895       51.3123
2015    25      6       0.2016547       50.44162
2015    25      7       0.1884753       47.83858
2015    26      0       0.1849552       47.09368
2015    26      1       0.1790613       45.76672
2015    26      2       0.1674747       43.29789
2015    26      3       0.1679786       43.42959
2015    26      4       0.1862522       47.10047
2015    26      5       0.1989472       49.7039
2015    26      6       0.1922978       48.35638
2015    26      7       0.1745744       44.79644
2015    27      0       0.1639259       42.5481
2015    27      1       0.1591432       41.51858
2015    27      2       0.1469223       38.94749
2015    27      3       0.1741824       44.57156
2015    27      4       0.1696719       43.65695
2015    27      5       0.1283441       35.14642
2015    27      6       0.1077124       30.87456
2015    27      7       0.08775418      26.6327
2015    28      0       0.07432566      23.5889
2015    28      1       0.07282448      23.12935
2015    28      2       0.09826386      28.69863
2015    28      3       0.1367122       36.97648
2015    28      4       0.178357        45.51225
2015    28      5       0.2009257       49.99443
2015    28      6       0.189195        47.76337
2015    28      7       0.1753877       44.96901
2015    29      0       0.1663429       43.02743
2015    29      1       0.1548587       40.71578
2015    29      2       0.1422166       38.34767
2015    29      3       0.1261904       35.14725
2015    29      4       0.1160153       33.02573
2015    29      5       0.1089616       31.35048
2015    29      6       0.1201023       33.50076
2015    29      7       0.1539172       40.63522
2015    30      0       0.1918748       48.46227
2015    30      1       0.2304052       56.0651
2015    30      2       0.2411638       58.19914
2015    30      3       0.3288          74.22436
2015    30      4       0.3177703       72.60288
2015    30      5       0.3141361       71.97643
2015    30      6       0.3046903       70.26351
2015    30      7       0.2516303       60.29695
2015    31      0       0.2539305       60.76125
2015    31      1       0.2233865       54.85441
2015    31      2       0.2962926       68.34202
2015    31      3       0.3300523       74.66502
2015    31      4       0.3132513       71.85403
2015    31      5       0.3172328       72.57062
2015    31      6       0.3513247       78.63576
2015    31      7       0.3964732       86.33924
2016    1       0       0.2773731       65.66481
2016    1       1       0.272554        64.92402
2016    1       2       0.3018436       70.21478
2016    1       3       0.3199989       73.52774
2016    1       4       0.2688314       64.41531
2016    1       5       0.2712505       64.77827
2016    1       6       0.3361092       76.15773
2016    1       7       0.3509798       78.79194
2016    5       0       0.1257915       35.5631
2016    5       1       0.107715        31.38586
2016    5       2       0.1035247       30.49374
2016    5       3       0.1171165       33.39749
2016    5       4       0.1390551       37.9961
2016    5       5       0.1250198       35.01672
2016    5       6       0.1092225       31.48614
2016    5       7       0.1210518       34.09789
2016    6       0       0.1316633       36.27055
2016    6       1       0.1511748       40.37784
2016    6       2       0.1806039       46.48204
2016    6       3       0.2177284       53.89534
2016    6       4       0.2443511       59.07214
2016    6       5       0.2437083       58.99378
2016    6       6       0.2264574       55.70926
2016    6       7       0.2032198       51.25199
2016    7       0       0.2040185       51.41045
2016    7       1       0.2083897       52.16176
2016    7       2       0.2302385       56.46298
2016    7       3       0.2737055       64.56151
2016    7       4       0.2522196       60.72125
2016    7       5       0.2371352       57.68142
2016    7       6       0.228482        55.9798
2016    7       7       0.284752        66.43297
2016    8       0       0.2884785       67.04829
2016    8       1       0.2131979       52.89311
2016    8       2       0.1561878       41.59177
2016    8       3       0.1221069       34.45544
2016    8       4       0.1181367       33.64604
2016    8       5       0.1101629       31.92222
2016    8       6       0.1169141       33.31516
2016    8       7       0.1458468       39.43299
2016    9       0       0.1827461       47.19314
2016    9       1       0.1990404       50.65086
2016    9       2       0.2394879       58.41246
2016    9       3       0.3177198       72.941
2016    9       4       0.4146894       89.86535
2016    9       5       0.4347275       93.50851
2016    9       6       0.4193821       91.46508
2016    9       7       0.3531293       80.75565
2016    10      0       0.2532966       62.57382
2016    10      1       0.3046082       71.64827
2016    10      2       0.330258        76.35228
2016    10      3       0.3169705       74.1806
2016    10      4       0.3002622       71.06351
2016    10      5       0.2648071       64.50043
2016    10      6       0.266322        64.63617
2016    10      7       0.3041101       71.51393
2016    11      0       0.3258814       75.22594
2016    11      1       0.3373844       77.06615
2016    11      2       0.3608117       80.91085
2016    11      3       0.4311773       92.34897
2016    11      4       0.3740934       83.41246
2016    11      5       0.3245845       75.00964
2016    11      6       0.300652        70.6079
2016    11      7       0.3077523       71.73359
2016    12      0       0.3577074       80.07076
2016    12      1       0.35116         78.88277
2016    12      2       0.3807487       83.86393
2016    12      3       0.4096283       88.21679
2016    12      4       0.3632403       80.78507
2016    12      5       0.3281244       74.96285
2016    12      6       0.3070237       71.25277
2016    12      7       0.2823843       66.84661
2016    13      0       0.2592986       62.47479
2016    13      1       0.2457583       59.71206
2016    13      2       0.238975        58.56534
2016    13      3       0.2737531       65.11027
2016    13      4       0.3027317       70.28999
2016    13      5       0.301089        69.92805
2016    13      6       0.3047007       70.4907
2016    13      7       0.3113617       71.66886
2016    14      0       0.3178362       72.91729
2016    14      1       0.3312794       75.31006
2016    14      2       0.4027218       86.84175
2016    14      3       0.3342768       75.69988
2016    14      4       0.324918        74.11303
2016    14      5       0.3412622       77.10284
2016    14      6       0.3608854       80.32669
2016    14      7       0.2898992       67.61809
2016    15      0       0.2100381       52.53346
2016    15      1       0.1694449       44.49127
2016    15      2       0.1579188       42.23801
2016    15      3       0.1389247       38.46636
2016    15      4       0.1361329       37.87623
2016    15      5       0.1536456       41.4368
2016    15      6       0.1896605       48.83492
2016    15      7       0.2172559       54.48338
2016    16      0       0.2318137       57.53654
2016    16      1       0.2096773       53.34333
2016    16      2       0.1864701       48.62549
2016    16      3       0.1905974       49.41861
2016    16      4       0.1998628       51.27158
2016    16      5       0.2327515       57.50424
2016    16      6       0.2687121       64.09173
2016    16      7       0.2409676       59.12391
2016    17      0       0.1900716       49.19516
2016    17      1       0.1544798       41.75719
2016    17      2       0.142318        38.97378
2016    17      3       0.1532926       41.05814
2016    17      4       0.1702564       44.42826
2016    17      5       0.206093        51.53712
2016    17      6       0.2395212       57.97067
2016    17      7       0.224416        54.95422
2016    18      0       0.1563094       41.39195
2016    18      1       0.1131219       32.3049
2016    18      2       0.1388038       37.6116
2016    18      3       0.1484933       39.4985
2016    18      4       0.1529574       40.44102
2016    18      5       0.1299559       35.80459
2016    18      6       0.09343835      28.10269
2016    18      7       0.06951161      22.689
2016    19      0       0.06707529      22.03955
2016    19      1       0.07181687      23.08452
2016    19      2       0.08342753      25.88595
2016    19      3       0.08681335      26.62693
2016    19      4       0.08396063      26.05428
2016    19      5       0.07764534      24.66229
2016    19      6       0.07534048      24.09466
2016    19      7       0.08099434      25.22172
2016    20      0       0.1464665       39.38662
2016    20      1       0.1733385       45.28231
2016    20      2       0.1636525       43.51838
2016    20      3       0.1887132       48.74496
2016    20      4       0.1926833       49.6613
2016    20      5       0.1552622       42.14895
2016    20      6       0.1343472       37.71398
2016    20      7       0.1320875       37.15979
2016    21      0       0.1392207       38.54296
2016    21      1       0.1354468       37.64597
2016    21      2       0.1411081       38.82492
2016    21      3       0.1552304       41.72557
2016    21      4       0.1590202       42.475
2016    21      5       0.1493263       40.49016
2016    21      6       0.1363608       37.88898
2016    21      7       0.1406106       38.7464
2016    22      0       0.1499181       40.58283
2016    22      1       0.1463232       39.76437
2016    22      2       0.1366788       37.80995
2016    22      3       0.1303674       36.56275
2016    22      4       0.124641        35.32176
2016    22      5       0.1209741       34.48012
2016    22      6       0.1135132       32.84736
2016    22      7       0.1080157       31.65282
2016    23      0       0.1001643       29.88095
2016    23      1       0.09325178      28.30411
2016    23      2       0.09764084      29.23653
2016    23      3       0.1227297       34.68953
2016    23      4       0.1423381       38.8483
2016    23      5       0.1476276       39.9903
2016    23      6       0.154221        41.34208
2016    23      7       0.1622185       43.01654
2016    24      0       0.1746186       45.50089
2016    24      1       0.1938774       49.34417
2016    24      2       0.2052492       51.72924
2016    24      3       0.2346077       57.31105
2016    24      4       0.2507574       60.63786
2016    24      5       0.2598339       62.50383
2016    24      6       0.26472         63.29154
2016    24      7       0.2806268       66.03677
2016    25      0       0.2901278       67.82688
2016    25      1       0.2977021       69.17359
2016    25      2       0.3733037       82.14914
2016    25      3       0.3248702       74.3436
2016    25      4       0.3077646       71.31893
2016    25      5       0.3072319       71.20257
2016    25      6       0.4081637       88.2873
2016    25      7       0.413711        89.407
2016    26      0       0.394123        86.29299
2016    26      1       0.3537756       79.36865
2016    26      2       0.3026651       70.31541
2016    26      3       0.2580357       61.91797
2016    26      4       0.2558561       61.59921
2016    26      5       0.3575936       79.92033
2016    26      6       0.2801043       66.0704
2016    26      7       0.4076953       87.84512
2016    27      0       0.4189381       89.79694
2016    27      1       0.251086        60.49715
2016    27      2       0.2164998       53.70477
2016    27      3       0.190138        48.51987
2016    27      4       0.1854996       47.6539
2016    27      5       0.2030039       50.96819
2016    27      6       0.2224237       54.88231
2016    27      7       0.2255596       55.46255
2016    28      0       0.2471032       59.51849
2016    28      1       0.2263873       55.5883
2016    28      2       0.2310979       56.33582
2016    28      3       0.2759825       64.94552
2016    28      4       0.3167038       72.61033
2016    28      5       0.375653        82.77628
2016    28      6       0.4334937       92.29724
2016    28      7       0.4602253       96.87111
2016    29      0       0.485069        100.5585
2016    29      1       0.4374613       92.78943
2016    29      2       0.4017587       87.0111
2016    29      3       0.4206321       90.38041
2016    29      4       0.4019803       87.13846
2016    29      5       0.2877972       66.88278
2016    29      6       0.2540964       60.33787
2016    29      7       0.1983005       49.97455
2016    30      0       0.1542106       41.1051
2016    30      1       0.1848609       47.14696
2016    30      2       0.2101723       52.12039
2016    30      3       0.1918645       48.44633
2016    30      4       0.1672772       43.57058
2016    30      5       0.1331019       36.59073
2016    30      6       0.1109974       31.95751
2016    30      7       0.1075123       31.22055
2016    31      0       0.107719        31.22602
2016    31      1       0.1059542       30.83121
2016    31      2       0.1111287       31.98044
2016    31      3       0.1416484       38.43851
2016    31      4       0.1558649       41.33558
2016    31      5       0.147709        39.61502
2016    31      6       0.1369821       37.33374
2016    31      7       0.1535631       40.67361
2017    1       0       0.1309279       36.8564
2017    1       1       0.1157766       33.29272
2017    1       2       0.1248044       35.11993
2017    1       3       0.1506292       40.62682
2017    1       4       0.1678334       44.25555
2017    1       5       0.1686893       44.51382
2017    1       6       0.1821648       47.3267
2017    1       7       0.2455177       59.94247
2017    2       0       0.2303745       57.20244
2017    2       1       0.2065456       52.48078
2017    2       2       0.2103456       53.19002
2017    2       3       0.2917783       68.41771
2017    2       4       0.3372673       76.46641
2017    2       5       0.3540718       79.69262
2017    2       6       0.4469368       94.78711
2017    2       7       0.3481814       79.04296
2017    3       0       0.4158491       89.63852
2017    3       1       0.4055728       87.86577
2017    3       2       0.4276995       91.80737
2017    3       3       0.4879274       101.2086
2017    3       4       0.500463        103.2494
2017    3       5       0.51355         105.3135
2017    3       6       0.5434007       109.6711
2017    3       7       0.481023        100.3069
2017    4       0       0.3725255       82.68248
2017    4       1       0.3467864       78.05259
2017    4       2       0.5020998       103.0607
2017    4       3       0.4401382       93.68967
2017    4       4       0.3891669       85.69231
2017    4       5       0.3678615       81.74166
2017    4       6       0.2143847       53.50968
2017    4       7       0.1933316       49.27696
2017    5       0       0.2242055       55.07693
2017    5       1       0.1903185       48.45856
2017    5       2       0.1890936       48.18372
2017    5       3       0.2082558       51.9234
2017    5       4       0.204888        51.21019
2017    5       5       0.2071067       51.55655
2017    5       6       0.2045954       51.07687
2017    5       7       0.2068098       51.5666
2017    6       0       0.2022821       50.58752
2017    6       1       0.1979878       49.73055
2017    6       2       0.2173609       53.50444
2017    6       3       0.2510091       59.94965
2017    6       4       0.2633732       62.38422
2017    6       5       0.2636858       62.32391
2017    6       6       0.2847375       66.16751
2017    6       7       0.317856        72.1577
2017    7       0       0.3192854       72.4229
2017    7       1       0.3114568       71.03167
2017    7       2       0.29175         67.52602
2017    7       3       0.289259        67.15427
2017    7       4       0.3081801       70.64248
2017    7       5       0.3255024       73.67253
2017    7       6       0.2987056       68.75709
2017    7       7       0.265554        62.59237
2017    8       0       0.2275729       55.34139
2017    8       1       0.1922921       48.44714
2017    8       2       0.1720197       44.34538
2017    8       3       0.1695968       43.85581
2017    8       4       0.1638662       42.67797
2017    8       5       0.1489753       39.61486
2017    8       6       0.1382158       37.37213
2017    8       7       0.1294454       35.49776
2017    9       0       0.1216586       33.83844
2017    9       1       0.1143152       32.29339
2017    9       2       0.1142284       32.31712
2017    9       3       0.1303147       35.69699
2017    9       4       0.1326802       36.20074
2017    9       5       0.1232627       34.30407
2017    9       6       0.116693        32.97876
2017    9       7       0.109476        31.51376
2017    10      0       0.099894        29.49692
2017    10      1       0.08594955      26.4449
2017    10      2       0.08422165      26.06518
2017    10      3       0.09091142      27.62255
2017    10      4       0.0848635       26.27422
2017    10      5       0.07682812      24.43856
2017    10      6       0.07127397      23.13934
2017    10      7       0.06428833      21.46266
2017    11      0       0.06445443      21.42665
2017    11      1       0.06969463      22.60457
2017    11      2       0.07414896      23.63494
2017    11      3       0.08955044      27.19858
2017    11      4       0.09629106      28.70854
2017    11      5       0.09828412      29.14163
2017    11      6       0.1002154       29.54785
2017    11      7       0.1008703       29.62823
2017    12      0       0.1028248       29.93542
2017    12      1       0.1141067       32.32215
2017    12      2       0.1419169       38.20246
2017    12      3       0.1714331       44.21184
2017    12      4       0.1874475       47.30475
2017    12      5       0.1849747       46.80127
2017    12      6       0.1822109       46.25047
2017    12      7       0.1628215       42.36269
2017    13      0       0.1423212       38.13124
2017    13      1       0.1243905       34.46253
2017    13      2       0.128263        35.24417
2017    13      3       0.1525126       40.29985
2017    13      4       0.1715715       44.22724
2017    13      5       0.1725601       44.48448
2017    13      6       0.1781108       45.64585
2017    13      7       0.1722564       44.46687
2017    14      0       0.1668963       43.4246
2017    14      1       0.1657066       43.30956
2017    14      2       0.194476        49.06776
2017    14      3       0.239001        57.81375
2017    14      4       0.26932         63.43582
2017    14      5       0.2527396       60.37711
2017    14      6       0.2392259       57.86963
2017    14      7       0.2253571       55.23552
2017    15      0       0.2199426       54.19791
2017    15      1       0.2112721       52.55008
2017    15      2       0.2103501       52.42694
2017    15      3       0.2213242       54.69741
2017    15      4       0.2336784       57.12863
2017    15      5       0.2466414       59.50941
2017    15      6       0.2661069       63.03378
2017    15      7       0.2549253       61.0385
2017    16      0       0.2314902       56.7378
2017    16      1       0.2224452       54.9273
2017    16      2       0.2345178       56.99617
2017    16      3       0.3024421       69.47259
2017    16      4       0.2989217       68.93853
2017    16      5       0.2845629       66.43569
2017    16      6       0.2665312       63.1882
2017    16      7       0.2490575       60.01145
2017    17      0       0.2323968       56.82859
2017    17      1       0.228166        55.90649
2017    17      2       0.2249833       54.90284
2017    17      3       0.2560372       60.79464
2017    17      4       0.2639982       62.31018
2017    17      5       0.2477411       59.32943
2017    17      6       0.2437775       58.63075
2017    17      7       0.2326988       56.58862
2017    18      0       0.2195599       54.03112
2017    18      1       0.2006084       50.22138
2017    18      2       0.2113662       52.22773
2017    18      3       0.2553103       60.68484
2017    18      4       0.2814488       65.59464
2017    18      5       0.2538152       60.53655
2017    18      6       0.2296061       55.9296
2017    18      7       0.2308363       56.18684
2017    19      0       0.2288839       55.70906
2017    19      1       0.1996923       49.95089
2017    19      2       0.1688985       43.81474
2017    19      3       0.1702655       44.04007
2017    19      4       0.1764282       45.25579
2017    19      5       0.1718281       44.37459
2017    19      6       0.1827845       46.63673
2017    19      7       0.1917299       48.59212
2017    20      0       0.2052853       51.35369
2017    20      1       0.2162252       53.52458
2017    20      2       0.2102773       52.40332
2017    20      3       0.2193696       54.34547
2017    20      4       0.2260003       55.64741
2017    20      5       0.2177488       54.03663
2017    20      6       0.2348499       57.23105
2017    20      7       0.2458795       59.45177
2017    21      0       0.2322632       56.96698
2017    21      1       0.2189312       54.25801
2017    21      2       0.2139462       53.38567
2017    21      3       0.2521699       60.73064
2017    21      4       0.2561495       61.50697
2017    21      5       0.248659        60.13355
2017    21      6       0.2614031       62.53139
2017    21      7       0.2740752       64.81237
2017    22      0       0.2574305       61.79226
2017    22      1       0.2550837       61.31341
2017    22      2       0.2818951       66.20033
2017    22      3       0.30431         70.29965
2017    22      4       0.3011459       69.87671
2017    22      5       0.2660464       63.34283
2017    22      6       0.2696134       63.94397
2017    22      7       0.2827862       66.58744
2017    23      0       0.290984        67.96703
2017    23      1       0.2626178       62.76475
2017    23      2       0.2857338       67.12746
2017    23      3       0.4206589       90.21069
2017    23      4       0.4451333       94.25653
2017    23      5       0.4577059       96.23683
2017    23      6       0.435027        93.1527
2017    23      7       0.4263699       91.85336
2017    24      0       0.3790475       83.95491
2017    24      1       0.3555895       79.53894
2017    24      2       0.3669257       81.41436
2017    24      3       0.4363431       92.69222
2017    24      4       0.4638102       97.13976
2017    24      5       0.4478738       94.45695
2017    24      6       0.4310945       91.78085
2017    24      7       0.442053        93.51868
2017    25      0       0.4450936       93.95308
2017    25      1       0.4326416       92.0987
2017    25      2       0.4921956       101.2021
2017    25      3       0.5241275       106.1993
2017    25      4       0.5328913       107.8584
2017    25      5       0.5656332       112.6549
2017    25      6       0.4347961       93.32849
2017    25      7       0.3995738       87.55309
2017    26      0       0.4131032       89.52612
2017    26      1       0.4004497       87.29096
2017    26      2       0.4117404       88.78066
2017    26      3       0.464843        97.33761
2017    26      4       0.4341197       92.68381
2017    26      5       0.380996        84.18026
2017    26      6       0.3187814       73.61563
2017    26      7       0.2168402       54.6544
2017    27      0       0.2517502       60.59949
2017    27      1       0.273646        64.67594
2017    27      2       0.2317188       56.99756
2017    27      3       0.298498        69.3162
2017    27      4       0.2828864       66.38354
2017    27      5       0.3033545       70.05944
2017    27      6       0.3708286       82.05397
2017    27      7       0.4096106       88.88168
2017    28      0       0.4417934       94.0722
2017    28      1       0.4224469       90.93802
2017    28      2       0.4173191       90.18886
2017    28      3       0.4416583       94.29483
2017    28      4       0.5010428       103.4839
2017    28      5       0.4731478       99.11014
2017    28      6       0.3955859       86.49498
2017    28      7       0.3774506       83.49484
2017    29      0       0.4166544       90.07382
2017    29      1       0.3680251       82.014
2017    29      2       0.2956385       69.13098
2017    29      3       0.3043597       70.82412
2017    29      4       0.2917624       68.42681
2017    29      5       0.3759018       83.12176
2017    29      6       0.4526681       95.81909
2017    29      7       0.3635929       81.4008
2017    30      0       0.397295        86.91323
2017    30      1       0.27611         65.89879
2017    30      2       0.2233754       55.7831
2017    30      3       0.4466583       94.20656
2017    30      4       0.3878177       85.11327
2017    30      5       0.3930505       86.16785
2017    30      6       0.4082443       88.5972
2017    30      7       0.2881766       67.85833
2017    31      0       0.1965744       50.46712
2017    31      1       0.1440627       39.67677
2017    31      2       0.1429775       39.075
2017    31      3       0.1910723       48.66991
2017    31      4       0.2359609       57.47715
2017    31      5       0.2376794       57.83851
2017    31      6       0.2280825       56.04784
2017    31      7       0.2466448       59.61254
2018    1       0       0.1653251       43.60307
2018    1       1       0.155991        41.47566
2018    1       2       0.1548711       41.17221
2018    1       3       0.1537099       40.99703
2018    1       4       0.1541038       41.1718
2018    1       5       0.1510285       40.60438
2018    1       6       0.1439123       39.18392
2018    1       7       0.1356404       37.50717
2018    2       0       0.1187702       33.97659
2018    2       1       0.1058389       31.06353
2018    2       2       0.1191183       33.81236
2018    2       3       0.1307937       36.49047
2018    2       4       0.161166        42.81641
2018    2       5       0.1997294       50.60046
2018    2       6       0.2343694       57.49624
2018    2       7       0.2603989       62.84691
2018    3       0       0.2425866       59.92176
2018    3       1       0.2266533       56.78357
2018    3       2       0.2280227       56.68099
2018    3       3       0.2311165       56.9156
2018    3       4       0.2747309       65.06896
2018    3       5       0.2977797       69.70122
2018    3       6       0.4128421       89.18071
2018    3       7       0.3151265       72.84398
2018    4       0       0.2910089       68.22095
2018    4       1       0.2701074       64.17316
2018    4       2       0.2575694       61.73693
2018    4       3       0.2799404       65.86242
2018    4       4       0.2733164       64.61179
2018    4       5       0.2523996       60.85951
2018    4       6       0.2748936       65.01991
2018    4       7       0.3153654       72.23303
2018    5       0       0.3053094       70.46646
2018    5       1       0.2826898       66.15877
2018    5       2       0.2691557       63.41756
2018    5       3       0.2453659       58.97324
2018    5       4       0.2484898       59.67547
2018    5       5       0.2496261       59.98135
2018    5       6       0.2292565       56.13812
2018    5       7       0.2051818       51.46921
2018    6       0       0.1657027       43.61524
2018    6       1       0.1362889       37.51883
2018    6       2       0.1255144       35.2278
2018    6       3       0.1211186       34.19325
2018    6       4       0.1536553       40.82485
2018    6       5       0.1829859       46.85342
2018    6       6       0.2014924       50.58089
2018    6       7       0.2121532       52.74256
2018    7       0       0.2048725       51.20642
2018    7       1       0.1883294       47.90347
2018    7       2       0.2032066       50.86882
2018    7       3       0.211782        52.45112
2018    7       4       0.2287898       55.85626
2018    7       5       0.229941        56.28891
2018    7       6       0.2432261       58.82062
2018    7       7       0.2179058       53.86447
2018    8       0       0.1913022       48.64057
2018    8       1       0.1921079       48.81463
2018    8       2       0.2097148       52.24592
2018    8       3       0.2099288       52.22642
2018    8       4       0.2490936       59.89948
2018    8       5       0.2668416       63.38984
2018    8       6       0.2744514       64.84512
2018    8       7       0.271334        64.2909
2018    9       0       0.2479022       59.87846
2018    9       1       0.2578379       61.69178
2018    9       2       0.2674737       63.51552
2018    9       3       0.2560845       61.41016
2018    9       4       0.2629281       62.77471
2018    9       5       0.2950998       68.77785
2018    9       6       0.2905791       68.04741
2018    9       7       0.2884914       67.62843
2018    10      0       0.280866        66.22606
2018    10      1       0.2544098       61.34848
2018    10      2       0.2587699       62.11784
2018    10      3       0.2534664       61.24834
2018    10      4       0.2526063       61.25029
2018    10      5       0.2617805       63.15496
2018    10      6       0.27835         66.28741
2018    10      7       0.2742801       65.61513
2018    11      0       0.2514774       61.35565
2018    11      1       0.2342464       58.00984
2018    11      2       0.2547897       61.67464
2018    11      3       0.2409717       59.00157
2018    11      4       0.2176439       54.61792
2018    11      5       0.1593891       43.00742
2018    11      6       0.1386816       38.28704
2018    11      7       0.120117        33.95947
2018    12      0       0.1276266       35.60099
2018    12      1       0.1429493       38.97707
2018    12      2       0.1539886       41.53306
2018    12      3       0.1565783       42.21903
2018    12      4       0.1562774       42.1633
2018    12      5       0.1593475       42.82149
2018    12      6       0.1961965       50.00924
2018    12      7       0.2713631       64.48125
2018    13      0       0.3077878       71.44742
2018    13      1       0.3265016       74.80391
2018    13      2       0.3564826       79.95541
2018    13      3       0.4129753       89.29048
2018    13      4       0.3847643       84.5675
2018    13      5       0.3160121       72.60119
2018    13      6       0.2783325       65.57854
2018    13      7       0.2659438       63.13397
2018    14      0       0.2336068       56.86005
2018    14      1       0.2106011       52.18753
2018    14      2       0.2054512       50.96891
2018    14      3       0.2005804       49.98008
2018    14      4       0.190399        48.10388
2018    14      5       0.1529063       40.68813
2018    14      6       0.1321951       36.32886
2018    14      7       0.1189006       33.42785
2018    15      0       0.1523548       40.42242
2018    15      1       0.1367896       37.21727
2018    15      2       0.1456397       39.04981
2018    15      3       0.1684216       43.87128
2018    15      4       0.1904841       48.45579
2018    15      5       0.197941        49.92901
2018    15      6       0.2155899       53.40596
2018    15      7       0.2254587       55.32055
2018    16      0       0.2449686       59.0558
2018    16      1       0.2441802       58.87629
2018    16      2       0.2480409       59.55182
2018    16      3       0.2764689       64.96852
2018    16      4       0.3105703       71.2032
2018    16      5       0.3135312       71.74038
2018    16      6       0.2980465       68.91822
2018    16      7       0.2838286       66.42446
2018    17      0       0.2830965       66.2087
2018    17      1       0.2552531       60.99013
2018    17      2       0.2320728       56.44589
2018    17      3       0.2219283       54.31225
2018    17      4       0.2346025       56.83111
2018    17      5       0.2445976       58.80881
2018    17      6       0.2705799       63.68712
2018    17      7       0.2006169       50.36846
2018    18      0       0.195879        49.32349
2018    18      1       0.1679533       43.84477
2018    18      2       0.2020316       50.48638
2018    18      3       0.2349241       56.97445
2018    18      4       0.2799652       65.57478
2018    18      5       0.285389        66.80169
2018    18      6       0.2770523       65.30248
2018    18      7       0.2882816       67.33679
2018    19      0       0.2764417       65.1472
2018    19      1       0.2596004       62.05482
2018    19      2       0.2617669       62.44964
2018    19      3       0.2590874       61.96461
2018    19      4       0.2225034       55.21914
2018    19      5       0.1509955       41.0093
2018    19      6       0.101329        30.19979
2018    19      7       0.07970481      25.29279
2018    20      0       0.08119747      25.63693
2018    20      1       0.0995225       29.73802
2018    20      2       0.1040184       30.90412
2018    20      3       0.09659536      29.38707
2018    20      4       0.0895273       27.87539
2018    20      5       0.08304185      26.36343
2018    20      6       0.08260481      26.18728
2018    20      7       0.08383382      26.51369
2018    21      0       0.094128        28.91313
2018    21      1       0.09366472      28.83086
2018    21      2       0.09111684      28.24147
2018    21      3       0.0954793       29.19373
2018    21      4       0.1057286       31.53078
2018    21      5       0.1162731       33.962
2018    21      6       0.1087435       32.2939
2018    21      7       0.09890643      29.97935
2018    22      0       0.1007761       30.25834
2018    22      1       0.1043584       30.96767
2018    22      2       0.1194983       34.33914
2018    22      3       0.1357531       37.86724
2018    22      4       0.1496224       40.76343
2018    22      5       0.1606177       43.06054
2018    22      6       0.1715904       45.30391
2018    22      7       0.1638491       43.66494
2018    23      0       0.152108        41.11671
2018    23      1       0.1552187       41.61968
2018    23      2       0.165642        43.64834
2018    23      3       0.1816427       46.83784
2018    23      4       0.1892491       48.71847
2018    23      5       0.1706306       45.1734
2018    23      6       0.1620888       43.30519
2018    23      7       0.1384817       38.20664
2018    24      0       0.1209703       34.11294
2018    24      1       0.1561583       41.4935
2018    24      2       0.1740852       45.35306
2018    24      3       0.2099073       52.62489
2018    24      4       0.227798        56.05998
2018    24      5       0.2453669       59.38732
2018    24      6       0.2462957       59.63307
2018    24      7       0.2319279       56.79291
2018    25      0       0.2168995       53.66145
2018    25      1       0.2228018       54.60277
2018    25      2       0.228184        55.64772
2018    25      3       0.2281929       55.64844
2018    25      4       0.2247561       55.07321
2018    25      5       0.2190293       53.88621
2018    25      6       0.200969        50.39615
2018    25      7       0.1965779       49.57656
2018    26      0       0.1883798       47.82823
2018    26      1       0.1774937       45.6022
2018    26      2       0.1814087       46.36641
2018    26      3       0.18773         47.59469
2018    26      4       0.197939        49.65405
2018    26      5       0.2078202       51.561
2018    26      6       0.1946271       48.94386
2018    26      7       0.1873184       47.51666
2018    27      0       0.1858884       47.1978
2018    27      1       0.1849669       46.92839
2018    27      2       0.212731        52.44349
2018    27      3       0.2203635       53.98333
2018    27      4       0.2340737       56.6435
2018    27      5       0.2306821       56.0557
2018    27      6       0.2453561       58.9205
2018    27      7       0.2607226       61.91142
2018    28      0       0.2517918       60.34763
2018    28      1       0.2636432       62.58934
2018    28      2       0.257037        61.26761
2018    28      3       0.2749943       64.65558
2018    28      4       0.3075127       70.69925
2018    28      5       0.3417539       76.86236
2018    28      6       0.3330534       75.58861
2018    28      7       0.3620972       80.53779
2018    29      0       0.352273        78.86069
2018    29      1       0.332171        75.26304
2018    29      2       0.3176949       72.51351
2018    29      3       0.4106008       88.55676
2018    29      4       0.3519335       79.06485
2018    29      5       0.3343103       76.10707
2018    29      6       0.3221726       73.81593
2018    29      7       0.3563054       79.84224
2018    30      0       0.3170855       72.89101
2018    30      1       0.2739356       64.85962
2018    30      2       0.2222798       55.1313
2018    30      3       0.1851466       47.82453
2018    30      4       0.1558897       41.94406
2018    30      5       0.1476548       40.28329
2018    30      6       0.1584834       42.76386
2018    30      7       0.1686734       44.85995
2018    31      0       0.1686155       44.43428
2018    31      1       0.2245859       55.21996
2018    31      2       0.3690049       81.48193
2018    31      3       0.4416335       93.56446
2018    31      4       0.4051571       88.01263
2018    31      5       0.370579        82.32934
2018    31      6       0.325815        74.40159
2018    31      7       0.3573473       79.73867
2019    1       0       0.2421112       59.02351
2019    1       1       0.247474        59.92841
2019    1       2       0.2697198       63.93271
2019    1       3       0.3553528       79.11092
2019    1       4       0.340785        76.73741
2019    1       5       0.3472889       77.9148
2019    1       6       0.3346672       75.78827
2019    1       7       0.3375279       76.20683
