####################################################################################################
# Month: 09Sep                                                                                     #
# Station: GAM                                                                                     #
# Frequency: 345 GHz                                                                               #
# Columns are: year    day     segment         tau     Tb (K)                                      #
####################################################################################################
2009    1       0       0.6448608       134.1807
2009    1       1       0.6272994       131.6525
2009    1       2       0.636632        132.857
2009    1       3       0.6729526       137.7202
2009    1       4       0.7963629       153.5468
2009    1       5       0.9386968       169.6
2009    1       6       0.8916621       164.9616
2009    1       7       0.8648722       162.1756
2009    2       0       0.8472505       160.2135
2009    2       1       0.8071959       155.5341
2009    2       2       0.7401224       147.2658
2009    2       3       0.7292544       146.0123
2009    2       4       0.7185806       144.867
2009    2       5       0.7321161       146.6993
2009    2       6       0.6615296       137.4876
2009    2       7       0.6349129       133.7272
2009    3       0       0.6616713       137.4143
2009    3       1       0.6627633       137.6165
2009    3       2       0.6495465       135.8449
2009    3       3       0.6430754       135.0706
2009    3       4       0.7222953       145.7651
2009    3       5       0.8766991       163.9393
2009    3       6       0.9682464       173.187
2009    3       7       0.986908        174.9218
2009    4       0       1.029542        179.0359
2009    4       1       1.086056        184.2298
2009    4       2       1.099587        185.2879
2009    4       3       1.080856        183.439
2009    4       4       1.03396         179.1306
2009    4       5       1.006727        176.5344
2009    4       6       1.078222        183.2398
2009    4       7       1.119177        186.5346
2009    5       0       0.9979887       174.8886
2009    5       1       0.8827654       162.6903
2009    5       2       0.7754823       150.493
2009    5       3       0.737163        145.9571
2009    5       4       0.7984721       153.6284
2009    5       5       0.8485626       159.4327
2009    5       6       0.8609395       160.6117
2009    5       7       0.7711967       150.236
2009    6       0       0.7120052       142.9752
2009    6       1       0.7198697       143.9847
2009    6       2       0.7777807       151.685
2009    6       3       0.6682716       136.9434
2009    6       4       0.6876371       139.68
2009    6       5       0.7155442       143.6257
2009    6       6       0.7201083       144.2359
2009    6       7       0.6595448       136.1122
2009    7       0       0.6206011       130.5202
2009    7       1       0.7924642       154.3728
2009    7       2       0.6586732       136.0451
2009    7       3       0.7198012       144.4648
2009    7       4       0.8016422       155.1217
2009    7       5       0.8571239       161.9607
2009    7       6       0.8203902       157.7744
2009    7       7       0.7585546       150.1706
2009    8       0       0.8213139       157.7306
2009    8       1       0.9348493       170.1104
2009    8       2       0.9285587       169.4314
2009    8       3       0.8585289       161.6195
2009    8       4       0.9161314       167.817
2009    8       5       0.7677625       150.9373
2009    8       6       0.62593         132.0714
2009    8       7       0.571786        123.7078
2009    9       0       0.6752566       138.3795
2009    9       1       0.8460972       160.0807
2009    9       2       1.007092        177.1519
2009    9       3       1.083994        184.381
2009    9       4       1.122018        187.4985
2009    9       5       1.216273        194.8963
2009    9       6       1.267363        198.5306
2009    9       7       1.365142        205.619
2009    10      0       1.372267        206.1388
2009    10      1       1.364032        205.8236
2009    10      2       1.420694        209.1365
2009    10      3       1.500437        214.1072
2009    10      4       1.451441        211.4972
2009    10      5       1.384713        207.5685
2009    10      6       1.350121        205.3971
2009    10      7       1.349227        205.5465
2009    11      0       1.401663        209.023
2009    11      1       1.362496        206.7532
2009    11      2       1.19649         194.7426
2009    11      3       1.008612        178.4067
2009    11      4       0.9214437       169.2728
2009    11      5       0.9579876       173.0057
2009    11      6       1.075483        184.6965
2009    11      7       1.233014        197.9844
2009    12      0       1.236543        198.2477
2009    12      1       1.368965        209.0915
2009    12      2       1.314235        204.441
2009    12      3       1.375687        208.6812
2009    12      4       1.533519        218.2012
2009    12      5       1.757004        230.213
2009    12      6       1.892657        236.5352
2009    12      7       2.128568        245.2561
2009    13      0       2.193303        246.8145
2009    13      1       2.239938        247.5141
2009    13      2       2.337954        250.1115
2009    13      3       2.386011        251.5313
2009    13      4       2.997592        264.4959
2009    13      5       3.446763        269.5699
2009    13      6       3.143496        267.5746
2009    13      7       3.00035         265.9636
2009    14      0       2.888577        263.9716
2009    14      1       2.872905        263.8265
2009    14      2       2.281871        250.8561
2009    14      3       2.062497        244.0017
2009    14      4       2.043508        243.6321
2009    14      5       2.045232        243.785
2009    14      6       1.974988        241.0066
2009    14      7       1.840376        235.7512
2009    15      0       1.767028        232.1661
2009    15      1       1.84742         235.3654
2009    15      2       1.9072          237.255
2009    15      3       2.100685        244.0546
2009    15      4       2.396018        252.7532
2009    15      5       2.330198        251.6067
2009    15      6       2.073033        244.2278
2009    15      7       2.144979        247.6325
2009    16      0       1.890378        237.6988
2009    16      1       1.802517        233.5784
2009    16      2       2.173469        248.1639
2009    16      3       1.819601        232.8336
2009    16      4       1.767606        230.3389
2009    16      5       1.731928        228.6223
2009    16      6       1.849455        235.1201
2009    16      7       1.620832        224.1906
2009    17      0       1.223455        197.3892
2009    17      1       0.8584809       161.8346
2009    17      2       0.6627875       137.0282
2009    17      3       0.4590513       105.4659
2009    17      4       0.3364498       83.29477
2009    17      5       0.2696776       70.08231
2009    17      6       0.2717525       70.2743
2009    17      7       0.3180792       79.5887
2009    18      0       0.3578045       87.28486
2009    18      1       0.3577546       86.92824
2009    18      2       0.3470598       84.85486
2009    18      3       0.3360542       83.042
2009    18      4       0.4184703       98.3376
2009    18      5       0.4500188       104.1208
2009    18      6       0.4247032       99.85204
2009    18      7       0.3384572       84.03215
2009    19      0       0.2969507       75.77071
2009    19      1       0.2988259       76.25942
2009    19      2       0.3319252       82.84805
2009    19      3       0.3509106       86.5749
2009    19      4       0.4150246       98.32842
2009    19      5       0.5042406       113.5356
2009    19      6       0.5091474       114.3408
2009    19      7       0.4824763       109.9985
2009    20      0       0.4790139       109.4601
2009    20      1       0.5220174       116.3894
2009    20      2       0.524027        116.5876
2009    20      3       0.477168        108.9796
2009    20      4       0.509932        114.3755
2009    20      5       0.557208        121.9854
2009    20      6       0.5988003       128.3754
2009    20      7       0.7285092       146.5504
2009    21      0       1.023729        179.9656
2009    21      1       1.201265        194.9856
2009    21      2       1.257589        199.261
2009    21      3       1.293628        201.9274
2009    21      4       1.351714        206.5677
2009    21      5       1.305881        203.5499
2009    21      6       1.283264        201.6829
2009    21      7       1.392935        208.8146
2009    22      0       1.505935        215.527
2009    22      1       1.479388        213.3267
2009    22      2       1.366272        205.2449
2009    22      3       1.322449        202.2564
2009    22      4       1.30105         200.9625
2009    22      5       1.34385         203.7353
2009    22      6       1.446674        209.1093
2009    22      7       1.556913        215.7694
2009    23      0       1.69018         223.724
2009    23      1       1.670617        223.4211
2009    23      2       1.757009        228.5234
2009    23      3       2.219735        246.6698
2009    23      4       2.802099        261.6185
2009    23      5       2.880876        263.4603
2009    23      6       2.986102        265.9574
2009    23      7       3.197999        269.2415
2009    24      0       3.208016        268.8816
2009    24      1       2.765008        261.9278
2009    24      2       2.455424        255.1992
2009    24      3       2.392165        253.0626
2009    24      4       2.396453        252.8313
2009    24      5       2.294326        249.3987
2009    24      6       2.114927        242.8202
2009    24      7       1.760832        227.734
2009    25      0       1.348926        203.7378
2009    25      1       0.9259564       167.5923
2009    25      2       0.457927        105.8361
2009    25      3       0.4264789       100.6592
2009    25      4       0.4156885       98.20793
2009    25      5       0.4406385       102.3746
2009    25      6       0.467685        106.6211
2009    25      7       0.5125917       113.8732
2009    26      0       0.5548516       120.2194
2009    26      1       0.5928223       125.4944
2009    26      2       0.5614504       120.8641
2009    26      3       0.6836882       139.8608
2009    26      4       1.088773        187.3713
2009    26      5       1.281662        203.4293
2009    26      6       1.188222        196.3244
2009    26      7       1.810811        236.8474
2009    27      0       1.510497        218.6852
2009    27      1       1.527538        219.2164
2009    27      2       1.476699        216.3573
2009    27      3       1.510041        218.3091
2009    27      4       1.407863        211.8681
2009    27      5       1.115352        188.8142
2009    27      6       0.8894001       166.0346
2009    27      7       0.9083158       167.8532
2009    28      0       1.152629        191.3079
2009    28      1       1.227875        197.9681
2009    28      2       1.20219         196.0516
2009    28      3       1.300495        203.9385
2009    28      4       1.568455        222.2591
2009    28      5       1.560098        221.3446
2009    28      6       1.402806        210.9768
2009    28      7       1.579087        221.431
2009    29      0       1.791131        232.0793
2009    29      1       1.864782        235.5669
2009    29      2       1.647339        225.938
2009    29      3       1.568608        221.7054
2009    29      4       1.970572        240.6296
2009    29      5       2.449696        255.4219
2009    29      6       2.781902        261.2658
2009    29      7       2.679414        258.5489
2009    30      0       2.633941        256.0293
2009    30      1       2.172962        245.1279
2009    30      2       1.696241        226.4432
2009    30      3       1.659236        223.818
2009    30      4       1.788821        230.7518
2009    30      5       1.81706         232.8458
2009    30      6       1.930429        237.9125
2009    30      7       1.71042         228.66
2010    1       0       0.7303094       146.6514
2010    1       1       0.719335        145.338
2010    1       2       0.738682        147.8905
2010    1       3       0.7502876       149.4641
2010    1       4       0.7193461       145.6407
2010    1       5       0.7415721       148.6545
2010    1       6       0.6589108       137.6884
2010    1       7       0.5730807       125.2116
2010    2       0       0.6178871       131.7855
2010    2       1       0.631524        133.6133
2010    2       2       0.5976781       128.5942
2010    2       3       0.511481        115.2174
2010    2       4       0.515757        116.0536
2010    2       5       0.5694376       124.4331
2010    2       6       0.5613282       123.2497
2010    2       7       0.5677442       124.1815
2010    3       0       0.7134882       145.6718
2010    3       1       0.4495868       104.8937
2010    3       2       0.4170646       99.18677
2010    3       3       0.4075359       97.59627
2010    3       4       0.4893758       111.8988
2010    3       5       0.6066104       130.1582
2010    3       6       0.6410568       135.2022
2010    3       7       0.5981845       129.1861
2010    4       0       0.5432859       120.8956
2010    4       1       0.5696982       124.6164
2010    4       2       0.6010905       129.148
2010    4       3       0.6684351       138.9418
2010    4       4       0.7480505       149.615
2010    4       5       0.7972983       155.8402
2010    4       6       0.8794822       165.2361
2010    4       7       0.8884856       166.351
2010    5       0       0.9255217       170.2423
2010    5       1       0.9346125       170.9212
2010    5       2       0.9289225       170.2352
2010    5       3       0.9868808       176.3854
2010    5       4       1.014472        179.2052
2010    5       5       1.067006        184.2134
2010    5       6       1.077804        185.084
2010    5       7       1.090464        185.9742
2010    6       0       1.143652        190.2813
2010    6       1       1.19836         194.4193
2010    6       2       1.18554         193.1272
2010    6       3       1.104377        185.4843
2010    6       4       1.297817        202.2967
2010    6       5       1.162979        191.9321
2010    6       6       1.237327        197.8245
2010    6       7       1.249378        198.5697
2010    7       0       1.120736        187.7646
2010    7       1       1.029762        179.5973
2010    7       2       1.015552        178.4208
2010    7       3       1.019948        178.6814
2010    7       4       0.9926925       175.9721
2010    7       5       1.012523        177.8078
2010    7       6       1.024726        178.3479
2010    7       7       1.050863        180.142
2010    8       0       1.114474        185.2812
2010    8       1       1.125354        187.4543
2010    8       2       1.075608        183.6665
2010    8       3       1.100451        185.9038
2010    8       4       1.419141        210.6275
2010    8       5       1.748437        228.9953
2010    8       6       1.944434        238.0432
2010    8       7       2.1087          244.2261
2010    9       0       2.016528        241.3322
2010    9       1       1.757611        230.5674
2010    9       2       0.7497659       148.6103
2010    9       3       0.3580795       88.0532
2010    9       4       0.5472888       120.422
2010    9       5       0.6554433       136.5603
2010    9       6       0.6841066       141.0074
2010    9       7       0.5067434       115.005
2010    10      0       0.4566975       106.0824
2010    10      1       0.3454864       85.14527
2010    10      2       0.3015089       76.05126
2010    10      3       0.3583829       87.18826
2010    10      4       0.6577272       138.201
2010    10      5       0.7133211       145.3702
2010    10      6       0.6291315       134.5271
2010    10      7       0.5589412       124.0765
2010    11      0       0.555258        123.2313
2010    11      1       0.503215        113.9643
2010    11      2       0.4063644       97.04589
2010    11      3       0.4517528       105.2845
2010    11      4       0.6359637       134.5926
2010    11      5       0.7759456       153.297
2010    11      6       0.8563525       162.4391
2010    11      7       0.8988586       167.1618
2010    12      0       0.8610161       162.7353
2010    12      1       0.8910183       166.2391
2010    12      2       0.8585716       162.6097
2010    12      3       0.836828        160.2849
2010    12      4       1.045767        182.479
2010    12      5       1.166424        193.1005
2010    12      6       1.085008        185.8406
2010    12      7       0.956857        173.3912
2010    13      0       0.8642915       163.2572
2010    13      1       0.8104538       156.8284
2010    13      2       0.7011162       142.6142
2010    13      3       0.7892676       153.8743
2010    13      4       1.024755        178.8673
2010    13      5       1.355908        205.4365
2010    13      6       1.409951        208.8662
2010    13      7       1.500369        214.8596
2010    14      0       1.631584        221.9631
2010    14      1       1.793389        229.3755
2010    14      2       1.722846        225.9976
2010    14      3       1.750083        227.097
2010    14      4       1.811406        230.7387
2010    14      5       1.806828        231.5482
2010    14      6       1.720986        227.8547
2010    14      7       1.594637        221.3654
2010    15      0       1.695755        226.9044
2010    15      1       1.817141        232.7138
2010    15      2       1.828318        233.2629
2010    15      3       1.750452        229.7793
2010    15      4       1.725513        229.4605
2010    15      5       1.751886        230.8993
2010    15      6       1.752319        230.853
2010    15      7       1.843221        234.9989
2010    16      0       2.011701        241.1726
2010    16      1       2.057669        242.2726
2010    16      2       1.969549        239.1309
2010    16      3       1.852838        234.3618
2010    16      4       1.816202        233.2653
2010    16      5       1.844494        234.8956
2010    16      6       1.770203        231.3663
2010    16      7       1.831823        233.8083
2010    17      0       1.913667        236.9048
2010    17      1       1.935899        237.7274
2010    17      2       1.90739         236.6652
2010    17      3       1.878131        235.4853
2010    17      4       1.740419        229.6695
2010    17      5       1.681088        227.0664
2010    17      6       1.639169        224.8126
2010    17      7       1.794002        231.6468
2010    18      0       2.008734        240.1784
2010    18      1       2.062757        242.4882
2010    18      2       2.105291        244.1382
2010    18      3       2.067864        242.7968
2010    18      4       1.955038        239.3424
2010    18      5       1.837537        234.844
2010    18      6       1.640518        225.1339
2010    18      7       1.616805        223.812
2010    19      0       1.824019        233.9422
2010    19      1       1.903989        237.4492
2010    19      2       1.885608        236.8988
2010    19      3       1.904319        237.2441
2010    19      4       1.92268         237.714
2010    19      5       1.895155        236.3733
2010    19      6       1.842823        233.999
2010    19      7       1.609221        221.7897
2010    20      0       1.288678        200.8775
2010    20      1       0.9493132       170.9942
2010    20      2       0.4757823       107.6223
2010    20      3       0.1509183       43.66943
2010    20      4       0.1356478       40.24064
2010    20      5       0.1844506       51.76457
2010    20      6       0.08573776      28.06367
2010    20      7       0.2028017       55.58664
2010    21      0       0.2568764       66.90153
2010    21      1       0.1917726       52.6885
2010    21      2       0.1405937       41.26901
2010    21      3       0.1948226       53.94738
2010    21      4       0.2760671       71.69093
2010    21      5       0.3159122       79.6054
2010    21      6       0.3190314       80.89309
2010    21      7       0.3007627       77.31188
2010    22      0       0.2561799       67.52553
2010    22      1       0.2129192       58.05092
2010    22      2       0.1815541       50.84156
2010    22      3       0.2095017       57.31942
2010    22      4       0.2307724       62.01328
2010    22      5       0.2450649       64.98428
2010    22      6       0.2668569       69.71008
2010    22      7       0.2821361       72.80608
2010    23      0       0.2708198       70.04597
2010    23      1       0.3964275       94.91504
2010    23      2       0.571415        124.7793
2010    23      3       0.6082181       130.3414
2010    23      4       0.7073998       144.367
2010    23      5       0.788035        155.134
2010    23      6       0.8224837       159.5282
2010    23      7       0.8316941       160.382
2010    24      0       0.9721651       175.2525
2010    24      1       1.166336        192.8622
2010    24      2       1.269436        200.9746
2010    24      3       1.278486        201.2684
2010    24      4       1.22377         196.6405
2010    24      5       1.083337        184.0994
2010    24      6       0.9614963       171.817
2010    24      7       1.004802        176.0703
2010    25      0       1.250491        198.336
2010    25      1       1.39127         209.188
2010    25      2       1.358862        206.854
2010    25      3       1.334265        204.4245
2010    25      4       1.341739        205.3071
2010    25      5       1.276777        201.4889
2010    25      6       1.274028        201.453
2010    25      7       1.297612        202.962
2010    26      0       1.301333        203.0383
2010    26      1       1.255063        199.6435
2010    26      2       1.212775        196.3476
2010    26      3       1.28713         201.8473
2010    26      4       1.444278        212.465
2010    26      5       1.57019         220.3589
2010    26      6       1.838656        234.5174
2010    26      7       2.061295        243.9799
2010    27      0       1.717325        229.4409
2010    27      1       1.54314         220.28
2010    27      2       1.380998        210.2577
2010    27      3       1.198996        196.9392
2010    27      4       1.059701        184.566
2010    27      5       1.175569        195.0298
2010    27      6       1.234714        199.8864
2010    27      7       1.204263        197.5374
2010    28      0       1.336337        207.5935
2010    28      1       1.358484        209.3287
2010    28      2       1.261317        202.3703
2010    28      3       1.214198        198.5893
2010    28      4       1.335432        207.5131
2010    28      5       1.623914        224.4695
2010    28      6       1.783112        231.7512
2010    28      7       1.824984        233.4953
2010    29      0       2.084634        242.8898
2010    29      1       2.357954        250.8314
2010    29      2       2.339225        250.338
2010    29      3       2.412356        252.2328
2010    29      4       2.457573        253.6524
2010    29      5       2.255314        248.9952
2010    29      6       2.131872        245.538
2010    29      7       2.207505        247.5039
2010    30      0       2.176422        246.2446
2010    30      1       2.176796        246.0124
2010    30      2       2.044513        240.9267
2010    30      3       1.810609        232.1388
2010    30      4       1.945878        239.1406
2010    30      5       2.133747        246.1599
2010    30      6       2.237079        249.4758
2010    30      7       2.321233        251.9078
2011    1       0       0.754539        150.8477
2011    1       1       0.6662406       139.1608
2011    1       2       0.6117714       131.1988
2011    1       3       0.6203418       132.2532
2011    1       4       0.6808679       140.6091
2011    1       5       0.6778612       139.9145
2011    1       6       0.5702336       123.7154
2011    1       7       0.4966672       111.8991
2011    2       0       0.5255703       117.1975
2011    2       1       0.5424973       120.3022
2011    2       2       0.588321        127.0802
2011    2       3       0.5671804       123.8474
2011    2       4       0.4595659       106.3519
2011    2       5       0.515328        115.5844
2011    2       6       0.5056148       113.6608
2011    2       7       0.4694267       107.8571
2011    3       0       0.4397803       102.8959
2011    3       1       0.4587895       106.2375
2011    3       2       0.4702543       107.9873
2011    3       3       0.4369482       102.0859
2011    3       4       0.4561652       105.4815
2011    3       5       0.4971116       112.525
2011    3       6       0.4825459       110.2898
2011    3       7       0.4585534       106.3678
2011    4       0       0.433917        102.1454
2011    4       1       0.4087452       97.73105
2011    4       2       0.3974252       95.6239
2011    4       3       0.407345        97.3331
2011    4       4       0.4396143       103.1895
2011    4       5       0.4790559       109.9981
2011    4       6       0.4896261       111.8225
2011    4       7       0.4709875       108.7169
2011    5       0       0.4194508       99.82922
2011    5       1       0.3870116       93.89597
2011    5       2       0.3546168       87.74182
2011    5       3       0.343373        85.58051
2011    5       4       0.4074356       97.41857
2011    5       5       0.4781317       109.5723
2011    5       6       0.4853599       110.6183
2011    5       7       0.4510441       104.7448
2011    6       0       0.4200586       99.24763
2011    6       1       0.5125185       115.2326
2011    6       2       0.5323964       118.363
2011    6       3       0.4297602       100.7906
2011    6       4       0.5217335       116.0539
2011    6       5       0.6065021       128.9807
2011    6       6       0.6749569       138.5665
2011    6       7       0.7386412       147.1103
2011    7       0       0.7455615       148.1326
2011    7       1       0.7258064       145.6538
2011    7       2       0.703621        142.6789
2011    7       3       0.7094793       143.5886
2011    7       4       0.8661585       162.9604
2011    7       5       1.010672        178.5105
2011    7       6       1.044363        181.5865
2011    7       7       1.025468        179.8659
2011    8       0       1.009244        178.2419
2011    8       1       1.122984        189.3078
2011    8       2       0.9568777       173.0424
2011    8       3       0.9321028       170.3389
2011    8       4       0.9167144       169.0409
2011    8       5       0.9314579       171.1017
2011    8       6       0.8525349       162.4793
2011    8       7       0.7670274       152.4306
2011    9       0       0.7575477       151.46
2011    9       1       0.7611581       151.9811
2011    9       2       0.7521183       150.7136
2011    9       3       0.7432491       149.468
2011    9       4       0.7920462       155.9487
2011    9       5       0.8671267       165.0843
2011    9       6       0.8343334       161.4146
2011    9       7       0.7809778       154.7003
2011    10      0       0.7880783       155.2859
2011    10      1       0.7807309       154.2632
2011    10      2       0.7060157       144.7004
2011    10      3       0.6982917       143.5199
2011    10      4       0.759068        151.3392
2011    10      5       0.7755622       153.5243
2011    10      6       0.692348        142.8071
2011    10      7       0.6569217       137.8064
2011    11      0       0.6993664       143.516
2011    11      1       0.7420114       148.9171
2011    11      2       0.7226291       146.3605
2011    11      3       0.6769091       140.009
2011    11      4       0.7529139       149.8092
2011    11      5       0.8254203       158.8995
2011    11      6       0.6961293       142.5229
2011    11      7       0.650052        135.6451
2011    12      0       0.6348743       133.0136
2011    12      1       0.6142894       129.6778
2011    12      2       0.6023658       127.8837
2011    12      3       0.6632014       136.3626
2011    12      4       0.6763937       138.5136
2011    12      5       0.6567411       135.565
2011    12      6       0.5663135       122.427
2011    12      7       0.481777        108.6261
2011    13      0       0.6359821       132.7593
2011    13      1       0.7640712       150.4286
2011    13      2       0.4431855       101.916
2011    13      3       0.3888492       92.01496
2011    13      4       0.4785951       107.9257
2011    13      5       0.488712        110.1238
2011    13      6       0.4338981       101.6408
2011    13      7       0.36975         90.35261
2011    14      0       0.329757        82.60731
2011    14      1       0.299338        76.44877
2011    14      2       0.2478839       65.1466
2011    14      3       0.2795308       71.94922
2011    14      4       0.3751126       90.86389
2011    14      5       0.4132602       97.89398
2011    14      6       0.3874345       93.25137
2011    14      7       0.3552544       87.25439
2011    15      0       0.3246835       81.39819
2011    15      1       0.3100427       78.25471
2011    15      2       0.2884843       73.78651
2011    15      3       0.3182997       79.34833
2011    15      4       0.348193        85.33042
2011    15      5       0.3402738       84.3479
2011    15      6       0.3346039       83.42205
2011    15      7       0.3380696       84.3414
2011    16      0       0.3081813       78.4524
2011    16      1       0.3400316       84.13872
2011    16      2       0.3647011       88.20304
2011    16      3       0.3931883       93.32508
2011    16      4       0.5509709       120.1331
2011    16      5       0.6375816       133.4158
2011    16      6       0.6480699       134.9253
2011    16      7       0.605915        129.0333
2011    17      0       0.508009        114.1002
2011    17      1       0.4829642       110.0816
2011    17      2       0.4699215       107.6777
2011    17      3       0.3934268       94.21734
2011    17      4       0.4468626       103.8015
2011    17      5       0.547295        120.3009
2011    17      6       0.5794151       125.2806
2011    17      7       0.5533608       121.4444
2011    18      0       0.5398244       119.3053
2011    18      1       0.509111        114.3928
2011    18      2       0.4363495       102.1872
2011    18      3       0.4441154       103.8084
2011    18      4       0.5507249       121.4278
2011    18      5       0.6234149       132.2642
2011    18      6       0.566518        123.8885
2011    18      7       0.5592997       122.8317
2011    19      0       0.5440129       120.2513
2011    19      1       0.4409998       103.0791
2011    19      2       0.3328744       83.00031
2011    19      3       0.2919934       74.79473
2011    19      4       0.3242725       81.26073
2011    19      5       0.3051673       77.487
2011    19      6       0.235966        63.04819
2011    19      7       0.1706839       48.46335
2011    20      0       0.1416359       41.72364
2011    20      1       0.124944        37.83115
2011    20      2       0.1264311       38.13146
2011    20      3       0.1333008       39.73362
2011    20      4       0.1389148       41.11215
2011    20      5       0.1431045       42.20897
2011    20      6       0.1252766       37.72911
2011    20      7       0.1502938       43.47119
2011    21      0       0.1646758       46.81731
2011    21      1       0.1893919       52.42106
2011    21      2       0.2489155       65.46406
2011    21      3       0.28117         72.27228
2011    21      4       0.2984351       75.70165
2011    21      5       0.3259149       81.2247
2011    21      6       0.3285666       81.91793
2011    21      7       0.3097646       78.25612
2011    22      0       0.3293183       82.14508
2011    22      1       0.3622896       88.60466
2011    22      2       0.3898039       93.78899
2011    22      3       0.3900122       93.66403
2011    22      4       0.3968524       94.96008
2011    22      5       0.334976        83.40233
2011    22      6       0.240887        64.02257
2011    22      7       0.2124055       57.60955
2011    23      0       0.2262786       60.57558
2011    23      1       0.2526563       66.25529
2011    23      2       0.3136078       78.74459
2011    23      3       0.3958512       94.56942
2011    23      4       0.5543758       121.5902
2011    23      5       0.6664828       137.9498
2011    23      6       0.7210638       145.1432
2011    23      7       0.761818        150.4383
2011    24      0       0.8965904       165.9912
2011    24      1       0.9749318       173.9817
2011    24      2       0.9208792       168.0747
2011    24      3       0.9122769       166.6458
2011    24      4       1.046646        180.5721
2011    24      5       1.168083        191.4089
2011    24      6       1.304847        201.8227
2011    24      7       1.447602        211.6304
2011    25      0       1.666018        223.9135
2011    25      1       1.701525        226.1606
2011    25      2       1.703381        226.8182
2011    25      3       1.86386         235.1295
2011    25      4       2.223668        248.8706
2011    25      5       2.77349         261.8935
2011    25      6       2.988855        264.6226
2011    25      7       2.766869        261.0388
2011    26      0       2.562198        257.1004
2011    26      1       2.27523         249.7811
2011    26      2       2.101868        244.2139
2011    26      3       2.075403        243.7115
2011    26      4       2.241134        249.8989
2011    26      5       2.634847        259.6074
2011    26      6       2.839722        262.8782
2011    26      7       2.670077        259.7981
2011    27      0       2.39231         253.5553
2011    27      1       2.258679        250.0371
2011    27      2       2.161917        246.951
2011    27      3       2.160702        246.7307
2011    27      4       2.344737        252.3375
2011    27      5       2.844617        263.0547
2011    27      6       3.091755        265.598
2011    27      7       3.064765        265.4003
2011    28      0       3.186168        266.5222
2011    28      1       3.182043        266.2334
2011    28      2       2.98991         263.3529
2011    28      3       2.83637         260.6323
2011    28      4       2.748615        260.0748
2011    28      5       2.688624        259.7525
2011    28      6       2.55064         257.1548
2011    28      7       2.433499        254.3538
2011    29      0       2.519547        255.7612
2011    29      1       2.57478         256.5278
2011    29      2       2.511698        254.9829
2011    29      3       2.609881        257.1906
2011    29      4       2.581241        257.2739
2011    29      5       2.326244        251.6382
2011    29      6       1.933775        238.9807
2011    29      7       2.1017          246.3222
2011    30      0       1.668575        227.097
2011    30      1       1.402256        211.5446
2011    30      2       1.100985        187.9219
2011    30      3       0.9986645       177.9241
2011    30      4       1.070909        184.7146
2011    30      5       1.059183        183.5489
2011    30      6       0.7063583       143.7121
2011    30      7       0.6467089       134.9053
2012    1       0       0.3838622       93.22101
2012    1       1       0.3554022       87.80326
2012    1       2       0.3058641       78.05369
2012    1       3       0.2725018       71.17157
2012    1       4       0.2833453       73.44804
2012    1       5       0.2663092       69.94801
2012    1       6       0.2594324       68.5895
2012    1       7       0.263825        69.53134
2012    2       0       0.3060499       78.25824
2012    2       1       0.3730933       91.30583
2012    2       2       0.3870124       93.90703
2012    2       3       0.3641841       89.72471
2012    2       4       0.4186789       99.81979
2012    2       5       0.4128668       98.92891
2012    2       6       0.3244264       82.28688
2012    2       7       0.2574808       68.47363
2012    3       0       0.2322746       62.93034
2012    3       1       0.2304959       62.41506
2012    3       2       0.2665732       70.21252
2012    3       3       0.3404627       85.34778
2012    3       4       0.3724641       91.43377
2012    3       5       0.3562554       88.42911
2012    3       6       0.2759062       72.35007
2012    3       7       0.2532575       67.44265
2012    4       0       0.2983931       76.79054
2012    4       1       0.3759087       91.95379
2012    4       2       0.4542884       106.1114
2012    4       3       0.4835695       110.8648
2012    4       4       0.4795852       110.1042
2012    4       5       0.5066156       114.716
2012    4       6       0.4924469       112.6183
2012    4       7       0.3758703       91.80213
2012    5       0       0.2573445       67.89249
2012    5       1       0.1558342       44.76854
2012    5       2       0.1426377       41.0596
2012    5       3       0.1194369       35.46026
2012    5       4       0.1228685       36.96853
2012    5       5       0.1297649       38.83136
2012    5       6       0.1105148       34.15341
2012    5       7       0.09784183      31.02062
2012    6       0       0.08112286      26.66039
2012    6       1       0.07936384      26.23585
2012    6       2       0.08812779      28.31958
2012    6       3       0.09337273      29.4518
2012    6       4       0.09958599      30.86727
2012    6       5       0.1391748       40.53398
2012    6       6       0.1200091       35.60145
2012    6       7       0.122782        36.24775
2012    7       0       0.1338067       38.89351
2012    7       1       0.1488424       42.36645
2012    7       2       0.1484294       42.40896
2012    7       3       0.1527245       43.4755
2012    7       4       0.2059836       55.69448
2012    7       5       0.2087392       56.41557
2012    7       6       0.2077307       56.24548
2012    7       7       0.1884685       51.92137
2012    8       0       0.1787071       49.60794
2012    8       1       0.1738933       48.27898
2012    8       2       0.1628587       45.83029
2012    8       3       0.1939781       53.05825
2012    8       4       0.2342972       62.00081
2012    8       5       0.2369906       62.71983
2012    8       6       0.2223471       59.62347
2012    8       7       0.2057974       56.06868
2012    9       0       0.2091349       56.8944
2012    9       1       0.2448267       65.06574
2012    9       2       0.1821662       51.2486
2012    9       3       0.1624279       46.81384
2012    9       4       0.1964114       54.37402
2012    9       5       0.1731012       48.82803
2012    9       6       0.1139873       34.58167
2012    9       7       0.1237043       36.80267
2012    10      0       0.1506233       43.13321
2012    10      1       0.1636986       46.21624
2012    10      2       0.1490357       43.00356
2012    10      3       0.1342673       39.68392
2012    10      4       0.2245671       60.47881
2012    10      5       0.2079401       56.82848
2012    10      6       0.1804527       50.54459
2012    10      7       0.1576539       45.20705
2012    11      0       0.1590241       45.3962
2012    11      1       0.1739968       48.68599
2012    11      2       0.1964013       53.92427
2012    11      3       0.2138947       57.95138
2012    11      4       0.2859092       72.91297
2012    11      5       0.3026047       76.07805
2012    11      6       0.2399747       63.13261
2012    11      7       0.2475555       64.80668
2012    12      0       0.2900318       73.94483
2012    12      1       0.333723        82.62795
2012    12      2       0.4141099       97.67275
2012    12      3       0.4893784       110.8808
2012    12      4       0.4345389       101.7045
2012    12      5       0.3128339       79.04025
2012    12      6       0.2585083       67.92438
2012    12      7       0.2353677       63.0755
2012    13      0       0.2103501       57.53014
2012    13      1       0.1850449       51.8097
2012    13      2       0.1567302       45.31203
2012    13      3       0.1642798       47.0719
2012    13      4       0.1940356       53.81942
2012    13      5       0.1829718       51.25585
2012    13      6       0.178448        50.25547
2012    13      7       0.1819508       51.1605
2012    14      0       0.2563584       67.52033
2012    14      1       0.3427303       84.83344
2012    14      2       0.4388914       102.6002
2012    14      3       0.5195434       116.2935
2012    14      4       0.5853322       126.4593
2012    14      5       0.6488015       135.5793
2012    14      6       0.6849989       140.4133
2012    14      7       0.7211488       144.6913
2012    15      0       0.6998747       141.3173
2012    15      1       0.6975177       140.3401
2012    15      2       0.7015226       140.5472
2012    15      3       0.7728455       150.2247
2012    15      4       0.9361261       169.2273
2012    15      5       1.210026        195.0109
2012    15      6       1.518837        216.3066
2012    15      7       1.743648        228.408
2012    16      0       1.913359        235.2755
2012    16      1       2.19498         244.7785
2012    16      2       2.375419        249.2765
2012    16      3       1.780452        228.252
2012    16      4       1.495833        215.1687
2012    16      5       1.598786        222.0702
2012    16      6       1.76941         230.5802
2012    16      7       1.714938        228.1736
2012    17      0       1.732647        228.5947
2012    17      1       1.770568        229.3677
2012    17      2       1.770886        228.9738
2012    17      3       1.59345         220.5909
2012    17      4       1.661871        224.9145
2012    17      5       1.872136        234.868
2012    17      6       1.958774        238.11
2012    17      7       1.979861        238.7009
2012    18      0       1.968803        237.9224
2012    18      1       1.919876        235.5875
2012    18      2       1.866323        233.0832
2012    18      3       1.663365        223.5088
2012    18      4       1.688788        225.4914
2012    18      5       1.714809        227.4112
2012    18      6       1.733053        228.9818
2012    18      7       1.621639        223.2018
2012    19      0       1.531302        217.7905
2012    19      1       1.555963        218.7455
2012    19      2       1.491847        214.7999
2012    19      3       1.252294        197.9727
2012    19      4       1.271828        199.5585
2012    19      5       1.394002        208.5687
2012    19      6       1.778573        231.1794
2012    19      7       2.108024        244.6646
2012    20      0       2.284046        250.4737
2012    20      1       2.070258        242.5671
2012    20      2       2.039284        241.1563
2012    20      3       1.9519          237.1162
2012    20      4       1.81602         231.8996
2012    20      5       1.931729        236.9031
2012    20      6       2.046413        241.3329
2012    20      7       1.986426        239.0677
2012    21      0       1.891939        234.8373
2012    21      1       1.765878        228.8641
2012    21      2       1.974287        237.5441
2012    21      3       1.982603        238.0624
2012    21      4       1.734191        227.3241
2012    21      5       1.391725        207.2856
2012    21      6       1.252165        197.3622
2012    21      7       1.171225        191.3379
2012    22      0       1.097649        185.1261
2012    22      1       0.9947066       175.7788
2012    22      2       0.7690663       150.2346
2012    22      3       0.6684884       136.7903
2012    22      4       0.740536        146.4711
2012    22      5       0.7978427       154.1962
2012    22      6       0.7949335       154.3874
2012    22      7       0.7479003       148.9416
2012    23      0       0.7573149       150.5142
2012    23      1       0.7535431       150.482
2012    23      2       0.7412324       149.4556
2012    23      3       0.6208254       132.7267
2012    23      4       0.6121809       131.1778
2012    23      5       0.665112        138.8772
2012    23      6       0.6341467       134.6027
2012    23      7       0.5099446       115.3755
2012    24      0       0.4451642       104.3113
2012    24      1       0.4090949       97.84059
2012    24      2       0.4211411       99.82006
2012    24      3       0.4413065       103.4266
2012    24      4       0.4885084       111.57
2012    24      5       0.5617649       123.307
2012    24      6       0.6249494       132.5461
2012    24      7       0.6266342       132.6922
2012    25      0       0.6287956       132.7778
2012    25      1       0.663567        137.3269
2012    25      2       0.7005228       142.2905
2012    25      3       0.7232164       145.1575
2012    25      4       0.8238746       157.9366
2012    25      5       0.912963        168.2971
2012    25      6       0.9102647       168.0264
2012    25      7       0.876462        164.2936
2012    26      0       1.042577        181.1894
2012    26      1       1.296755        202.281
2012    26      2       1.468603        213.9581
2012    26      3       1.566997        219.4693
2012    26      4       1.568071        219.7121
2012    26      5       1.334233        205.2975
2012    26      6       1.04204         180.7169
2012    26      7       1.127401        188.3367
2012    27      0       1.272874        200.3622
2012    27      1       1.342622        204.9646
2012    27      2       1.328556        203.381
2012    27      3       1.267792        198.6176
2012    27      4       1.290206        199.2753
2012    27      5       0.9586978       170.0973
2012    27      6       0.5318715       115.0251
2012    27      7       0.2637852       66.57082
2012    28      0       0.1322315       38.28944
2012    28      1       0.06062288      21.42604
2012    28      2       0.07760145      25.67075
2012    28      3       0.08665716      27.97843
2012    28      4       0.1246786       37.31766
2012    28      5       0.1733591       48.67252
2012    28      6       0.2037435       55.66766
2012    28      7       0.29317         74.09926
2012    29      0       0.3422615       83.6503
2012    29      1       0.4008912       94.71618
2012    29      2       0.4427013       102.0727
2012    29      3       0.4430645       102.0554
2012    29      4       0.4337259       100.4894
2012    29      5       0.4377333       101.5219
2012    29      6       0.4075293       96.20908
2012    29      7       0.3728065       89.91097
2012    30      0       0.3683626       89.01168
2012    30      1       0.3884021       92.66537
2012    30      2       0.3870694       92.34507
2012    30      3       0.3864043       92.13404
2012    30      4       0.3959367       94.04052
2012    30      5       0.4367758       101.4852
2012    30      6       0.4560169       104.8965
2012    30      7       0.430567        100.6903
2013    1       0       0.1905371       52.40934
2013    1       1       0.1932044       52.95256
2013    1       2       0.1977089       53.8381
2013    1       3       0.2183683       58.38221
2013    1       4       0.2533119       65.85118
2013    1       5       0.2733485       70.01603
2013    1       6       0.2774789       70.98818
2013    1       7       0.2851355       72.63794
2013    2       0       0.2974669       75.2162
2013    2       1       0.3162817       79.04092
2013    2       2       0.3389052       83.51258
2013    2       3       0.3434493       84.7657
2013    2       4       0.3650013       88.98625
2013    2       5       0.4234099       99.70449
2013    2       6       0.4655441       107.0032
2013    2       7       0.6339264       132.7608
2013    3       0       0.8620555       161.343
2013    3       1       0.8579851       160.8493
2013    3       2       0.8039364       154.5257
2013    3       3       0.866243        161.797
2013    3       4       0.9500338       171.3897
2013    3       5       0.9540115       172.0661
2013    3       6       0.8207121       157.1912
2013    3       7       0.7328057       145.7938
2013    4       0       0.8015957       154.1902
2013    4       1       0.8766976       162.374
2013    4       2       0.9003673       164.6234
2013    4       3       0.9337162       168.1579
2013    4       4       1.062881        180.9986
2013    4       5       1.265909        198.4059
2013    4       6       1.664248        223.0213
2013    4       7       1.95009         234.6086
2013    5       0       1.884451        232.6612
2013    5       1       1.610463        220.0155
2013    5       2       1.42339         209.0646
2013    5       3       1.436442        209.9215
2013    5       4       1.363035        204.6058
2013    5       5       1.247006        196.4129
2013    5       6       1.315336        201.5716
2013    5       7       1.352586        204.3391
2013    6       0       1.353452        204.1539
2013    6       1       1.378609        205.747
2013    6       2       1.39677         207.4218
2013    6       3       1.303608        201.311
2013    6       4       1.303699        201.9008
2013    6       5       1.444691        211.5134
2013    6       6       1.617255        221.0708
2013    6       7       1.646381        222.5487
2013    7       0       1.605853        220.3589
2013    7       1       1.631407        221.4645
2013    7       2       1.659553        223.1346
2013    7       3       1.707643        226.1739
2013    7       4       1.723996        227.4625
2013    7       5       1.726719        228.0288
2013    7       6       1.614494        222.8157
2013    7       7       1.659296        224.9029
2013    8       0       1.653483        224.3655
2013    8       1       1.633958        223.3132
2013    8       2       1.632444        223.3052
2013    8       3       1.59937         221.4522
2013    8       4       1.594735        221.5403
2013    8       5       1.50553         216.598
2013    8       6       1.350075        205.9316
2013    8       7       1.359818        206.3467
2013    9       0       1.43024         211.5062
2013    9       1       1.440033        211.9076
2013    9       2       1.518735        216.5
2013    9       3       1.524937        216.7157
2013    9       4       1.564672        219.3276
2013    9       5       1.619857        222.7581
2013    9       6       1.68216         226.1502
2013    9       7       1.719536        228.034
2013    10      0       1.592254        221.0785
2013    10      1       1.499571        215.2182
2013    10      2       1.495826        214.8095
2013    10      3       1.509723        215.482
2013    10      4       1.523527        216.7794
2013    10      5       1.462175        213.4779
2013    10      6       1.469745        214.2432
2013    10      7       1.679815        225.1024
2013    11      0       1.707063        225.657
2013    11      1       1.658761        223.5234
2013    11      2       1.825516        231.3354
2013    11      3       1.83021         231.6596
2013    11      4       1.704463        226.1131
2013    11      5       1.68777         225.7868
2013    11      6       1.571649        219.49
2013    11      7       1.595129        220.3402
2013    12      0       1.646073        223.0024
2013    12      1       1.597072        221.0377
2013    12      2       1.549114        218.6909
2013    12      3       1.533264        217.7318
2013    12      4       1.527586        217.8283
2013    12      5       1.462437        214.5997
2013    12      6       1.387689        210.0907
2013    12      7       1.426855        212.8171
2013    13      0       1.392838        210.543
2013    13      1       1.256884        200.2663
2013    13      2       1.266441        200.6003
2013    13      3       1.423431        211.3295
2013    13      4       1.406838        210.5915
2013    13      5       1.380317        208.6604
2013    13      6       1.237848        197.9426
2013    13      7       1.05804         182.512
2013    14      0       0.7037075       142.5723
2013    14      1       0.4266883       99.67623
2013    14      2       0.2623678       67.84517
2013    14      3       0.2840595       72.56232
2013    14      4       0.3451237       84.1953
2013    14      5       0.3339347       81.68369
2013    14      6       0.2918845       72.64778
2013    14      7       0.2664713       66.80862
2013    15      0       0.2550458       64.49423
2013    15      1       0.2242781       58.75557
2013    15      2       0.154382        44.10174
2013    15      3       0.135622        40.06654
2013    15      4       0.1352753       39.9696
2013    15      5       0.1421119       41.58225
2013    15      6       0.1408842       41.06009
2013    15      7       0.1536369       43.75142
2013    16      0       0.1642875       46.28358
2013    16      1       0.1805047       50.1863
2013    16      2       0.1850512       51.44432
2013    16      3       0.2148303       58.37632
2013    16      4       0.3216431       80.77875
2013    16      5       0.3371618       83.78786
2013    16      6       0.3261987       81.69654
2013    16      7       0.3950348       94.96447
2013    17      0       0.4257699       100.3266
2013    17      1       0.4060771       96.60166
2013    17      2       0.3646122       88.91232
2013    17      3       0.3841983       92.8912
2013    17      4       0.4651501       107.4383
2013    17      5       0.4761502       109.0237
2013    17      6       0.4655952       107.3834
2013    17      7       0.7161664       145.3222
2013    18      0       0.8748837       164.816
2013    18      1       0.9121507       168.7951
2013    18      2       0.9571923       173.1098
2013    18      3       1.103196        187.3441
2013    18      4       1.236491        198.7005
2013    18      5       1.35398         207.6548
2013    18      6       1.503476        217.6965
2013    18      7       1.519235        218.3965
2013    19      0       1.567685        220.3795
2013    19      1       1.503272        214.9518
2013    19      2       1.449766        211.0043
2013    19      3       1.293348        200.0677
2013    19      4       1.258357        196.8481
2013    19      5       1.124032        185.9218
2013    19      6       0.6712024       136.0655
2013    19      7       0.4968621       109.5786
2013    20      0       0.4678633       105.6433
2013    20      1       0.4223486       98.92289
2013    20      2       0.4196516       98.275
2013    20      3       0.4682347       106.9684
2013    20      4       0.5361541       118.1161
2013    20      5       0.4913155       110.6589
2013    20      6       0.1562709       44.23666
2013    20      7       0.1102162       33.12939
2013    21      0       0.1070441       32.5215
2013    21      1       0.1002126       30.67084
2013    21      2       0.09760347      29.96985
2013    21      3       0.1081313       32.36064
2013    21      4       0.1744491       48.86138
2013    21      5       0.3021024       76.5625
2013    21      6       0.3054168       77.21771
2013    21      7       0.2557847       66.79981
2013    22      0       0.2167965       58.55366
2013    22      1       0.2042068       55.96983
2013    22      2       0.1981933       54.80536
2013    22      3       0.183252        51.648
2013    22      4       0.3161797       79.86154
2013    22      5       0.4547349       105.3118
2013    22      6       0.5356804       118.6791
2013    22      7       0.6084837       129.8182
2013    23      0       0.8639652       163.6095
2013    23      1       0.9661116       173.7496
2013    23      2       1.206648        195.2026
2013    23      3       1.476946        214.3789
2013    23      4       1.56148         219.678
2013    23      5       1.552296        218.7958
2013    23      6       1.599075        221.1376
2013    23      7       1.608187        221.9819
2013    24      0       1.751518        229.3036
2013    24      1       1.92719         237.4229
2013    24      2       2.056408        243.4736
2013    24      3       2.433414        254.4767
2013    24      4       3.055525        266.8255
2013    24      5       3.210843        270.271
2013    24      6       4.105937        276.4538
2013    24      7       4.064311        275.0351
2013    25      0       3.801566        274.7291
2013    25      1       3.592866        273.1812
2013    25      2       2.983431        267.1642
2013    25      3       2.858969        265.5519
2013    25      4       4.012878        275.9834
2013    25      5       4.087427        276.0013
2013    25      6       4.316985        277.1645
2013    25      7       3.519762        273.2902
2013    26      0       3.223884        270.0536
2013    26      1       3.151667        268.7299
2013    26      2       3.122073        268.0628
2013    26      3       3.679503        272.6328
2013    26      4       4.265167        276.2483
2013    26      5       4.122042        275.9533
2013    26      6       4.00366         275.4381
2013    26      7       3.598944        272.5967
2013    27      0       3.607752        273.6952
2013    27      1       2.390231        254.5426
2013    27      2       1.946918        240.1109
2013    27      3       1.978153        241.5711
2013    27      4       1.907755        239.034
2013    27      5       1.653975        227.2438
2013    27      6       1.245587        200.3601
2013    27      7       0.9313311       171.0941
2013    28      0       0.7231101       145.9048
2013    28      1       0.6818341       140.2318
2013    28      2       0.6090747       129.8454
2013    28      3       0.6465292       135.4367
2013    28      4       0.7596511       150.8196
2013    28      5       0.7484876       149.5327
2013    28      6       0.6414086       135.1005
2013    28      7       0.6135972       131.2138
2013    29      0       0.6034934       129.5221
2013    29      1       0.5364071       118.9392
2013    29      2       0.4361406       101.8207
2013    29      3       0.4168148       98.38988
2013    29      4       0.6084303       130.6132
2013    29      5       0.7825684       154.5805
2013    29      6       0.8758809       166.0839
2013    29      7       0.8467474       163.1347
2013    30      0       0.7930906       156.6909
2013    30      1       0.6894022       143.0246
2013    30      2       0.6291166       134.4631
2013    30      3       0.5667021       124.9414
2013    30      4       0.7239539       147.3107
2013    30      5       0.908103        169.1906
2013    30      6       0.9834712       176.7615
2013    30      7       0.8688047       164.5225
2014    1       0       0.2907781       73.91229
2014    1       1       0.3348201       82.78319
2014    1       2       0.387327        92.78145
2014    1       3       0.3838175       91.97643
2014    1       4       0.4237968       99.00977
2014    1       5       0.4408035       102.0547
2014    1       6       0.4430718       102.4652
2014    1       7       0.4284279       99.90932
2014    2       0       0.4215506       98.75743
2014    2       1       0.4256895       99.62882
2014    2       2       0.4241684       99.61272
2014    2       3       0.4519741       104.615
2014    2       4       0.529169        117.2352
2014    2       5       0.5637357       122.7361
2014    2       6       0.5892616       126.5804
2014    2       7       0.590379        126.6405
2014    3       0       0.5448047       119.6529
2014    3       1       0.4993436       112.5606
2014    3       2       0.4760683       108.6648
2014    3       3       0.5033093       112.9739
2014    3       4       0.5617775       122.1332
2014    3       5       0.6501291       134.8027
2014    3       6       0.6709922       137.5322
2014    3       7       0.6648585       136.5193
2014    4       0       0.6709556       137.3304
2014    4       1       0.7122431       142.7586
2014    4       2       0.6562157       135.571
2014    4       3       0.6673617       137.2055
2014    4       4       0.7109542       143.0187
2014    4       5       0.7491977       148.2982
2014    4       6       0.7218065       144.9237
2014    4       7       0.6187905       131.12
2014    5       0       0.5956777       127.6011
2014    5       1       0.5783799       124.8293
2014    5       2       0.4976389       112.3891
2014    5       3       0.4520114       105.312
2014    5       4       0.5040806       113.6169
2014    5       5       0.5527518       121.4102
2014    5       6       0.5238107       116.9558
2014    5       7       0.4254488       100.4545
2014    6       0       0.3763538       91.34725
2014    6       1       0.321322        80.68283
2014    6       2       0.261896        68.44554
2014    6       3       0.2620423       68.55177
2014    6       4       0.339172        84.27441
2014    6       5       0.3633747       88.85235
2014    6       6       0.3461649       85.64321
2014    6       7       0.3136384       79.35146
2014    7       0       0.2756525       71.67527
2014    7       1       0.2468682       65.54597
2014    7       2       0.2486763       65.8457
2014    7       3       0.3243284       81.37756
2014    7       4       0.4003336       95.76562
2014    7       5       0.4199036       99.32794
2014    7       6       0.4314566       101.2293
2014    7       7       0.4236736       99.84982
2014    8       0       0.4384336       102.4426
2014    8       1       0.4432292       103.3883
2014    8       2       0.4576752       105.9344
2014    8       3       0.4919126       111.8298
2014    8       4       0.5204306       116.4302
2014    8       5       0.5402002       119.5123
2014    8       6       0.5463272       120.467
2014    8       7       0.546255        120.7139
2014    9       0       0.5246241       117.5262
2014    9       1       0.5340515       119.2682
2014    9       2       0.5518311       122.2047
2014    9       3       0.5535063       122.3629
2014    9       4       0.6032802       129.8338
2014    9       5       0.6551034       137.32
2014    9       6       0.6598862       137.9923
2014    9       7       0.6102735       130.9539
2014    10      0       0.5807026       126.4472
2014    10      1       0.5903163       127.6455
2014    10      2       0.5668659       123.9852
2014    10      3       0.5028472       114.094
2014    10      4       0.5060756       114.8381
2014    10      5       0.5922408       128.245
2014    10      6       0.6120272       131.2269
2014    10      7       0.6187725       132.0943
2014    11      0       0.6355892       134.2822
2014    11      1       0.6343634       133.8588
2014    11      2       0.6569454       136.7907
2014    11      3       0.7314952       146.6784
2014    11      4       0.8863438       165.9232
2014    11      5       0.9413413       171.5509
2014    11      6       0.9886935       176.6826
2014    11      7       0.9848094       175.9149
2014    12      0       1.058686        182.663
2014    12      1       1.12339         188.3174
2014    12      2       1.158601        191.2861
2014    12      3       1.153818        190.7253
2014    12      4       1.173128        192.8586
2014    12      5       1.232968        198.142
2014    12      6       1.412965        211.0076
2014    12      7       1.712781        228.1938
2014    13      0       1.993107        240.6675
2014    13      1       2.356522        253.0193
2014    13      2       2.600102        259.1258
2014    13      3       2.790427        262.8149
2014    13      4       3.561929        273.1556
2014    13      5       3.869916        275.4993
2014    13      6       3.497781        272.1199
2014    13      7       3.427818        271.4464
2014    14      0       3.229294        269.2093
2014    14      1       3.6416          272.0116
2014    14      2       3.604612        271.396
2014    14      3       3.08191         266.5703
2014    14      4       3.81221         273.888
2014    14      5       3.703935        273.502
2014    14      6       3.632055        272.6264
2014    14      7       3.613379        271.8383
2014    15      0       3.416595        270.371
2014    15      1       3.672384        271.9619
2014    15      2       3.361767        269.4221
2014    15      3       3.177975        267.5842
2014    15      4       3.505935        271.5121
2014    15      5       3.785053        274.118
2014    15      6       3.849932        274.7547
2014    15      7       3.389304        271.917
2014    16      0       3.113807        268.864
2014    16      1       2.790076        263.5236
2014    16      2       2.426711        255.7737
2014    16      3       2.314144        252.4697
2014    16      4       2.339907        253.5926
2014    16      5       2.421987        256.4687
2014    16      6       2.276429        252.6298
2014    16      7       2.220849        250.8207
2014    17      0       2.258824        251.6486
2014    17      1       2.394439        254.8839
2014    17      2       2.448903        255.7651
2014    17      3       2.536004        257.6035
2014    17      4       2.800634        263.0701
2014    17      5       2.946285        265.6996
2014    17      6       2.62073         259.744
2014    17      7       2.654937        260.0012
2014    18      0       1.904769        237.816
2014    18      1       0.8758193       164.7185
2014    18      2       0.4593868       106.0287
2014    18      3       0.3595407       87.80752
2014    18      4       0.3356533       83.06044
2014    18      5       0.3383367       83.30656
2014    18      6       0.3045915       76.50599
2014    18      7       0.2661747       68.98804
2014    19      0       0.2654816       68.91827
2014    19      1       0.261217        67.97663
2014    19      2       0.2548511       66.7265
2014    19      3       0.2412563       63.8359
2014    19      4       0.3446149       84.92398
2014    19      5       0.3627663       88.33194
2014    19      6       0.3435472       84.66713
2014    19      7       0.3042443       77.02622
2014    20      0       0.3288067       81.85809
2014    20      1       0.3526522       86.5296
2014    20      2       0.3099529       78.14762
2014    20      3       0.3759257       91.14654
2014    20      4       0.595598        127.9218
2014    20      5       0.7396765       148.0022
2014    20      6       0.8274092       158.4632
2014    20      7       1.00271         177.3987
2014    21      0       1.183945        193.6777
2014    21      1       1.181962        193.1085
2014    21      2       1.212472        195.3574
2014    21      3       1.379901        207.1847
2014    21      4       1.790652        230.3627
2014    21      5       2.000023        239.5509
2014    21      6       2.056954        241.4829
2014    21      7       2.135172        244.1834
2014    22      0       2.277309        248.3875
2014    22      1       2.266549        248.3567
2014    22      2       1.954656        237.9404
2014    22      3       2.023287        240.3726
2014    22      4       2.422785        252.3555
2014    22      5       2.711433        258.6343
2014    22      6       2.529559        255.0466
2014    22      7       2.221948        247.9784
2014    23      0       2.205227        247.5842
2014    23      1       2.338992        250.8127
2014    23      2       2.29151         249.3396
2014    23      3       2.438284        253.1788
2014    23      4       2.630605        258.0577
2014    23      5       2.176184        247.4925
2014    23      6       1.838381        235.419
2014    23      7       1.711665        229.8551
2014    24      0       1.683704        228.3572
2014    24      1       1.531041        219.9766
2014    24      2       1.262749        201.9439
2014    24      3       1.173816        194.697
2014    24      4       1.190796        196.2151
2014    24      5       1.060649        184.5127
2014    24      6       0.8421164       161.3554
2014    24      7       0.7899589       154.8934
2014    25      0       0.9538881       173.5149
2014    25      1       1.104599        187.7384
2014    25      2       1.09558         186.8593
2014    25      3       0.9968186       177.6224
2014    25      4       1.036119        181.8807
2014    25      5       1.076435        185.9723
2014    25      6       1.231538        199.626
2014    25      7       1.499228        217.9662
2014    26      0       1.63843         225.0
2014    26      1       1.541172        217.9045
2014    26      2       1.622069        223.0791
2014    26      3       1.476638        214.4255
2014    26      4       1.397074        209.9202
2014    26      5       1.19865         195.9287
2014    26      6       1.17634         194.0181
2014    26      7       1.143192        190.6699
2014    27      0       1.151472        190.2888
2014    27      1       0.9095788       166.5189
2014    27      2       0.6782595       138.2881
2014    27      3       0.6967534       141.3247
2014    27      4       0.7813293       152.3796
2014    27      5       0.7422294       147.6381
2014    27      6       0.6940585       141.2902
2014    27      7       0.636151        133.3587
2014    28      0       0.5936235       127.5996
2014    28      1       0.5873553       126.5709
2014    28      2       0.5223194       116.2587
2014    28      3       0.380912        91.74362
2014    28      4       0.3127367       78.88201
2014    28      5       0.3098093       78.49762
2014    28      6       0.2707605       70.47031
2014    28      7       0.2423667       64.27484
2014    29      0       0.190562        52.43979
2014    29      1       0.1533958       43.60206
2014    29      2       0.1208645       35.73988
2014    29      3       0.1444318       41.42081
2014    29      4       0.2086672       56.29989
2014    29      5       0.1877515       51.52773
2014    29      6       0.1603778       45.33295
2014    29      7       0.1479014       42.30985
2014    30      0       0.1585287       44.70947
2014    30      1       0.1630554       45.74136
2014    30      2       0.1695036       47.39153
2014    30      3       0.1842188       50.80676
2014    30      4       0.2759125       71.10166
2014    30      5       0.276457        71.52892
2014    30      6       0.2699528       70.35058
2014    30      7       0.2915067       74.57744
2015    1       0       0.1337852       39.43242
2015    1       1       0.1092274       33.28406
2015    1       2       0.1277886       37.15559
2015    1       3       0.1412          39.98689
2015    1       4       0.201782        54.26381
2015    1       5       0.2747067       69.94943
2015    1       6       0.2111025       56.42896
2015    1       7       0.1887425       50.99751
2015    2       0       0.2062476       54.67328
2015    2       1       0.2200258       57.90671
2015    2       2       0.2478541       63.84963
2015    2       3       0.2530698       64.69441
2015    2       4       0.3045286       76.11192
2015    2       5       0.2905019       74.7521
2015    2       6       0.2618713       68.91765
2015    2       7       0.214596        58.67495
2015    3       0       0.2293757       61.75014
2015    3       1       0.2546008       66.76168
2015    3       2       0.259809        67.44874
2015    3       3       0.2421854       63.85335
2015    3       4       0.2989955       76.39604
2015    3       5       0.3259236       81.76209
2015    3       6       0.2765058       72.03339
2015    3       7       0.2485717       66.10075
2015    4       0       0.2367609       63.35221
2015    4       1       0.2096084       57.23482
2015    4       2       0.1760222       49.69245
2015    4       3       0.1642434       47.26875
2015    4       4       0.211572        58.10346
2015    4       5       0.2245986       60.90964
2015    4       6       0.2186531       59.65042
2015    4       7       0.1938119       54.22042
2015    5       0       0.1760376       50.12962
2015    5       1       0.1742766       49.55033
2015    5       2       0.1651581       47.27384
2015    5       3       0.1889375       52.71842
2015    5       4       0.2512297       66.31615
2015    5       5       0.2987777       75.84682
2015    5       6       0.315677        79.30303
2015    5       7       0.3265953       81.55507
2015    6       0       0.3873697       93.31525
2015    6       1       0.4826018       110.3126
2015    6       2       0.3809045       92.29425
2015    6       3       0.310872        78.52399
2015    6       4       0.3564457       87.40077
2015    6       5       0.3348398       83.24479
2015    6       6       0.2732          70.69444
2015    6       7       0.2688977       69.46935
2015    7       0       0.3080078       76.93306
2015    7       1       0.3706838       88.64162
2015    7       2       0.3908166       92.61604
2015    7       3       0.3829794       91.42176
2015    7       4       0.4029062       94.91055
2015    7       5       0.4380198       101.0242
2015    7       6       0.4634199       105.1179
2015    7       7       0.4671377       106.0282
2015    8       0       0.514324        113.888
2015    8       1       0.5991726       127.4709
2015    8       2       0.5298891       116.904
2015    8       3       0.4998288       112.3993
2015    8       4       0.6234885       130.6819
2015    8       5       0.6554928       135.3887
2015    8       6       0.6600892       136.1401
2015    8       7       0.6826166       139.1228
2015    9       0       0.5978435       126.8071
2015    9       1       0.5884818       125.1379
2015    9       2       0.544231        118.4295
2015    9       3       0.4637154       105.6332
2015    9       4       0.4232521       99.09024
2015    9       5       0.3440049       84.7401
2015    9       6       0.2724478       70.13591
2015    9       7       0.2989191       75.49566
2015    10      0       0.563943        121.7385
2015    10      1       0.8292755       157.0167
2015    10      2       1.082911        182.5809
2015    10      3       1.18771         191.2563
2015    10      4       1.333115        202.2361
2015    10      5       1.519769        213.6832
2015    10      6       1.8155          228.6898
2015    10      7       1.984473        235.8582
2015    11      0       2.042432        237.8372
2015    11      1       1.905643        232.451
2015    11      2       1.338164        200.6643
2015    11      3       1.618771        219.775
2015    11      4       1.885587        232.7006
2015    11      5       1.882729        233.8173
2015    11      6       2.351382        249.8518
2015    11      7       2.156089        244.5049
2015    12      0       2.106473        242.896
2015    12      1       2.099697        243.7461
2015    12      2       1.699101        226.0269
2015    12      3       1.472359        213.6396
2015    12      4       1.338744        206.2819
2015    12      5       1.438728        212.9823
2015    12      6       1.558669        220.1565
2015    12      7       1.551676        219.3469
2015    13      0       1.430786        211.6183
2015    13      1       1.322806        204.5554
2015    13      2       1.399673        210.5688
2015    13      3       1.348668        207.3808
2015    13      4       1.262838        199.9964
2015    13      5       1.231217        196.7724
2015    13      6       1.062945        181.7245
2015    13      7       0.9892687       174.3577
2015    14      0       1.021254        177.7175
2015    14      1       1.117144        186.341
2015    14      2       1.071576        182.0476
2015    14      3       1.032592        178.6572
2015    14      4       1.336987        204.9518
2015    14      5       1.714922        228.2203
2015    14      6       1.750226        229.9022
2015    14      7       1.855805        234.5681
2015    15      0       2.182951        246.2435
2015    15      1       2.465822        253.5794
2015    15      2       2.240902        247.8496
2015    15      3       1.734731        229.5781
2015    15      4       1.767753        231.4402
2015    15      5       1.841764        234.5681
2015    15      6       1.709744        228.6743
2015    15      7       1.628148        224.3824
2015    16      0       1.592081        222.3092
2015    16      1       1.553226        220.0578
2015    16      2       1.446799        213.7373
2015    16      3       1.324421        205.606
2015    16      4       1.33997         207.1847
2015    16      5       1.2469          200.7349
2015    16      6       0.9355158       172.2083
2015    16      7       0.788779        155.0534
2015    17      0       0.7772605       153.5307
2015    17      1       0.704896        143.8834
2015    17      2       0.5539009       122.0006
2015    17      3       0.4292645       101.0996
2015    17      4       0.4334496       101.758
2015    17      5       0.4691715       107.9876
2015    17      6       0.4846677       110.4771
2015    17      7       0.4844116       110.0074
2015    18      0       0.4860054       110.1412
2015    18      1       0.4715492       107.6813
2015    18      2       0.4422822       102.828
2015    18      3       0.4133629       98.02433
2015    18      4       0.42431         99.86807
2015    18      5       0.4561546       105.3511
2015    18      6       0.6894653       140.9227
2015    18      7       1.038364        180.7484
2015    19      0       1.297756        201.7783
2015    19      1       1.6102          220.3702
2015    19      2       1.718267        225.4135
2015    19      3       1.637089        221.0636
2015    19      4       1.517432        214.7004
2015    19      5       1.452983        210.6569
2015    19      6       1.548427        216.0868
2015    19      7       1.760276        227.0836
2015    20      0       1.836732        230.582
2015    20      1       1.682027        224.1966
2015    20      2       1.578426        218.8699
2015    20      3       1.653191        222.8
2015    20      4       1.682776        224.4285
2015    20      5       1.583213        219.9101
2015    20      6       1.51901         217.3957
2015    20      7       1.527349        218.2548
2015    21      0       1.707112        227.2346
2015    21      1       1.755008        229.0906
2015    21      2       1.668029        223.9613
2015    21      3       1.645297        221.9895
2015    21      4       1.556065        218.6719
2015    21      5       1.420427        212.125
2015    21      6       1.194663        196.5351
2015    21      7       1.052278        183.5714
2015    22      0       0.8014289       156.1789
2015    22      1       0.6215437       131.6378
2015    22      2       0.5684572       123.3612
2015    22      3       0.6197861       130.9208
2015    22      4       0.7019495       142.3431
2015    22      5       0.6939335       140.5641
2015    22      6       0.5980146       126.3144
2015    22      7       0.5585256       120.038
2015    23      0       0.5089095       112.7709
2015    23      1       0.5278213       116.0847
2015    23      2       0.599536        127.8376
2015    23      3       0.6917362       141.4207
2015    23      4       0.8255785       159.2216
2015    23      5       0.8755467       165.6902
2015    23      6       0.8983252       168.3577
2015    23      7       0.9968262       178.4327
2015    24      0       1.183953        195.1643
2015    24      1       1.334548        206.6366
2015    24      2       1.383585        210.0331
2015    24      3       1.303462        204.1687
2015    24      4       1.311185        205.3484
2015    24      5       1.332578        207.1355
2015    24      6       1.53963         220.3556
2015    24      7       1.807004        233.6355
2015    25      0       1.955882        239.5134
2015    25      1       1.956457        239.4586
2015    25      2       1.928059        238.2849
2015    25      3       1.840716        234.7661
2015    25      4       1.816107        234.4122
2015    25      5       2.045569        243.4287
2015    25      6       2.216834        248.5933
2015    25      7       2.041672        243.0081
2015    26      0       1.876765        236.5116
2015    26      1       1.836881        234.4149
2015    26      2       1.752281        229.9915
2015    26      3       1.689356        227.4294
2015    26      4       1.765443        231.7758
2015    26      5       1.999979        241.2338
2015    26      6       2.23572         248.6433
2015    26      7       2.432454        253.7068
2015    27      0       2.23583         248.5501
2015    27      1       2.070253        243.5265
2015    27      2       1.870245        235.4503
2015    27      3       1.593032        221.3085
2015    27      4       1.602789        221.679
2015    27      5       1.49261         215.0163
2015    27      6       1.465608        213.7035
2015    27      7       1.54415         218.4268
2015    28      0       1.492265        215.1416
2015    28      1       1.290651        201.3735
2015    28      2       1.254473        198.4651
2015    28      3       1.385242        208.5212
2015    28      4       1.377997        208.8146
2015    28      5       1.38529         209.7014
2015    28      6       1.209916        196.8174
2015    28      7       1.326335        205.0413
2015    29      0       1.369555        207.9254
2015    29      1       1.51196         217.0999
2015    29      2       1.552259        219.4945
2015    29      3       1.584229        221.0607
2015    29      4       1.739872        229.311
2015    29      5       1.705258        227.9448
2015    29      6       1.555935        219.5698
2015    29      7       1.318127        204.459
2015    30      0       1.056653        183.0134
2015    30      1       0.8035728       155.6775
2015    30      2       0.435895        100.3712
2015    30      3       0.2680292       67.63417
2015    30      4       0.3869087       90.75773
2015    30      5       0.4660394       102.8006
2015    30      6       0.4084385       93.57182
2015    30      7       0.4565512       102.2537
2016    1       0       0.9515392       170.8638
2016    1       1       0.8481044       159.3146
2016    1       2       0.815582        155.361
2016    1       3       0.7838049       151.4251
2016    1       4       0.9966644       175.9325
2016    1       5       0.9538549       171.2687
2016    1       6       1.003216        176.3014
2016    1       7       1.05367         180.8878
2016    2       0       1.052426        180.2914
2016    2       1       1.032287        178.3573
2016    2       2       1.014901        176.6499
2016    2       3       0.9968375       174.9277
2016    2       4       0.9856728       174.2185
2016    2       5       1.105321        185.3702
2016    2       6       1.117256        186.246
2016    2       7       1.091227        183.7116
2016    3       0       1.044677        179.3962
2016    3       1       0.944652        170.1296
2016    3       2       0.9413937       169.8749
2016    3       3       0.8918292       164.8505
2016    3       4       0.8508776       160.23
2016    3       5       0.8259567       157.1483
2016    3       6       0.7309634       145.3737
2016    3       7       0.6709434       137.4091
2016    4       0       0.5264136       115.6296
2016    4       1       0.4405078       101.5464
2016    4       2       0.4053697       95.30044
2016    4       3       0.3923936       93.1999
2016    4       4       0.5277474       116.4948
2016    4       5       0.7617208       149.6284
2016    4       6       1.09348         185.1541
2016    4       7       1.353782        205.8671
2016    5       0       1.416921        210.9219
2016    5       1       1.442767        212.194
2016    5       2       1.402721        208.8413
2016    5       3       1.552502        217.7281
2016    5       4       1.839448        232.4504
2016    5       5       1.972162        238.5592
2016    5       6       1.776777        230.6605
2016    5       7       1.620685        222.9182
2016    6       0       1.580016        220.6978
2016    6       1       1.632241        223.3903
2016    6       2       1.532936        217.4017
2016    6       3       1.408235        210.159
2016    6       4       1.712355        228.1565
2016    6       5       1.708539        228.6563
2016    6       6       1.196863        196.0776
2016    6       7       1.142983        191.4091
2016    7       0       1.317931        205.4119
2016    7       1       1.489265        216.8094
2016    7       2       1.347802        207.1366
2016    7       3       1.129504        189.9114
2016    7       4       1.012324        179.2559
2016    7       5       1.052328        183.3365
2016    7       6       0.8981613       167.5873
2016    7       7       1.177398        194.3109
2016    8       0       1.808889        233.4389
2016    8       1       1.900312        237.1951
2016    8       2       1.483337        215.9887
2016    8       3       1.163153        192.6633
2016    8       4       1.175           193.5609
2016    8       5       1.418111        212.7424
2016    8       6       1.13933         191.0158
2016    8       7       0.8704705       163.8461
2016    9       0       0.6494325       135.5928
2016    9       1       0.5824528       125.6547
2016    9       2       0.5021414       112.6858
2016    9       3       0.520235        115.4974
2016    9       4       0.5746739       123.9879
2016    9       5       0.5620361       122.3199
2016    9       6       0.5210663       115.8798
2016    9       7       0.5724185       123.6948
2016    10      0       0.7404208       146.6418
2016    10      1       1.128107        187.8067
2016    10      2       1.241327        197.2413
2016    10      3       1.268293        199.3485
2016    10      4       1.317469        202.6496
2016    10      5       1.515517        215.7453
2016    10      6       1.874471        233.5416
2016    10      7       2.128612        243.6057
2016    11      0       2.024972        239.846
2016    11      1       1.946577        236.2943
2016    11      2       1.948898        235.8229
2016    11      3       1.849581        231.8393
2016    11      4       1.646332        223.0439
2016    11      5       1.562317        219.3662
2016    11      6       1.541359        218.4385
2016    11      7       1.591133        221.0302
2016    12      0       1.557819        218.7182
2016    12      1       1.507437        215.3439
2016    12      2       1.431491        211.1834
2016    12      3       1.264531        199.4873
2016    12      4       1.255271        198.824
2016    12      5       1.240898        198.0302
2016    12      6       1.14382         190.5732
2016    12      7       0.9977723       176.7917
2016    13      0       0.9543362       172.0803
2016    13      1       0.9450285       171.1219
2016    13      2       0.9905362       175.7955
2016    13      3       0.9490997       171.6167
2016    13      4       0.8988792       166.4101
2016    13      5       0.898832        166.9383
2016    13      6       1.013101        179.2582
2016    13      7       1.063502        184.1775
2016    14      0       1.102443        188.1605
2016    14      1       1.265997        201.5374
2016    14      2       1.195186        195.8037
2016    14      3       0.8827896       164.835
2016    14      4       0.8028887       155.8177
2016    14      5       0.7449254       149.2037
2016    14      6       0.8514793       162.6555
2016    14      7       0.9596252       174.6745
2016    15      0       0.9748477       176.5223
2016    15      1       1.038942        182.8374
2016    15      2       1.095202        187.663
2016    15      3       0.9981921       177.8374
2016    15      4       0.9795113       175.9076
2016    15      5       0.9164772       169.7485
2016    15      6       1.084106        186.6433
2016    15      7       1.100933        188.659
2016    16      0       0.8613637       163.7073
2016    16      1       0.479185        109.6212
2016    16      2       0.2916784       74.38424
2016    16      3       0.2128403       57.22858
2016    16      4       0.2104409       56.30583
2016    16      5       0.2522274       63.953
2016    16      6       0.1292029       38.09307
2016    16      7       0.1008356       31.26981
2016    17      0       0.09433897      29.6463
2016    17      1       0.09930162      30.84056
2016    17      2       0.1319011       38.93475
2016    17      3       0.153345        44.10431
2016    17      4       0.2703251       69.07411
2016    17      5       0.381702        90.93683
2016    17      6       0.3390106       82.32845
2016    17      7       0.2941131       73.16979
2016    18      0       0.3021255       74.88453
2016    18      1       0.272155        69.16772
2016    18      2       0.2307375       60.7664
2016    18      3       0.1809857       50.47517
2016    18      4       0.2610485       68.96265
2016    18      5       0.334411        83.04579
2016    18      6       0.3011877       76.54622
2016    18      7       0.2375685       63.33568
2016    19      0       0.202592        55.28794
2016    19      1       0.1891328       52.08801
2016    19      2       0.1623041       45.99481
2016    19      3       0.1967769       54.24079
2016    19      4       0.2803023       72.23174
2016    19      5       0.3262019       81.44145
2016    19      6       0.3528534       86.61009
2016    19      7       0.3458569       85.43203
2016    20      0       0.3274645       81.97717
2016    20      1       0.3038537       77.43492
2016    20      2       0.3261035       81.74001
2016    20      3       0.3620087       88.56867
2016    20      4       0.4738183       108.4998
2016    20      5       0.5908144       127.3261
2016    20      6       0.6053285       129.7732
2016    20      7       0.5692132       124.154
2016    21      0       0.5708314       124.2921
2016    21      1       0.594479        127.9162
2016    21      2       0.5984198       128.632
2016    21      3       0.636295        134.142
2016    21      4       0.6593796       137.5743
2016    21      5       0.581287        126.3658
2016    21      6       0.3894367       94.22619
2016    21      7       0.2710669       70.81367
2016    22      0       0.2462178       65.54707
2016    22      1       0.2277955       61.4152
2016    22      2       0.2006581       55.29262
2016    22      3       0.2116186       57.6678
2016    22      4       0.2161339       58.61213
2016    22      5       0.1974217       54.47032
2016    22      6       0.1922557       53.38625
2016    22      7       0.2466637       65.80802
2016    23      0       0.2038029       56.31206
2016    23      1       0.2200154       59.93293
2016    23      2       0.2305991       62.19063
2016    23      3       0.2698794       70.55529
2016    23      4       0.3330916       83.2346
2016    23      5       0.3658935       89.40259
2016    23      6       0.3822686       92.31163
2016    23      7       0.4035663       96.30534
2016    24      0       0.4632602       106.7669
2016    24      1       0.5356168       118.5142
2016    24      2       0.6010892       128.3969
2016    24      3       0.6661471       137.7123
2016    24      4       0.7541661       149.6024
2016    24      5       0.8673598       163.2117
2016    24      6       0.9510375       172.0504
2016    24      7       1.033799        179.6999
2016    25      0       1.106266        186.1198
2016    25      1       1.216594        195.2335
2016    25      2       1.444882        211.4714
2016    25      3       1.608379        221.2964
2016    25      4       1.614371        222.0277
2016    25      5       1.625849        223.0234
2016    25      6       1.592354        221.452
2016    25      7       1.799061        230.9309
2016    26      0       1.878406        234.4725
2016    26      1       2.007175        239.5851
2016    26      2       1.806082        231.62
2016    26      3       1.649231        224.1676
2016    26      4       1.575289        220.5749
2016    26      5       1.563856        219.8487
2016    26      6       1.546183        218.5363
2016    26      7       1.625088        222.7841
2016    27      0       1.640514        223.4879
2016    27      1       1.521949        217.1492
2016    27      2       1.409072        210.0901
2016    27      3       1.146041        189.5428
2016    27      4       0.6122232       129.2051
2016    27      5       0.2949618       74.95574
2016    27      6       0.1771568       49.75472
2016    27      7       0.149845        43.37518
2016    28      0       0.1492871       42.94279
2016    28      1       0.1699809       47.5877
2016    28      2       0.1908275       52.06723
2016    28      3       0.1924484       52.60286
2016    28      4       0.3843708       92.19996
2016    28      5       0.4064025       96.21134
2016    28      6       0.3679683       88.82242
2016    28      7       0.3370196       81.9634
2016    29      0       0.2738089       69.22161
2016    29      1       0.2791302       70.01982
2016    29      2       0.3427341       82.42577
2016    29      3       0.3991089       93.66649
2016    29      4       0.4161413       96.88555
2016    29      5       0.4521107       103.134
2016    29      6       0.4371777       100.8918
2016    29      7       0.4622072       104.8038
2016    30      0       0.5223704       113.8262
2016    30      1       0.5807635       122.2214
2016    30      2       0.6530169       132.2597
2016    30      3       0.7633832       146.6542
2016    30      4       0.8105244       152.1981
2016    30      5       0.6776869       137.3888
2016    30      6       0.6897266       139.3396
2016    30      7       0.7097708       141.9055
2017    1       0       1.015794        179.5181
2017    1       1       1.037554        181.3657
2017    1       2       1.069009        183.997
2017    1       3       1.087003        185.4854
2017    1       4       1.012674        178.6552
2017    1       5       0.9049615       167.8344
2017    1       6       1.059108        183.5032
2017    1       7       1.280851        202.0162
2017    2       0       1.363805        207.5911
2017    2       1       1.277288        201.156
2017    2       2       1.220497        196.5867
2017    2       3       1.144681        189.9371
2017    2       4       1.186759        193.3958
2017    2       5       1.165565        191.2735
2017    2       6       1.043967        180.5007
2017    2       7       0.9934294       175.6251
2017    3       0       1.167776        191.4394
2017    3       1       1.332815        204.0559
2017    3       2       1.437223        211.3814
2017    3       3       1.470798        213.7706
2017    3       4       1.517808        217.0622
2017    3       5       1.7706          230.103
2017    3       6       1.93953         237.202
2017    3       7       1.811918        231.932
2017    4       0       1.600738        222.0578
2017    4       1       1.455356        213.7755
2017    4       2       1.166453        192.8814
2017    4       3       0.9725879       174.9549
2017    4       4       1.158738        192.0698
2017    4       5       1.465597        213.7784
2017    4       6       1.732033        227.6814
2017    4       7       1.808037        231.2355
2017    5       0       1.895394        235.331
2017    5       1       2.183002        246.2852
2017    5       2       1.760574        229.7511
2017    5       3       1.689643        225.9132
2017    5       4       1.790871        231.1498
2017    5       5       1.839728        233.7782
2017    5       6       1.840773        233.6544
2017    5       7       1.94259         237.6898
2017    6       0       1.986013        239.3962
2017    6       1       1.508497        217.0941
2017    6       2       1.387117        209.1571
2017    6       3       1.479289        215.131
2017    6       4       1.51685         218.1478
2017    6       5       1.435401        213.7079
2017    6       6       1.360159        208.5248
2017    6       7       1.382796        210.0535
2017    7       0       1.40792         211.7331
2017    7       1       1.325446        205.8202
2017    7       2       1.084159        185.7721
2017    7       3       1.060449        183.6406
2017    7       4       1.212698        197.3948
2017    7       5       1.340237        207.8003
2017    7       6       1.11631         189.3524
2017    7       7       1.114827        188.9248
2017    8       0       1.303557        203.2138
2017    8       1       1.288748        201.7425
2017    8       2       1.338125        204.8864
2017    8       3       1.315305        203.2271
2017    8       4       1.451278        213.1277
2017    8       5       1.606996        223.1983
2017    8       6       1.807147        233.3946
2017    8       7       2.000475        240.773
2017    9       0       2.09306         243.5606
2017    9       1       2.336267        250.4314
2017    9       2       2.183053        246.0292
2017    9       3       1.767897        230.4144
2017    9       4       1.594321        221.6965
2017    9       5       1.385623        208.5526
2017    9       6       1.469737        214.5758
2017    9       7       1.664253        225.4267
2017    10      0       1.726136        227.9147
2017    10      1       1.645273        223.4015
2017    10      2       1.572012        219.7106
2017    10      3       1.568477        219.4999
2017    10      4       1.529697        217.5079
2017    10      5       1.510735        216.5542
2017    10      6       1.539237        218.1798
2017    10      7       1.517336        217.3639
2017    11      0       1.508622        216.5524
2017    11      1       1.589475        220.6772
2017    11      2       1.601752        221.4533
2017    11      3       1.617907        222.6197
2017    11      4       1.671354        225.8314
2017    11      5       1.694446        227.4948
2017    11      6       1.598703        222.1515
2017    11      7       1.410032        210.0676
2017    12      0       1.338218        205.0925
2017    12      1       1.327308        204.2753
2017    12      2       1.175337        192.805
2017    12      3       0.8632272       161.9777
2017    12      4       0.76594         150.4511
2017    12      5       0.8134108       156.7743
2017    12      6       0.8858002       165.2303
2017    12      7       0.9222955       169.3534
2017    13      0       0.8795565       164.9074
2017    13      1       0.8677514       163.5649
2017    13      2       0.8737679       163.9812
2017    13      3       0.8609085       162.4326
2017    13      4       0.9167395       169.4006
2017    13      5       0.9350963       171.6127
2017    13      6       0.9480754       173.0637
2017    13      7       0.9904099       177.152
2017    14      0       1.020248        179.8057
2017    14      1       1.047535        182.0435
2017    14      2       1.147684        190.7139
2017    14      3       1.154872        191.6408
2017    14      4       1.235432        198.8725
2017    14      5       1.362897        208.919
2017    14      6       1.55666         221.2955
2017    14      7       1.697986        228.3956
2017    15      0       1.693656        227.9587
2017    15      1       1.70855         228.8276
2017    15      2       1.588313        222.5137
2017    15      3       1.539856        220.0404
2017    15      4       1.598111        223.9103
2017    15      5       1.614547        225.4501
2017    15      6       1.739007        231.1683
2017    15      7       1.866028        236.1328
2017    16      0       1.860057        235.6263
2017    16      1       1.965563        239.7104
2017    16      2       1.977868        240.6009
2017    16      3       1.897433        238.1225
2017    16      4       1.863727        237.3051
2017    16      5       1.847447        237.2129
2017    16      6       1.811178        235.093
2017    16      7       1.797958        233.7012
2017    17      0       1.793593        233.3351
2017    17      1       1.670359        227.6654
2017    17      2       1.467906        216.5338
2017    17      3       1.342727        207.9927
2017    17      4       1.33978         208.0013
2017    17      5       1.289617        204.5265
2017    17      6       1.184388        196.2794
2017    17      7       1.102066        188.6965
2017    18      0       1.178844        195.559
2017    18      1       1.37509         211.1033
2017    18      2       1.514537        220.2599
2017    18      3       2.06095         246.7715
2017    18      4       1.473544        217.238
2017    18      5       1.21074         198.1784
2017    18      6       1.177768        195.1983
2017    18      7       1.216447        198.6192
2017    19      0       1.63998         228.213
2017    19      1       1.341756        208.2348
2017    19      2       1.312123        205.7755
2017    19      3       1.232657        199.1141
2017    19      4       1.239239        199.5853
2017    19      5       1.235367        199.5719
2017    19      6       1.257035        200.9976
2017    19      7       1.276037        201.7493
2017    20      0       1.241498        198.7273
2017    20      1       1.236704        198.3501
2017    20      2       1.196417        195.2647
2017    20      3       1.175414        193.7809
2017    20      4       1.278433        202.4691
2017    20      5       1.382238        210.2373
2017    20      6       1.509109        218.4055
2017    20      7       1.599906        223.2061
2017    21      0       1.627502        223.8464
2017    21      1       1.715595        228.2144
2017    21      2       1.652184        225.352
2017    21      3       1.505032        217.4059
2017    21      4       1.578466        222.4138
2017    21      5       1.65311         226.8769
2017    21      6       1.630848        225.8282
2017    21      7       1.558102        221.9014
2017    22      0       1.632347        225.8613
2017    22      1       1.688602        228.593
2017    22      2       1.597685        223.4689
2017    22      3       1.538149        220.229
2017    22      4       1.482688        217.5376
2017    22      5       1.464403        217.1755
2017    22      6       1.503129        219.4035
2017    22      7       1.613447        225.3154
2017    23      0       1.721047        230.1803
2017    23      1       1.758381        231.8333
2017    23      2       1.718621        229.8067
2017    23      3       1.597463        223.7644
2017    23      4       1.613717        225.3499
2017    23      5       1.720679        231.4993
2017    23      6       1.749295        232.4631
2017    23      7       1.864742        237.1107
2017    24      0       2.027606        243.1457
2017    24      1       1.979212        240.9503
2017    24      2       1.857148        235.5797
2017    24      3       1.625094        224.8362
2017    24      4       1.588765        223.5463
2017    24      5       1.606502        224.8522
2017    24      6       1.52369         219.9545
2017    24      7       1.633267        226.1037
2017    25      0       1.72699         230.7246
2017    25      1       1.767856        232.2168
2017    25      2       1.711894        229.2232
2017    25      3       1.734474        230.4751
2017    25      4       1.753676        232.0702
2017    25      5       1.932573        239.8524
2017    25      6       1.672023        228.3319
2017    25      7       1.096979        188.4494
2017    26      0       0.7196518       146.3844
2017    26      1       0.3892058       93.72178
2017    26      2       0.2646418       68.39763
2017    26      3       0.2913023       73.84633
2017    26      4       0.2923095       74.18537
2017    26      5       0.2926846       74.25332
2017    26      6       0.2879374       73.25166
2017    26      7       0.28747         73.25927
2017    27      0       0.3102412       77.66792
2017    27      1       0.3170012       78.7719
2017    27      2       0.3060627       76.75982
2017    27      3       0.3669766       89.09547
2017    27      4       0.5510533       121.252
2017    27      5       0.6370328       134.2999
2017    27      6       0.6816706       140.5586
2017    27      7       0.9712048       174.6353
2017    28      0       1.291401        202.0779
2017    28      1       1.296071        202.6543
2017    28      2       1.318321        204.6968
2017    28      3       1.406165        210.5252
2017    28      4       1.393876        209.5886
2017    28      5       1.39192         209.2928
2017    28      6       1.373409        208.4885
2017    28      7       1.306702        203.8023
2017    29      0       1.365409        207.9078
2017    29      1       1.467481        214.3423
2017    29      2       1.447667        212.843
2017    29      3       1.488234        215.4765
2017    29      4       1.507021        216.7612
2017    29      5       1.519209        217.6218
2017    29      6       1.440882        212.5646
2017    29      7       1.397703        208.96
2017    30      0       1.377542        207.1835
2017    30      1       1.312776        202.6915
2017    30      2       1.284288        200.7734
2017    30      3       1.515833        217.285
2017    30      4       1.839423        234.4285
2017    30      5       1.873206        236.3429
2017    30      6       1.606428        223.674
2017    30      7       1.348076        207.8212
2018    1       0       1.105558        185.9666
2018    1       1       1.1881          192.3923
2018    1       2       1.250173        197.0169
2018    1       3       1.288884        199.6542
2018    1       4       1.25391         197.2594
2018    1       5       1.177552        191.9267
2018    1       6       1.119101        187.057
2018    1       7       1.256256        197.8661
2018    2       0       1.43643         210.2023
2018    2       1       1.46114         211.5241
2018    2       2       1.212215        193.8273
2018    2       3       1.016048        176.7452
2018    2       4       0.8718006       162.471
2018    2       5       0.7328607       146.5947
2018    2       6       0.60264         128.8429
2018    2       7       0.5159302       115.2545
2018    3       0       0.5477764       120.3062
2018    3       1       0.6790142       139.2041
2018    3       2       0.7239606       145.2722
2018    3       3       0.6705533       138.1168
2018    3       4       0.7275255       145.7342
2018    3       5       0.8063952       156.0706
2018    3       6       0.9197101       169.1365
2018    3       7       0.9851917       175.9488
2018    4       0       1.073238        184.4152
2018    4       1       1.18237         193.7971
2018    4       2       1.211196        196.1582
2018    4       3       1.114294        187.6875
2018    4       4       0.9498731       171.537
2018    4       5       0.9750411       174.1676
2018    4       6       0.9994459       176.629
2018    4       7       0.9842571       175.0315
2018    5       0       1.175509        192.8397
2018    5       1       1.174486        192.3915
2018    5       2       1.064633        182.0379
2018    5       3       1.098898        185.3222
2018    5       4       1.221543        195.7141
2018    5       5       1.344392        205.1852
2018    5       6       1.637487        223.17
2018    5       7       1.600466        221.9561
2018    6       0       1.640176        222.7261
2018    6       1       1.604502        219.5336
2018    6       2       1.708312        224.4998
2018    6       3       1.184817        191.3433
2018    6       4       0.2680983       69.78301
2018    6       5       0.1355853       40.02019
2018    6       6       0.1233023       36.87873
2018    6       7       0.112588        34.45448
2018    7       0       0.1367339       39.84017
2018    7       1       0.1645562       46.3198
2018    7       2       0.1924577       52.57379
2018    7       3       0.2183184       57.82785
2018    7       4       0.268813        68.55144
2018    7       5       0.3425256       82.78988
2018    7       6       0.3725405       88.17805
2018    7       7       0.3492731       84.0731
2018    8       0       0.2571615       66.53086
2018    8       1       0.1869847       51.69834
2018    8       2       0.1064152       32.82433
2018    8       3       0.1038189       32.00553
2018    8       4       0.1581719       44.16418
2018    8       5       0.1821356       50.15156
2018    8       6       0.183813        50.30495
2018    8       7       0.199749        53.49895
2018    9       0       0.194161        52.53964
2018    9       1       0.1680083       46.86931
2018    9       2       0.1574673       44.36209
2018    9       3       0.1462701       42.00239
2018    9       4       0.1931488       53.44077
2018    9       5       0.250087        65.85397
2018    9       6       0.2496103       65.73927
2018    9       7       0.247416        65.38003
2018    10      0       0.2306421       61.93602
2018    10      1       0.2188561       59.43233
2018    10      2       0.2350943       62.49721
2018    10      3       0.2590295       67.40979
2018    10      4       0.2943407       74.70482
2018    10      5       0.3169204       79.33885
2018    10      6       0.3402476       83.91951
2018    10      7       0.3602059       87.80491
2018    11      0       0.3574032       87.27838
2018    11      1       0.3339136       82.65781
2018    11      2       0.2766594       71.06765
2018    11      3       0.2708458       69.90467
2018    11      4       0.3106287       77.94413
2018    11      5       0.3233604       80.55045
2018    11      6       0.3373916       83.2148
2018    11      7       0.395068        94.04701
2018    12      0       0.4316308       100.5684
2018    12      1       0.4135141       97.38167
2018    12      2       0.3861085       92.32787
2018    12      3       0.3569632       86.72865
2018    12      4       0.3034843       76.27503
2018    12      5       0.2476383       64.844
2018    12      6       0.2090259       56.44324
2018    12      7       0.1934299       52.74056
2018    13      0       0.1649987       46.38926
2018    13      1       0.139524        40.89408
2018    13      2       0.1345861       40.05754
2018    13      3       0.1625094       46.52459
2018    13      4       0.2311186       61.37639
2018    13      5       0.2220973       59.48206
2018    13      6       0.2040917       55.33112
2018    13      7       0.1984384       54.04723
2018    14      0       0.2183329       58.70208
2018    14      1       0.2408233       63.63884
2018    14      2       0.2730409       70.46107
2018    14      3       0.2935401       74.76082
2018    14      4       0.3031896       76.75808
2018    14      5       0.3117657       78.51925
2018    14      6       0.3351755       83.15852
2018    14      7       0.3651035       88.75052
2018    15      0       0.3331613       82.62888
2018    15      1       0.3224352       80.54398
2018    15      2       0.3554079       87.05655
2018    15      3       0.4009222       95.57684
2018    15      4       0.4284691       100.6725
2018    15      5       0.4418752       103.3435
2018    15      6       0.4541515       105.6587
2018    15      7       0.4299121       101.5332
2018    16      0       0.3579354       88.24294
2018    16      1       0.3117963       79.01722
2018    16      2       0.2944525       75.43346
2018    16      3       0.2994205       76.40335
2018    16      4       0.2960856       75.71143
2018    16      5       0.3033994       77.27442
2018    16      6       0.355161        87.38788
2018    16      7       0.4228081       99.93782
2018    17      0       0.4796398       109.8559
2018    17      1       0.5104338       115.072
2018    17      2       0.57612         125.4572
2018    17      3       0.6289145       133.1468
2018    17      4       0.6371529       134.3196
2018    17      5       0.6261194       132.9981
2018    17      6       0.5867711       127.589
2018    17      7       0.5189902       117.0344
2018    18      0       0.5012061       113.7676
2018    18      1       0.5725163       124.7138
2018    18      2       0.6564608       136.7261
2018    18      3       0.6329633       133.3975
2018    18      4       0.6560436       136.8509
2018    18      5       0.8055103       156.7233
2018    18      6       1.006819        178.5371
2018    18      7       0.9816933       176.0819
2018    19      0       0.8905107       166.4447
2018    19      1       0.860014        162.9373
2018    19      2       0.8702935       163.832
2018    19      3       0.9438972       171.3061
2018    19      4       1.141471        189.5171
2018    19      5       1.4289          210.9437
2018    19      6       1.756085        227.9099
2018    19      7       1.849246        232.8083
2018    20      0       1.689733        226.7175
2018    20      1       1.610933        221.8073
2018    20      2       1.652988        223.2417
2018    20      3       1.610493        220.7078
2018    20      4       1.684565        224.9151
2018    20      5       1.844056        232.4729
2018    20      6       1.971826        237.9172
2018    20      7       1.891651        234.5818
2018    21      0       2.069844        240.7574
2018    21      1       2.179541        244.5255
2018    21      2       2.383232        250.6914
2018    21      3       2.565523        255.0223
2018    21      4       2.294217        248.3173
2018    21      5       2.243845        247.0079
2018    21      6       2.192414        246.3762
2018    21      7       2.112204        243.5331
2018    22      0       2.069809        242.2141
2018    22      1       1.989925        239.0816
2018    22      2       1.866282        233.7448
2018    22      3       1.801102        231.3341
2018    22      4       1.729713        228.8178
2018    22      5       1.615975        223.5874
2018    22      6       1.559357        220.2421
2018    22      7       1.618502        222.8204
2018    23      0       1.731985        227.754
2018    23      1       1.841267        232.8178
2018    23      2       1.773078        229.9295
2018    23      3       1.609191        221.896
2018    23      4       1.617537        222.8146
2018    23      5       1.723546        228.4897
2018    23      6       1.88186         235.4936
2018    23      7       2.120044        244.4523
2018    24      0       2.451866        254.159
2018    24      1       2.444725        254.0666
2018    24      2       2.273894        247.9255
2018    24      3       2.298736        249.0233
2018    24      4       2.487115        254.5804
2018    24      5       2.574354        257.2914
2018    24      6       2.459955        255.3555
2018    24      7       2.297302        251.1182
2018    25      0       2.145527        245.8882
2018    25      1       2.12284         243.9041
2018    25      2       2.070708        241.7088
2018    25      3       2.018106        240.186
2018    25      4       1.888941        235.6995
2018    25      5       1.659369        225.7686
2018    25      6       1.522173        218.4917
2018    25      7       1.261963        200.8371
2018    26      0       1.107404        187.9998
2018    26      1       1.015389        179.4921
2018    26      2       0.8129533       157.6633
2018    26      3       0.6491334       136.1109
2018    26      4       0.5786963       125.7867
2018    26      5       0.5251147       117.2499
2018    26      6       0.6425403       135.898
2018    26      7       0.5752332       125.6653
2018    27      0       0.6594969       138.1858
2018    27      1       0.8374561       160.9066
2018    27      2       1.02246         180.7287
2018    27      3       1.143781        191.9257
2018    27      4       1.203651        196.7544
2018    27      5       1.284115        203.325
2018    27      6       1.487769        217.3261
2018    27      7       1.685382        228.5545
2018    28      0       1.91371         238.8503
2018    28      1       1.773322        232.1973
2018    28      2       1.106906        187.2382
2018    28      3       0.6240512       131.2199
2018    28      4       0.5762638       124.3681
2018    28      5       0.5655352       122.764
2018    28      6       0.63687         133.5943
2018    28      7       0.8142171       157.3231
2018    29      0       0.9996665       177.9774
2018    29      1       1.017073        179.5342
2018    29      2       1.086754        186.4262
2018    29      3       1.07919         186.4405
2018    29      4       1.341525        207.8624
2018    29      5       1.716567        229.5606
2018    29      6       1.559393        220.977
2018    29      7       1.451114        214.313
2018    30      0       1.722715        229.7127
2018    30      1       1.931385        239.3837
2018    30      2       1.750691        231.2735
2018    30      3       1.718416        229.5713
2018    30      4       1.914652        238.7615
2018    30      5       1.975715        241.2227
2018    30      6       1.783528        233.0516
2018    30      7       1.680366        227.9565
