####################################################################################################
# Month: 10Oct                                                                                     #
# Station: PAM                                                                                     #
# Frequency: 345 GHz                                                                               #
# Columns are: year    day     segment         tau     Tb (K)                                      #
####################################################################################################
2009    1       0       0.3256233       76.59815
2009    1       1       0.3261723       76.89383
2009    1       2       0.3557856       82.0979
2009    1       3       0.412677        91.45371
2009    1       4       0.4699483       100.5743
2009    1       5       0.5130961       107.339
2009    1       6       0.4326086       95.15634
2009    1       7       0.3468716       80.88775
2009    2       0       0.276392        67.95992
2009    2       1       0.2447463       61.8599
2009    2       2       0.2599142       64.73564
2009    2       3       0.271642        67.06779
2009    2       4       0.3107659       74.31617
2009    2       5       0.3172217       75.44966
2009    2       6       0.3399345       79.38922
2009    2       7       0.3980706       89.19008
2009    3       0       0.4596782       98.87077
2009    3       1       0.5414875       111.0016
2009    3       2       0.6355921       124.2121
2009    3       3       0.7051606       133.2946
2009    3       4       0.7213843       135.3295
2009    3       5       0.6780499       129.9927
2009    3       6       0.7266266       135.7335
2009    3       7       0.7664632       140.459
2009    4       0       0.7740841       141.7299
2009    4       1       0.7613265       140.4659
2009    4       2       0.7224804       136.0269
2009    4       3       0.6395857       125.978
2009    4       4       0.6253709       123.6359
2009    4       5       0.580803        117.488
2009    4       6       0.5239055       109.5546
2009    4       7       0.4632101       100.2112
2009    5       0       0.4114697       91.77859
2009    5       1       0.4629352       99.29826
2009    5       2       0.5194252       107.777
2009    5       3       0.5812358       116.4147
2009    5       4       0.6874323       130.6832
2009    5       5       0.7632632       140.188
2009    5       6       0.8669108       151.9446
2009    5       7       0.8229908       147.2533
2009    6       0       0.6480126       126.3123
2009    6       1       0.636885        124.0586
2009    6       2       0.6421204       124.8023
2009    6       3       0.6404774       124.6204
2009    6       4       0.640102        124.5689
2009    6       5       0.5992891       119.0914
2009    6       6       0.5668848       114.5322
2009    6       7       0.5575835       113.1167
2009    7       0       0.4502274       97.2199
2009    7       1       0.4759085       100.6886
2009    7       2       0.4675021       99.47664
2009    7       3       0.3959701       87.86801
2009    7       4       0.3984861       88.02527
2009    7       5       0.4604954       98.02737
2009    7       6       0.428484        93.34564
2009    7       7       0.3492613       80.10162
2009    8       0       0.3207048       74.85626
2009    8       1       0.3754197       83.98013
2009    8       2       0.4301268       92.617
2009    8       3       0.3902413       86.25387
2009    8       4       0.390222        86.3564
2009    8       5       0.4008321       88.09279
2009    8       6       0.3953354       87.22013
2009    8       7       0.3405327       77.92564
2009    9       0       0.3041972       71.23803
2009    9       1       0.2969824       69.83129
2009    9       2       0.2622913       63.67934
2009    9       3       0.2099923       53.62472
2009    9       4       0.195262        50.50196
2009    9       5       0.1974089       50.85761
2009    9       6       0.1883602       48.96003
2009    9       7       0.1830806       47.80264
2009    10      0       0.1988568       51.11995
2009    10      1       0.2219848       55.94815
2009    10      2       0.2070952       52.92261
2009    10      3       0.2196215       55.33512
2009    10      4       0.2217965       55.61456
2009    10      5       0.2059974       52.4581
2009    10      6       0.1903553       49.40101
2009    10      7       0.1780102       46.97718
2009    11      0       0.1620307       43.75043
2009    11      1       0.1572466       42.75187
2009    11      2       0.1775288       46.89318
2009    11      3       0.1915181       49.67006
2009    11      4       0.2048495       52.19928
2009    11      5       0.2058734       52.42699
2009    11      6       0.2013689       51.64281
2009    11      7       0.1978741       51.01095
2009    12      0       0.1965459       50.83112
2009    12      1       0.1858356       48.75904
2009    12      2       0.1797449       47.53461
2009    12      3       0.1695441       45.28386
2009    12      4       0.1673721       44.68579
2009    12      5       0.1628553       43.64825
2009    12      6       0.1660356       44.37536
2009    12      7       0.1738186       46.08047
2009    13      0       0.1712054       45.45868
2009    13      1       0.1724503       45.5104
2009    13      2       0.1782583       46.54896
2009    13      3       0.1804621       46.98092
2009    13      4       0.1982177       50.50545
2009    13      5       0.2304605       56.88806
2009    13      6       0.2606058       62.82998
2009    13      7       0.2633273       63.47198
2009    14      0       0.2499806       60.99578
2009    14      1       0.2255178       56.33634
2009    14      2       0.2110133       53.50102
2009    14      3       0.1984542       50.87067
2009    14      4       0.2029989       51.69212
2009    14      5       0.2124109       53.52717
2009    14      6       0.2116418       53.48026
2009    14      7       0.1825232       47.80271
2009    15      0       0.1635721       43.93185
2009    15      1       0.1613513       43.50124
2009    15      2       0.175804        46.35518
2009    15      3       0.1661035       44.20296
2009    15      4       0.1638727       43.67928
2009    15      5       0.1642469       43.71946
2009    15      6       0.1589792       42.64688
2009    15      7       0.1511633       41.05717
2009    16      0       0.1577511       42.43865
2009    16      1       0.1650348       43.98978
2009    16      2       0.1564917       42.27067
2009    16      3       0.166316        44.173
2009    16      4       0.1730191       45.4488
2009    16      5       0.1801252       46.90645
2009    16      6       0.1997754       51.02809
2009    16      7       0.2267833       56.57622
2009    17      0       0.2313193       57.59452
2009    17      1       0.2318007       57.63845
2009    17      2       0.2745409       65.47119
2009    17      3       0.2933137       68.8257
2009    17      4       0.3074071       71.39446
2009    17      5       0.3316155       75.72557
2009    17      6       0.3651761       81.74112
2009    17      7       0.3870985       85.31578
2009    18      0       0.3606408       80.913
2009    18      1       0.3795226       83.96388
2009    18      2       0.4026454       87.75037
2009    18      3       0.3869782       85.15833
2009    18      4       0.3921347       86.12376
2009    18      5       0.4169877       90.28196
2009    18      6       0.3858386       85.26702
2009    18      7       0.3760609       83.5329
2009    19      0       0.3325523       76.14166
2009    19      1       0.3761215       83.39254
2009    19      2       0.3786246       83.8551
2009    19      3       0.378317        83.76237
2009    19      4       0.4149502       89.81119
2009    19      5       0.4418581       94.24378
2009    19      6       0.4038399       88.25767
2009    19      7       0.3617479       81.30891
2009    20      0       0.3416904       77.88752
2009    20      1       0.3642541       81.65684
2009    20      2       0.3711869       82.6249
2009    20      3       0.3741098       83.08767
2009    20      4       0.3972171       87.06912
2009    20      5       0.3949644       86.85967
2009    20      6       0.3411192       77.90974
2009    20      7       0.3152411       73.27153
2009    21      0       0.2957963       69.64297
2009    21      1       0.2738077       65.54305
2009    21      2       0.2878328       67.89326
2009    21      3       0.2923645       68.73136
2009    21      4       0.3556428       80.04344
2009    21      5       0.4051041       88.3606
2009    21      6       0.4112027       89.58136
2009    21      7       0.3926907       86.57093
2009    22      0       0.3977428       87.26542
2009    22      1       0.4273717       91.8858
2009    22      2       0.4189406       90.43367
2009    22      3       0.3649165       81.42593
2009    22      4       0.3678554       81.89908
2009    22      5       0.3785149       83.68142
2009    22      6       0.357597        80.09901
2009    22      7       0.356284        79.85973
2009    23      0       0.3116424       72.16365
2009    23      1       0.3196685       73.3068
2009    23      2       0.2925981       68.48463
2009    23      3       0.2529767       61.2094
2009    23      4       0.2202604       54.84844
2009    23      5       0.1924669       49.36868
2009    23      6       0.1673771       44.34699
2009    23      7       0.1534189       41.42652
2009    24      0       0.1465452       39.89737
2009    24      1       0.1472478       40.06519
2009    24      2       0.1677571       44.36337
2009    24      3       0.1784827       46.57857
2009    24      4       0.1848293       47.79366
2009    24      5       0.1763238       46.10861
2009    24      6       0.1618216       43.205
2009    24      7       0.1553522       41.93167
2009    25      0       0.1679737       44.62927
2009    25      1       0.1631416       43.61901
2009    25      2       0.1817665       47.50684
2009    25      3       0.2212014       55.29614
2009    25      4       0.2355614       57.99405
2009    25      5       0.2058537       52.22231
2009    25      6       0.169872        44.94648
2009    25      7       0.1235922       35.28894
2009    26      0       0.09389774      28.7102
2009    26      1       0.09047766      27.90592
2009    26      2       0.1406076       38.67686
2009    26      3       0.2142788       53.5612
2009    26      4       0.2423479       59.17939
2009    26      5       0.2442843       59.5065
2009    26      6       0.3107619       71.6276
2009    26      7       0.2701418       64.37515
2009    27      0       0.2382089       58.35368
2009    27      1       0.2451914       59.57749
2009    27      2       0.2491748       60.46599
2009    27      3       0.2655342       63.55578
2009    27      4       0.3335691       75.82773
2009    27      5       0.3446654       77.97164
2009    27      6       0.4222726       91.01477
2009    27      7       0.4360201       93.33985
2009    28      0       0.4763911       99.45514
2009    28      1       0.4200525       90.46028
2009    28      2       0.3998984       87.33907
2009    28      3       0.428286        91.83106
2009    28      4       0.4299405       92.28898
2009    28      5       0.3586736       80.29829
2009    28      6       0.2427705       59.33492
2009    28      7       0.222525        55.43225
2009    29      0       0.2710682       64.56737
2009    29      1       0.2868822       67.48633
2009    29      2       0.2769241       65.84432
2009    29      3       0.2324464       57.67502
2009    29      4       0.2090621       53.11844
2009    29      5       0.1723882       45.6379
2009    29      6       0.1274148       36.02975
2009    29      7       0.1158223       33.38048
2009    30      0       0.1213768       34.41451
2009    30      1       0.1580834       41.93327
2009    30      2       0.2790834       66.09468
2009    30      3       0.4173003       90.31059
2009    30      4       0.4990058       103.2101
2009    30      5       0.4393574       94.06671
2009    30      6       0.3934149       86.82109
2009    30      7       0.3733338       83.5877
2009    31      0       0.3254319       75.22091
2009    31      1       0.3287771       75.64511
2009    31      2       0.4507965       95.84665
2009    31      3       0.4316919       92.99888
2009    31      4       0.4108926       89.57234
2009    31      5       0.3552665       80.47811
2009    31      6       0.3014896       71.02198
2009    31      7       0.3010996       70.86005
2010    1       0       0.1205714       34.82175
2010    1       1       0.1264683       36.2792
2010    1       2       0.2078226       53.37438
2010    1       3       0.2119521       54.18599
2010    1       4       0.196118        51.09584
2010    1       5       0.1874053       49.4083
2010    1       6       0.1950002       51.07067
2010    1       7       0.1676025       45.49267
2010    2       0       0.1368441       38.83914
2010    2       1       0.1293242       37.10978
2010    2       2       0.155446        42.74193
2010    2       3       0.1635402       44.36594
2010    2       4       0.1619752       43.96384
2010    2       5       0.149742        41.41311
2010    2       6       0.1456834       40.64026
2010    2       7       0.142252        39.93437
2010    3       0       0.1440572       40.33342
2010    3       1       0.1514732       41.88393
2010    3       2       0.1565817       43.10055
2010    3       3       0.1720602       46.44425
2010    3       4       0.185438        49.31489
2010    3       5       0.1939279       51.12742
2010    3       6       0.1881518       49.957
2010    3       7       0.1647289       45.02734
2010    4       0       0.1465261       41.07616
2010    4       1       0.1383804       39.33695
2010    4       2       0.1670123       45.71058
2010    4       3       0.1937931       51.31159
2010    4       4       0.2098099       54.42487
2010    4       5       0.2108985       54.53394
2010    4       6       0.2093279       54.44771
2010    4       7       0.2185443       56.42492
2010    5       0       0.2238218       57.49802
2010    5       1       0.2328796       59.27167
2010    5       2       0.2571207       63.88134
2010    5       3       0.2549217       63.4228
2010    5       4       0.261611        64.8534
2010    5       5       0.2900345       70.58919
2010    5       6       0.3467603       81.20099
2010    5       7       0.3436983       80.67587
2010    6       0       0.3099121       74.61111
2010    6       1       0.2945161       71.65127
2010    6       2       0.2829338       69.24626
2010    6       3       0.2591882       64.58867
2010    6       4       0.2667581       65.71412
2010    6       5       0.2829061       68.92898
2010    6       6       0.2842834       69.44069
2010    6       7       0.27545         67.85519
2010    7       0       0.2706885       67.1469
2010    7       1       0.2538788       63.82041
2010    7       2       0.269585        66.80405
2010    7       3       0.2896412       70.54775
2010    7       4       0.3500893       81.346
2010    7       5       0.4711445       101.3233
2010    7       6       0.5565283       114.2992
2010    7       7       0.5079452       107.244
2010    8       0       0.4382636       96.39398
2010    8       1       0.4523049       98.43574
2010    8       2       0.5583876       113.7851
2010    8       3       0.6334947       123.7486
2010    8       4       0.6040476       120.0514
2010    8       5       0.6061676       120.3668
2010    8       6       0.4719555       100.9821
2010    8       7       0.3392269       78.93803
2010    9       0       0.3222211       75.72392
2010    9       1       0.4185568       91.97124
2010    9       2       0.5015522       104.2462
2010    9       3       0.4670198       99.06226
2010    9       4       0.4587997       97.72394
2010    9       5       0.4655018       98.71631
2010    9       6       0.3934882       87.49539
2010    9       7       0.3264718       76.06634
2010    10      0       0.290308        69.45759
2010    10      1       0.3413823       78.128
2010    10      2       0.3751145       83.86235
2010    10      3       0.3529839       80.18793
2010    10      4       0.3508839       79.81511
2010    10      5       0.3551836       80.68753
2010    10      6       0.3262858       75.86364
2010    10      7       0.287877        69.06294
2010    11      0       0.2964894       70.58012
2010    11      1       0.3771671       84.51222
2010    11      2       0.4824439       101.2017
2010    11      3       0.4419993       95.02437
2010    11      4       0.4510218       96.38393
2010    11      5       0.4182139       91.32307
2010    11      6       0.4006417       88.50636
2010    11      7       0.4180009       91.0112
2010    12      0       0.3919352       87.36742
2010    12      1       0.3752995       84.78521
2010    12      2       0.5258991       108.0313
2010    12      3       0.4504836       97.05704
2010    12      4       0.427001        93.40581
2010    12      5       0.382886        86.18618
2010    12      6       0.384633        86.28173
2010    12      7       0.3416729       79.00238
2010    13      0       0.3743693       85.04435
2010    13      1       0.2988138       71.56695
2010    13      2       0.4611817       99.10122
2010    13      3       0.5802297       116.6566
2010    13      4       0.6765863       129.2836
2010    13      5       0.4763784       101.7405
2010    13      6       0.3256269       76.2762
2010    13      7       0.3777533       84.56138
2010    14      0       0.5919408       117.7791
2010    14      1       0.5645802       114.8613
2010    14      2       0.6131217       121.5233
2010    14      3       0.6898366       130.8915
2010    14      4       0.5977038       119.2281
2010    14      5       0.5923057       118.6449
2010    14      6       0.6789986       130.1072
2010    14      7       0.6537115       126.6676
2010    15      0       0.3931982       88.40321
2010    15      1       0.3593944       82.74326
2010    15      2       0.4936068       104.5535
2010    15      3       0.5805599       117.3029
2010    15      4       0.6049886       120.2149
2010    15      5       0.4634596       99.79066
2010    15      6       0.3992868       89.12048
2010    15      7       0.3678569       83.93125
2010    16      0       0.28289         69.04262
2010    16      1       0.2892722       70.04494
2010    16      2       0.34113         79.45522
2010    16      3       0.3321631       78.14133
2010    16      4       0.3398544       79.38689
2010    16      5       0.3293153       77.59553
2010    16      6       0.2580411       64.15286
2010    16      7       0.2362516       59.60183
2010    17      0       0.2353102       59.48104
2010    17      1       0.2833405       68.97961
2010    17      2       0.2949444       71.3727
2010    17      3       0.2958955       71.44715
2010    17      4       0.2835945       69.09733
2010    17      5       0.2562285       64.00179
2010    17      6       0.2524419       63.39046
2010    17      7       0.2401133       61.01412
2010    18      0       0.2174128       56.4532
2010    18      1       0.1721991       46.93223
2010    18      2       0.195216        51.77239
2010    18      3       0.2122407       55.05839
2010    18      4       0.2038405       53.3141
2010    18      5       0.1809185       48.73621
2010    18      6       0.1749678       47.45506
2010    18      7       0.1683554       45.96896
2010    19      0       0.1467863       41.25713
2010    19      1       0.1383604       39.38964
2010    19      2       0.1740441       47.21039
2010    19      3       0.2119106       54.99218
2010    19      4       0.2486443       62.2966
2010    19      5       0.2468376       62.00882
2010    19      6       0.2256639       57.76735
2010    19      7       0.2043706       53.30117
2010    20      0       0.2199531       56.21336
2010    20      1       0.2412798       60.49498
2010    20      2       0.2862774       69.31177
2010    20      3       0.3452657       79.94025
2010    20      4       0.3960963       88.7644
2010    20      5       0.399102        89.24873
2010    20      6       0.3600011       82.7628
2010    20      7       0.3053327       72.82176
2010    21      0       0.334226        78.21556
2010    21      1       0.4483133       97.3867
2010    21      2       0.5881903       116.9066
2010    21      3       0.4476632       96.29374
2010    21      4       0.3438901       78.74487
2010    21      5       0.299689        70.90885
2010    21      6       0.2320747       57.98935
2010    21      7       0.2231188       56.00092
2010    22      0       0.2036413       51.8743
2010    22      1       0.1786512       46.5414
2010    22      2       0.1643171       43.34288
2010    22      3       0.1701706       44.56676
2010    22      4       0.1908806       48.75444
2010    22      5       0.2081713       52.11937
2010    22      6       0.1890521       48.28905
2010    22      7       0.150613        40.49881
2010    23      0       0.1433084       38.92664
2010    23      1       0.1445256       39.12144
2010    23      2       0.1687431       44.10259
2010    23      3       0.2083857       52.17036
2010    23      4       0.2294791       56.33407
2010    23      5       0.1983523       50.25781
2010    23      6       0.171306        44.84664
2010    23      7       0.1708843       44.82293
2010    24      0       0.1501373       40.63717
2010    24      1       0.1437116       39.2872
2010    24      2       0.1694712       44.69293
2010    24      3       0.1988962       50.80278
2010    24      4       0.2284482       56.67485
2010    24      5       0.2178641       54.7296
2010    24      6       0.1863843       48.60528
2010    24      7       0.1498866       41.05598
2010    25      0       0.1231092       35.19113
2010    25      1       0.1167135       33.63576
2010    25      2       0.1337886       37.28075
2010    25      3       0.1476699       40.25674
2010    25      4       0.1714567       45.16368
2010    25      5       0.1974847       50.3248
2010    25      6       0.2236663       55.4212
2010    25      7       0.2299732       56.61715
2010    26      0       0.2222461       55.03947
2010    26      1       0.2066299       51.83326
2010    26      2       0.2133266       53.32309
2010    26      3       0.2171174       54.18245
2010    26      4       0.2428671       59.25571
2010    26      5       0.2723085       64.86693
2010    26      6       0.280628        66.48636
2010    26      7       0.2656345       63.85139
2010    27      0       0.2654217       63.76772
2010    27      1       0.294845        69.22378
2010    27      2       0.2726999       64.94542
2010    27      3       0.2687221       64.29254
2010    27      4       0.2660094       63.85166
2010    27      5       0.2494926       60.78466
2010    27      6       0.2884604       67.94472
2010    27      7       0.3354544       76.48978
2010    28      0       0.3663721       81.94002
2010    28      1       0.3610729       81.34146
2010    28      2       0.4441811       94.67694
2010    28      3       0.4042302       88.46896
2010    28      4       0.4043277       88.60258
2010    28      5       0.4924003       102.477
2010    28      6       0.4712625       99.4547
2010    28      7       0.3927237       87.32235
2010    29      0       0.3938881       87.28485
2010    29      1       0.3839694       85.46693
2010    29      2       0.4426092       94.73549
2010    29      3       0.4026115       88.41113
2010    29      4       0.4380604       94.01522
2010    29      5       0.458265        97.22247
2010    29      6       0.3646116       82.35735
2010    29      7       0.2874693       68.8785
2010    30      0       0.2891384       68.9529
2010    30      1       0.2782496       66.74825
2010    30      2       0.338673        77.69124
2010    30      3       0.391816        86.61869
2010    30      4       0.4055245       88.75292
2010    30      5       0.3561777       80.84353
2010    30      6       0.2663699       64.78953
2010    30      7       0.1871068       48.88907
2010    31      0       0.1875383       48.64748
2010    31      1       0.2002311       50.85463
2010    31      2       0.2378411       58.40966
2010    31      3       0.2469541       60.39034
2010    31      4       0.2593558       62.77773
2010    31      5       0.2793487       66.53363
2010    31      6       0.2987831       70.12536
2010    31      7       0.3023528       70.81019
2011    1       0       0.1559521       43.21153
2011    1       1       0.1815112       48.5996
2011    1       2       0.1988268       52.03239
2011    1       3       0.2042999       53.28181
2011    1       4       0.2269756       57.73651
2011    1       5       0.2317799       58.8118
2011    1       6       0.2202174       56.74138
2011    1       7       0.1975329       52.12749
2011    2       0       0.194521        51.45313
2011    2       1       0.1986883       52.35095
2011    2       2       0.1990597       52.48189
2011    2       3       0.2018835       52.98769
2011    2       4       0.191848        50.8991
2011    2       5       0.1916905       50.80135
2011    2       6       0.2587744       63.8049
2011    2       7       0.2995543       71.61428
2011    3       0       0.3024056       72.19805
2011    3       1       0.2679638       65.81572
2011    3       2       0.2491874       62.45521
2011    3       3       0.2527045       63.54747
2011    3       4       0.3141464       75.6146
2011    3       5       0.3810631       87.73147
2011    3       6       0.354913        83.36883
2011    3       7       0.3297447       78.9357
2011    4       0       0.3218755       77.35959
2011    4       1       0.2926568       71.80689
2011    4       2       0.2769904       68.67297
2011    4       3       0.286179        70.3213
2011    4       4       0.3140545       75.56086
2011    4       5       0.3833861       87.72319
2011    4       6       0.5100682       107.828
2011    4       7       0.620133        123.6771
2011    5       0       0.7256961       137.6361
2011    5       1       0.8532828       152.539
2011    5       2       0.7997622       145.9839
2011    5       3       0.6979626       133.4738
2011    5       4       0.4952505       105.4741
2011    5       5       0.308674        74.51007
2011    5       6       0.200659        53.16411
2011    5       7       0.3448941       80.88009
2011    6       0       0.5145547       108.562
2011    6       1       0.5396463       111.2978
2011    6       2       0.4441595       96.44924
2011    6       3       0.4811749       102.0101
2011    6       4       0.4693434       100.4248
2011    6       5       0.4441762       97.0613
2011    6       6       0.5161486       107.6934
2011    6       7       0.6088026       120.5932
2011    7       0       0.8620034       151.4057
2011    7       1       0.868737        152.176
2011    7       2       0.692308        131.8189
2011    7       3       0.5584566       113.8119
2011    7       4       0.4572483       98.86824
2011    7       5       0.4000915       89.63664
2011    7       6       0.3572459       82.35843
2011    7       7       0.3042025       72.85169
2011    8       0       0.2697697       66.30332
2011    8       1       0.2793304       68.16827
2011    8       2       0.4540249       97.41411
2011    8       3       0.543532        110.6933
2011    8       4       0.576209        115.3693
2011    8       5       0.5134078       106.5496
2011    8       6       0.5805079       115.6863
2011    8       7       0.5587512       112.3161
2011    9       0       0.4657843       99.03941
2011    9       1       0.5528651       111.6693
2011    9       2       0.4787765       100.6592
2011    9       3       0.4734832       99.91145
2011    9       4       0.459854        97.71358
2011    9       5       0.4577312       97.34698
2011    9       6       0.4621896       98.11329
2011    9       7       0.5022343       104.8226
2011    10      0       0.5355273       109.6361
2011    10      1       0.5085991       105.5674
2011    10      2       0.521787        107.4817
2011    10      3       0.4884196       102.3813
2011    10      4       0.4700456       99.42574
2011    10      5       0.5788031       115.3063
2011    10      6       0.590026        117.529
2011    10      7       0.5146199       107.0075
2011    11      0       0.4839261       102.5716
2011    11      1       0.4833537       102.2635
2011    11      2       0.5499933       112.0013
2011    11      3       0.5741448       115.6685
2011    11      4       0.5781956       116.3386
2011    11      5       0.5583858       113.6785
2011    11      6       0.4704927       100.7603
2011    11      7       0.3233422       76.17272
2011    12      0       0.2805417       68.08184
2011    12      1       0.2293569       58.49855
2011    12      2       0.2552747       63.41025
2011    12      3       0.2888624       69.32463
2011    12      4       0.3202089       75.02519
2011    12      5       0.3418062       79.09794
2011    12      6       0.313419        74.17313
2011    12      7       0.2427266       60.80667
2011    13      0       0.1995187       52.06551
2011    13      1       0.1749363       46.9172
2011    13      2       0.2172998       55.54647
2011    13      3       0.2428118       60.42706
2011    13      4       0.3021237       71.71338
2011    13      5       0.3228987       75.52373
2011    13      6       0.3009469       71.68953
2011    13      7       0.2643171       64.64117
2011    14      0       0.264749        64.35795
2011    14      1       0.3501205       79.17176
2011    14      2       0.4749393       99.4015
2011    14      3       0.5200131       106.4335
2011    14      4       0.5147941       106.1732
2011    14      5       0.4727531       99.77972
2011    14      6       0.3606988       81.53335
2011    14      7       0.3199465       74.39945
2011    15      0       0.3200891       74.32294
2011    15      1       0.3773684       83.92263
2011    15      2       0.3579644       80.7192
2011    15      3       0.3434925       78.26577
2011    15      4       0.3755673       83.76135
2011    15      5       0.4228972       91.56966
2011    15      6       0.4315808       93.1776
2011    15      7       0.3622006       81.79626
2011    16      0       0.3252047       75.39238
2011    16      1       0.3771444       84.03341
2011    16      2       0.3819654       84.94653
2011    16      3       0.3144756       73.48181
2011    16      4       0.3103135       72.7637
2011    16      5       0.3244045       75.17005
2011    16      6       0.3082492       72.5238
2011    16      7       0.2780174       67.16166
2011    17      0       0.2546558       62.72149
2011    17      1       0.261294        63.83933
2011    17      2       0.2420978       60.03761
2011    17      3       0.2321146       57.96062
2011    17      4       0.2497444       61.21289
2011    17      5       0.2704486       65.13212
2011    17      6       0.2862448       68.05386
2011    17      7       0.2796686       66.7537
2011    18      0       0.2713922       65.10876
2011    18      1       0.2588019       62.69675
2011    18      2       0.2578567       62.7517
2011    18      3       0.2578962       62.84873
2011    18      4       0.2787532       66.6198
2011    18      5       0.2777223       66.47379
2011    18      6       0.2362443       58.78373
2011    18      7       0.1816076       47.68517
2011    19      0       0.1941813       49.94153
2011    19      1       0.2428108       59.33555
2011    19      2       0.3109377       72.16766
2011    19      3       0.3548811       79.97439
2011    19      4       0.3850839       85.40502
2011    19      5       0.4324692       93.11807
2011    19      6       0.4017097       88.35903
2011    19      7       0.3944504       86.92958
2011    20      0       0.3800429       84.5472
2011    20      1       0.4115612       89.48522
2011    20      2       0.4484085       95.46709
2011    20      3       0.398821        87.61526
2011    20      4       0.4111093       89.61338
2011    20      5       0.4378947       94.07525
2011    20      6       0.4620539       97.79031
2011    20      7       0.4302814       93.07728
2011    21      0       0.3607568       81.20478
2011    21      1       0.4202086       91.28764
2011    21      2       0.604882        118.2336
2011    21      3       0.6780486       127.8226
2011    21      4       0.6902098       130.148
2011    21      5       0.6474665       125.3744
2011    21      6       0.4226582       92.87562
2011    21      7       0.4923734       103.029
2011    22      0       0.5544914       112.7109
2011    22      1       0.5530186       112.6639
2011    22      2       0.4967767       104.2339
2011    22      3       0.458998        98.08635
2011    22      4       0.5500001       111.3691
2011    22      5       0.6131497       120.5086
2011    22      6       0.5490659       111.6916
2011    22      7       0.5966053       118.458
2011    23      0       0.6093508       119.7059
2011    23      1       0.6859494       129.0945
2011    23      2       0.6884396       129.4131
2011    23      3       0.6540849       125.374
2011    23      4       0.563548        112.9422
2011    23      5       0.4456653       94.8851
2011    23      6       0.2824258       67.09778
2011    23      7       0.2704489       64.92092
2011    24      0       0.250215        61.14772
2011    24      1       0.2067131       52.76602
2011    24      2       0.2320009       57.78756
2011    24      3       0.3021189       70.67875
2011    24      4       0.334204        76.11676
2011    24      5       0.3012149       70.2325
2011    24      6       0.2224871       55.52869
2011    24      7       0.1690559       44.81482
2011    25      0       0.1699061       44.81962
2011    25      1       0.1969192       50.0549
2011    25      2       0.2290899       56.47637
2011    25      3       0.2756708       65.35814
2011    25      4       0.2900908       68.11427
2011    25      5       0.2466711       60.25788
2011    25      6       0.2054569       52.20356
2011    25      7       0.1763164       46.04487
2011    26      0       0.1977484       50.50071
2011    26      1       0.2023795       51.47835
2011    26      2       0.2182746       54.63664
2011    26      3       0.2474734       60.24795
2011    26      4       0.2569783       62.06753
2011    26      5       0.2603829       62.6676
2011    26      6       0.2686789       64.56
2011    26      7       0.2505607       61.2645
2011    27      0       0.2729729       65.44728
2011    27      1       0.2987438       70.62911
2011    27      2       0.2718277       65.89019
2011    27      3       0.3122691       73.21762
2011    27      4       0.322658        74.98726
2011    27      5       0.3284147       75.78396
2011    27      6       0.4055136       89.26583
2011    27      7       0.4175518       91.56807
2011    28      0       0.3962829       88.3557
2011    28      1       0.3979799       88.55511
2011    28      2       0.4662223       99.32895
2011    28      3       0.5542788       112.1869
2011    28      4       0.6244247       121.575
2011    28      5       0.5285106       108.2908
2011    28      6       0.4502525       96.08175
2011    28      7       0.4579885       97.43731
2011    29      0       0.5664893       113.7453
2011    29      1       0.5833471       115.8077
2011    29      2       0.493038        102.6621
2011    29      3       0.4817702       100.9404
2011    29      4       0.5286921       108.2409
2011    29      5       0.5224236       107.3011
2011    29      6       0.5592857       112.8243
2011    29      7       0.5627743       113.4234
2011    30      0       0.4924335       103.3339
2011    30      1       0.4978877       103.8223
2011    30      2       0.5588157       112.4094
2011    30      3       0.5741416       114.9104
2011    30      4       0.5929931       117.9332
2011    30      5       0.4613059       98.58852
2011    30      6       0.4392218       95.08238
2011    30      7       0.4652958       98.77949
2011    31      0       0.4553766       97.44462
2011    31      1       0.5597383       112.7754
2011    31      2       0.4930421       102.5503
2011    31      3       0.4358654       93.82585
2011    31      4       0.4444847       95.43423
2011    31      5       0.3298327       76.51489
2011    31      6       0.3580613       80.9725
2011    31      7       0.5328874       109.0553
2012    1       0       0.08253526      26.05658
2012    1       1       0.1098964       32.42763
2012    1       2       0.1169883       34.14064
2012    1       3       0.1096552       32.51584
2012    1       4       0.1102534       32.61462
2012    1       5       0.1085307       32.22093
2012    1       6       0.1142392       33.48174
2012    1       7       0.1434235       39.70984
2012    2       0       0.1700887       45.32877
2012    2       1       0.1727092       46.0057
2012    2       2       0.1712768       45.93305
2012    2       3       0.1873633       49.14436
2012    2       4       0.1859226       48.73212
2012    2       5       0.2019117       51.9626
2012    2       6       0.2103861       53.80293
2012    2       7       0.1995146       51.62276
2012    3       0       0.1923165       50.0289
2012    3       1       0.1895087       49.50186
2012    3       2       0.1896631       49.53432
2012    3       3       0.1766819       46.81378
2012    3       4       0.1783434       47.09873
2012    3       5       0.1877404       49.12613
2012    3       6       0.1876414       49.25788
2012    3       7       0.1709488       45.76106
2012    4       0       0.1542591       42.01944
2012    4       1       0.1611255       43.23896
2012    4       2       0.2057549       52.27592
2012    4       3       0.221072        55.49979
2012    4       4       0.2728783       65.29717
2012    4       5       0.2769068       66.33545
2012    4       6       0.2205231       55.78322
2012    4       7       0.1832152       47.99375
2012    5       0       0.2067111       52.67124
2012    5       1       0.2113544       53.71889
2012    5       2       0.211134        53.84987
2012    5       3       0.2010857       51.99035
2012    5       4       0.2103628       53.90236
2012    5       5       0.2181618       55.52289
2012    5       6       0.2246341       56.56547
2012    5       7       0.2545948       62.36556
2012    6       0       0.2594404       63.39492
2012    6       1       0.1906749       49.98351
2012    6       2       0.1633753       44.33851
2012    6       3       0.1577501       43.05984
2012    6       4       0.160603        43.58991
2012    6       5       0.1596722       43.42555
2012    6       6       0.1365292       38.41391
2012    6       7       0.1274484       36.44802
2012    7       0       0.1158072       33.86916
2012    7       1       0.1115697       32.92492
2012    7       2       0.1261837       36.05707
2012    7       3       0.1300068       36.76163
2012    7       4       0.1318177       37.0797
2012    7       5       0.1328924       37.28671
2012    7       6       0.1361485       38.04327
2012    7       7       0.136673        38.23451
2012    8       0       0.1408092       39.14259
2012    8       1       0.1442546       39.85928
2012    8       2       0.1670492       44.70634
2012    8       3       0.1753692       46.28694
2012    8       4       0.1836861       47.83091
2012    8       5       0.184903        48.03501
2012    8       6       0.1836831       47.8549
2012    8       7       0.1802795       47.18042
2012    9       0       0.1785614       46.7323
2012    9       1       0.1822242       47.40786
2012    9       2       0.2071939       52.41966
2012    9       3       0.2196625       54.83176
2012    9       4       0.2323358       57.35501
2012    9       5       0.2607988       62.94959
2012    9       6       0.281465        67.06991
2012    9       7       0.2858804       67.95758
2012    10      0       0.2630219       63.76121
2012    10      1       0.2514748       61.42547
2012    10      2       0.2811518       66.72735
2012    10      3       0.3090808       71.90019
2012    10      4       0.4157623       90.06826
2012    10      5       0.5189802       106.1145
2012    10      6       0.542411        109.4616
2012    10      7       0.4861246       101.5059
2012    11      0       0.4617676       97.65817
2012    11      1       0.415461        90.36737
2012    11      2       0.4296264       92.55101
2012    11      3       0.3849044       85.26426
2012    11      4       0.3512993       79.63111
2012    11      5       0.3534752       80.1409
2012    11      6       0.3887803       86.30028
2012    11      7       0.3512528       79.90521
2012    12      0       0.3315033       76.30069
2012    12      1       0.3634152       81.65683
2012    12      2       0.3833002       84.97019
2012    12      3       0.3766526       83.78465
2012    12      4       0.4061507       88.71547
2012    12      5       0.4148917       90.19478
2012    12      6       0.3766398       83.71404
2012    12      7       0.3592474       80.66093
2012    13      0       0.3591544       80.68127
2012    13      1       0.3299545       75.76467
2012    13      2       0.3246657       74.85397
2012    13      3       0.3219191       74.3305
2012    13      4       0.3620712       81.34994
2012    13      5       0.3617546       81.45402
2012    13      6       0.314227        73.26809
2012    13      7       0.2987015       70.47243
2012    14      0       0.2857474       68.13898
2012    14      1       0.2928702       69.62615
2012    14      2       0.3056912       71.97929
2012    14      3       0.3439063       78.5251
2012    14      4       0.4076434       89.28324
2012    14      5       0.4202593       91.2887
2012    14      6       0.4170521       90.78123
2012    14      7       0.4218491       91.45869
2012    15      0       0.4112766       89.68318
2012    15      1       0.4189274       90.83218
2012    15      2       0.5053234       103.751
2012    15      3       0.5011892       103.6092
2012    15      4       0.509718        104.9146
2012    15      5       0.4577838       97.2911
2012    15      6       0.4412166       94.61139
2012    15      7       0.4947607       102.5637
2012    16      0       0.5143594       105.4232
2012    16      1       0.4763711       99.83262
2012    16      2       0.5199426       106.3139
2012    16      3       0.5043773       104.0798
2012    16      4       0.5073421       104.8663
2012    16      5       0.5532413       111.6489
2012    16      6       0.4909599       102.6745
2012    16      7       0.4105086       90.27934
2012    17      0       0.3393255       78.35848
2012    17      1       0.3767427       84.52612
2012    17      2       0.3767366       84.49208
2012    17      3       0.3176747       73.92509
2012    17      4       0.2683074       64.51172
2012    17      5       0.3246826       74.75082
2012    17      6       0.338999        77.29659
2012    17      7       0.312828        72.88687
2012    18      0       0.2809648       67.38324
2012    18      1       0.2994401       70.7481
2012    18      2       0.3130057       73.03203
2012    18      3       0.3639712       81.75866
2012    18      4       0.3671359       82.20187
2012    18      5       0.2948287       69.63931
2012    18      6       0.2343392       58.18385
2012    18      7       0.2146073       54.07179
2012    19      0       0.2140931       53.78171
2012    19      1       0.1985729       50.69831
2012    19      2       0.2023399       51.39784
2012    19      3       0.1971429       50.24646
2012    19      4       0.2045611       51.61068
2012    19      5       0.2084733       52.44995
2012    19      6       0.1892158       48.52945
2012    19      7       0.2108039       52.61247
2012    20      0       0.2500147       60.1289
2012    20      1       0.2496794       60.07102
2012    20      2       0.2724462       64.34875
2012    20      3       0.3049904       70.47047
2012    20      4       0.3549705       79.47568
2012    20      5       0.4498521       95.25166
2012    20      6       0.492392        101.8968
2012    20      7       0.5161096       105.677
2012    21      0       0.462264        97.63871
2012    21      1       0.4295425       92.16605
2012    21      2       0.4371673       93.09379
2012    21      3       0.3898992       85.65418
2012    21      4       0.4333536       92.9054
2012    21      5       0.4950693       102.3869
2012    21      6       0.5075562       103.9388
2012    21      7       0.4384785       93.22373
2012    22      0       0.3750366       82.74954
2012    22      1       0.3512198       78.60703
2012    22      2       0.350314        78.46648
2012    22      3       0.2926706       68.54243
2012    22      4       0.3113518       71.8566
2012    22      5       0.3082989       71.47098
2012    22      6       0.2680921       64.30955
2012    22      7       0.2239817       55.90043
2012    23      0       0.1930954       49.83056
2012    23      1       0.1725654       45.70435
2012    23      2       0.1806952       47.15151
2012    23      3       0.1812272       47.07887
2012    23      4       0.1736526       45.45732
2012    23      5       0.1678957       44.25238
2012    23      6       0.1705885       44.85631
2012    23      7       0.1739098       45.58232
2012    24      0       0.1628752       43.43779
2012    24      1       0.1325692       37.09591
2012    24      2       0.1337776       37.37772
2012    24      3       0.1339945       37.0907
2012    24      4       0.1396813       38.12849
2012    24      5       0.1686603       44.43389
2012    24      6       0.1859652       48.28142
2012    24      7       0.1826257       47.66721
2012    25      0       0.1718787       45.55473
2012    25      1       0.1644274       44.05877
2012    25      2       0.2659266       63.73542
2012    25      3       0.3248739       74.49086
2012    25      4       0.344255        77.91247
2012    25      5       0.309116        71.90338
2012    25      6       0.3011794       70.72582
2012    25      7       0.2934704       69.50081
2012    26      0       0.2472169       60.82174
2012    26      1       0.271119        65.02811
2012    26      2       0.380296        84.31777
2012    26      3       0.4138404       89.76455
2012    26      4       0.4008571       87.82067
2012    26      5       0.462374        97.85554
2012    26      6       0.4368864       94.07758
2012    26      7       0.3723079       83.37779
2012    27      0       0.3588284       81.16508
2012    27      1       0.3743396       83.93866
2012    27      2       0.4444948       95.37886
2012    27      3       0.4741039       100.0281
2012    27      4       0.5231062       107.2203
2012    27      5       0.5851979       116.2134
2012    27      6       0.6125238       120.3836
2012    27      7       0.5845142       116.6557
2012    28      0       0.4959689       103.4798
2012    28      1       0.4609917       97.96419
2012    28      2       0.5892762       116.0829
2012    28      3       0.6077824       118.7863
2012    28      4       0.6044612       119.0348
2012    28      5       0.6417385       124.1053
2012    28      6       0.5550304       112.1999
2012    28      7       0.4291503       93.06095
2012    29      0       0.3445681       78.89461
2012    29      1       0.286017        68.40005
2012    29      2       0.3503323       79.82417
2012    29      3       0.2770722       66.76849
2012    29      4       0.2822796       67.545
2012    29      5       0.2958619       69.89306
2012    29      6       0.3068794       72.05613
2012    29      7       0.3388725       77.96178
2012    30      0       0.3656223       82.7043
2012    30      1       0.3547594       80.99056
2012    30      2       0.363001        82.55586
2012    30      3       0.3881208       86.67791
2012    30      4       0.375346        84.54634
2012    30      5       0.3574709       81.3894
2012    30      6       0.313968        73.72516
2012    30      7       0.2906733       69.51094
2012    31      0       0.2649179       64.65955
2012    31      1       0.2521769       62.16012
2012    31      2       0.2807314       67.3716
2012    31      3       0.3068166       71.99053
2012    31      4       0.3366921       77.29266
2012    31      5       0.339825        77.98035
2012    31      6       0.3148979       73.78556
2012    31      7       0.3102012       72.9796
2013    1       0       0.2698486       67.29442
2013    1       1       0.2173579       56.65396
2013    1       2       0.2103401       55.09798
2013    1       3       0.2072876       54.38553
2013    1       4       0.2255691       57.91629
2013    1       5       0.2529017       63.39931
2013    1       6       0.2838178       69.76184
2013    1       7       0.2459372       62.53659
2013    2       0       0.2132135       55.80729
2013    2       1       0.2056071       54.1358
2013    2       2       0.2037829       53.63488
2013    2       3       0.1994808       52.63861
2013    2       4       0.2062119       53.87775
2013    2       5       0.209319        54.58567
2013    2       6       0.2120999       55.4016
2013    2       7       0.201544        53.26941
2013    3       0       0.1754823       47.80231
2013    3       1       0.1520111       42.76007
2013    3       2       0.1507681       42.53612
2013    3       3       0.1431732       40.92817
2013    3       4       0.1378633       39.68439
2013    3       5       0.1276502       37.3725
2013    3       6       0.1449482       41.21224
2013    3       7       0.16316         45.36728
2013    4       0       0.1413295       40.52112
2013    4       1       0.1496943       42.29665
2013    4       2       0.1888273       50.79536
2013    4       3       0.2009259       53.46319
2013    4       4       0.2239798       58.26995
2013    4       5       0.258645        65.1045
2013    4       6       0.283128        69.77341
2013    4       7       0.2881497       70.91266
2013    5       0       0.2864496       70.62805
2013    5       1       0.2547766       64.328
2013    5       2       0.2538541       64.20165
2013    5       3       0.2497812       63.31704
2013    5       4       0.2485362       63.05835
2013    5       5       0.2553662       64.65539
2013    5       6       0.2467182       63.23739
2013    5       7       0.2253995       59.03942
2013    6       0       0.1927912       52.24637
2013    6       1       0.1750069       48.39346
2013    6       2       0.1531494       43.45345
2013    6       3       0.1435246       41.19666
2013    6       4       0.1447625       41.38822
2013    6       5       0.1441509       41.25102
2013    6       6       0.1291174       37.93386
2013    6       7       0.1150606       34.64172
2013    7       0       0.106071        32.45386
2013    7       1       0.1037093       31.71193
2013    7       2       0.1010561       31.30305
2013    7       3       0.09628812      30.20732
2013    7       4       0.09605912      30.28526
2013    7       5       0.1091565       33.36398
2013    7       6       0.09615889      30.38327
2013    7       7       0.09211568      29.40035
2013    8       0       0.09408944      29.85301
2013    8       1       0.08851626      28.43737
2013    8       2       0.1009509       31.40694
2013    8       3       0.1058852       32.63588
2013    8       4       0.1203919       35.95803
2013    8       5       0.1194928       35.82112
2013    8       6       0.1258293       37.31034
2013    8       7       0.1382746       40.09862
2013    9       0       0.1730858       47.82679
2013    9       1       0.1857178       50.61915
2013    9       2       0.183286        49.9754
2013    9       3       0.2003548       53.4516
2013    9       4       0.2041954       54.23686
2013    9       5       0.214866        56.53455
2013    9       6       0.2235543       58.28789
2013    9       7       0.312821        75.01274
2013    10      0       0.4301868       95.34825
2013    10      1       0.4420979       97.64282
2013    10      2       0.4135987       93.03126
2013    10      3       0.4180171       93.78444
2013    10      4       0.4586089       100.3895
2013    10      5       0.3996807       90.58143
2013    10      6       0.3104251       74.45144
2013    10      7       0.2687184       66.30098
2013    11      0       0.2748086       67.53705
2013    11      1       0.2413286       61.07264
2013    11      2       0.2728388       67.16764
2013    11      3       0.2850204       69.19576
2013    11      4       0.2613164       64.61286
2013    11      5       0.1709109       46.50486
2013    11      6       0.1711157       46.37998
2013    11      7       0.172971        46.64702
2013    12      0       0.1758392       47.10153
2013    12      1       0.1738414       46.73324
2013    12      2       0.1839398       48.82184
2013    12      3       0.1808667       48.05966
2013    12      4       0.180412        47.90357
2013    12      5       0.1693212       45.68065
2013    12      6       0.1842409       48.75144
2013    12      7       0.2247008       56.85513
2013    13      0       0.2592242       63.51733
2013    13      1       0.2518206       62.10988
2013    13      2       0.2687041       65.37752
2013    13      3       0.2666269       65.02552
2013    13      4       0.2884381       69.09189
2013    13      5       0.3018038       71.60762
2013    13      6       0.3369062       77.86152
2013    13      7       0.3657454       83.11023
2013    14      0       0.3983333       88.76186
2013    14      1       0.4319129       94.19715
2013    14      2       0.5323419       109.1575
2013    14      3       0.4467166       96.69
2013    14      4       0.3471166       80.16496
2013    14      5       0.2987957       71.38457
2013    14      6       0.2407143       60.61205
2013    14      7       0.1889206       50.1798
2013    15      0       0.1535159       42.5674
2013    15      1       0.1163382       34.20968
2013    15      2       0.1281618       36.92912
2013    15      3       0.1338264       37.96016
2013    15      4       0.1760349       46.58313
2013    15      5       0.2281708       57.35222
2013    15      6       0.2859233       68.19589
2013    15      7       0.2646868       64.01189
2013    16      0       0.3083742       71.84873
2013    16      1       0.3258481       75.11999
2013    16      2       0.362371        81.70526
2013    16      3       0.5145685       105.9315
2013    16      4       0.5551815       112.1825
2013    16      5       0.4841207       102.0089
2013    16      6       0.4989301       104.0893
2013    16      7       0.6624522       126.5993
2013    17      0       0.7031264       131.6321
2013    17      1       0.6152257       119.9904
2013    17      2       0.5871516       115.9366
2013    17      3       0.6375177       122.3933
2013    17      4       0.5736797       114.1427
2013    17      5       0.4592405       97.77059
2013    17      6       0.3856407       86.08859
2013    17      7       0.282149        67.8696
2013    18      0       0.2265487       57.22333
2013    18      1       0.1850629       48.81336
2013    18      2       0.1848272       48.7186
2013    18      3       0.1744263       46.45746
2013    18      4       0.1640003       44.16057
2013    18      5       0.1593326       43.22407
2013    18      6       0.1577758       42.96082
2013    18      7       0.1561507       42.66058
2013    19      0       0.1556271       42.53787
2013    19      1       0.1584157       43.12973
2013    19      2       0.1574848       42.94026
2013    19      3       0.1519213       41.76532
2013    19      4       0.1532703       41.93028
2013    19      5       0.1548506       42.19077
2013    19      6       0.1538616       41.9841
2013    19      7       0.14849         40.82176
2013    20      0       0.1425692       39.54904
2013    20      1       0.1341226       37.72312
2013    20      2       0.1407747       39.16448
2013    20      3       0.1487889       40.85275
2013    20      4       0.152897        41.70096
2013    20      5       0.1488739       40.92874
2013    20      6       0.1473576       40.71444
2013    20      7       0.1367882       38.50945
2013    21      0       0.1251057       35.99546
2013    21      1       0.1208292       34.93689
2013    21      2       0.1200875       34.69587
2013    21      3       0.1221225       35.14348
2013    21      4       0.1215628       35.01017
2013    21      5       0.121479        34.99143
2013    21      6       0.1168618       33.93723
2013    21      7       0.1128          33.03597
2013    22      0       0.1244361       35.75808
2013    22      1       0.1155502       33.6779
2013    22      2       0.1117936       32.79003
2013    22      3       0.1145255       33.41121
2013    22      4       0.120881        34.82589
2013    22      5       0.1384193       38.58647
2013    22      6       0.1753          46.58744
2013    22      7       0.1732562       46.2884
2013    23      0       0.1978052       51.22207
2013    23      1       0.2234289       56.49735
2013    23      2       0.2674355       65.01116
2013    23      3       0.3787083       84.31788
2013    23      4       0.4894908       102.2437
2013    23      5       0.4775568       100.8055
2013    23      6       0.3716071       83.60757
2013    23      7       0.2761034       66.84212
2013    24      0       0.1989748       51.64652
2013    24      1       0.1731452       46.23545
2013    24      2       0.2320576       58.13715
2013    24      3       0.2323016       57.91549
2013    24      4       0.2432918       59.81171
2013    24      5       0.2120236       53.85134
2013    24      6       0.1511156       41.3738
2013    24      7       0.1243929       35.39206
2013    25      0       0.1128673       32.60537
2013    25      1       0.1254341       35.36541
2013    25      2       0.172122        45.31625
2013    25      3       0.1818786       47.4377
2013    25      4       0.1874142       48.50114
2013    25      5       0.1970581       50.39135
2013    25      6       0.256065        61.81364
2013    25      7       0.3609864       81.22216
2013    26      0       0.3207326       74.75488
2013    26      1       0.308654        72.50846
2013    26      2       0.3835904       85.15886
2013    26      3       0.407104        89.00894
2013    26      4       0.4205708       91.40674
2013    26      5       0.5478761       110.783
2013    26      6       0.5474381       110.5669
2013    26      7       0.3862989       86.00064
2013    27      0       0.514129        105.6204
2013    27      1       0.3477586       78.63038
2013    27      2       0.244931        59.97428
2013    27      3       0.2314609       57.09091
2013    27      4       0.2327755       57.16877
2013    27      5       0.1338325       37.3437
2013    27      6       0.1238218       35.01836
2013    27      7       0.1130192       32.65454
2013    28      0       0.1055688       30.97287
2013    28      1       0.1146925       32.75424
2013    28      2       0.1568215       41.61341
2013    28      3       0.1798747       46.5291
2013    28      4       0.1975773       50.19826
2013    28      5       0.2105803       52.80305
2013    28      6       0.2311823       56.93365
2013    28      7       0.252528        61.18453
2013    29      0       0.2562223       61.89588
2013    29      1       0.2598981       62.51365
2013    29      2       0.2681699       64.17815
2013    29      3       0.2831856       67.06878
2013    29      4       0.3152096       72.70845
2013    29      5       0.3235249       74.30726
2013    29      6       0.2747985       65.76521
2013    29      7       0.2329054       58.25755
2013    30      0       0.2711389       65.51747
2013    30      1       0.3329303       76.60236
2013    30      2       0.5152621       105.4307
2013    30      3       0.5187889       106.2297
2013    30      4       0.5210021       106.5794
2013    30      5       0.502601        103.977
2013    30      6       0.4947854       102.7181
2013    30      7       0.4679456       98.68545
2013    31      0       0.4472112       95.36529
2013    31      1       0.4195621       90.72806
2013    31      2       0.4407073       94.02678
2013    31      3       0.4141297       89.67788
2013    31      4       0.3771965       83.51381
2013    31      5       0.3221092       74.00515
2013    31      6       0.2745721       65.39831
2013    31      7       0.3127217       72.18586
2014    1       0       0.3016267       73.01255
2014    1       1       0.3086315       74.25464
2014    1       2       0.3356815       79.3106
2014    1       3       0.3681411       85.13379
2014    1       4       0.3666591       84.79791
2014    1       5       0.3632861       84.32241
2014    1       6       0.3432605       80.44199
2014    1       7       0.3016828       72.5504
2014    2       0       0.2255164       57.44526
2014    2       1       0.1938072       51.12972
2014    2       2       0.2030778       53.10339
2014    2       3       0.2155359       55.73392
2014    2       4       0.317111        75.23956
2014    2       5       0.3716101       85.22366
2014    2       6       0.353431        82.08574
2014    2       7       0.2616091       64.64452
2014    3       0       0.2557908       63.60054
2014    3       1       0.2641803       64.8924
2014    3       2       0.3067752       72.86146
2014    3       3       0.315393        74.30952
2014    3       4       0.3490474       80.42646
2014    3       5       0.3733811       84.72909
2014    3       6       0.3412217       78.93202
2014    3       7       0.3430981       79.44876
2014    4       0       0.3691426       83.99191
2014    4       1       0.4262251       94.07906
2014    4       2       0.469563        101.5074
2014    4       3       0.5708032       116.1732
2014    4       4       0.544609        112.3776
2014    4       5       0.3474571       81.02144
2014    4       6       0.3774706       86.25904
2014    4       7       0.3383067       79.19517
2014    5       0       0.335067        78.41843
2014    5       1       0.466013        100.1123
2014    5       2       0.4434424       96.76622
2014    5       3       0.4857371       103.3159
2014    5       4       0.4532843       98.16716
2014    5       5       0.3604496       82.99927
2014    5       6       0.1927131       51.05163
2014    5       7       0.1015028       31.01649
2014    6       0       0.09930579      30.4062
2014    6       1       0.1269394       36.72011
2014    6       2       0.1905758       50.32816
2014    6       3       0.2392931       60.03333
2014    6       4       0.358297        81.81418
2014    6       5       0.4182203       91.90093
2014    6       6       0.3969459       88.99648
2014    6       7       0.2941722       70.83607
2014    7       0       0.2799156       68.07778
2014    7       1       0.3145296       74.29199
2014    7       2       0.4916736       102.9484
2014    7       3       0.5713504       114.9457
2014    7       4       0.5538975       112.4957
2014    7       5       0.3796774       85.28194
2014    7       6       0.4505679       96.6688
2014    7       7       0.5028729       104.5625
2014    8       0       0.3848595       85.82824
2014    8       1       0.2919917       69.64319
2014    8       2       0.3504266       80.31333
2014    8       3       0.374832        84.08707
2014    8       4       0.3546141       80.50533
2014    8       5       0.3155075       73.68413
2014    8       6       0.3546264       80.6029
2014    8       7       0.3949491       87.44752
2014    9       0       0.3959293       87.56841
2014    9       1       0.4006827       88.06039
2014    9       2       0.412585        89.7378
2014    9       3       0.4121407       89.67809
2014    9       4       0.3845063       85.22409
2014    9       5       0.3651258       81.97841
2014    9       6       0.3378627       77.24334
2014    9       7       0.2821964       67.41926
2014    10      0       0.2485711       61.06137
2014    10      1       0.2575118       62.57711
2014    10      2       0.2766362       66.05166
2014    10      3       0.3048521       71.2026
2014    10      4       0.3043135       71.09403
2014    10      5       0.2378595       58.69373
2014    10      6       0.1811073       47.55644
2014    10      7       0.1466446       40.43351
2014    11      0       0.1584495       42.77564
2014    11      1       0.168132        44.65962
2014    11      2       0.1873569       48.43587
2014    11      3       0.2093594       52.70047
2014    11      4       0.2124125       53.29038
2014    11      5       0.2054211       52.03864
2014    11      6       0.2009833       51.25654
2014    11      7       0.2166095       54.38335
2014    12      0       0.2018212       51.58942
2014    12      1       0.1837618       47.77016
2014    12      2       0.2307946       56.7672
2014    12      3       0.2707528       64.45699
2014    12      4       0.3310915       75.54397
2014    12      5       0.3849446       84.82834
2014    12      6       0.4309853       92.40567
2014    12      7       0.4864113       101.1805
2014    13      0       0.4239094       91.51749
2014    13      1       0.3971523       87.3598
2014    13      2       0.3413963       78.27052
2014    13      3       0.4069121       88.87365
2014    13      4       0.5169796       105.7948
2014    13      5       0.5499862       111.0294
2014    13      6       0.52071         106.8592
2014    13      7       0.4920617       102.6169
2014    14      0       0.4426094       95.08383
2014    14      1       0.4446749       95.32387
2014    14      2       0.4487623       96.02029
2014    14      3       0.4653423       98.7245
2014    14      4       0.5199985       106.9022
2014    14      5       0.4655547       98.98389
2014    14      6       0.4699143       99.50197
2014    14      7       0.4851811       101.6522
2014    15      0       0.502753        104.3385
2014    15      1       0.5269111       108.1319
2014    15      2       0.6248298       121.7022
2014    15      3       0.565632        113.6375
2014    15      4       0.5892424       116.8697
2014    15      5       0.5454179       110.5519
2014    15      6       0.4311179       93.3374
2014    15      7       0.3823973       85.40552
2014    16      0       0.3736351       83.71895
2014    16      1       0.4118203       89.86744
2014    16      2       0.5079982       104.7126
2014    16      3       0.4903266       102.1248
2014    16      4       0.5146938       105.8052
2014    16      5       0.5259796       107.6486
2014    16      6       0.4748643       100.2089
2014    16      7       0.4399899       94.84515
2014    17      0       0.3606287       81.72595
2014    17      1       0.3432576       78.63253
2014    17      2       0.3335116       76.8526
2014    17      3       0.2810125       67.29773
2014    17      4       0.2683975       64.73317
2014    17      5       0.2595896       63.06886
2014    17      6       0.2630279       63.84167
2014    17      7       0.2529565       61.64931
2014    18      0       0.2998215       70.38807
2014    18      1       0.3459316       79.37958
2014    18      2       0.4413781       95.22585
2014    18      3       0.6007101       118.1159
2014    18      4       0.660963        126.8284
2014    18      5       0.6185072       121.9727
2014    18      6       0.5613815       114.3139
2014    18      7       0.7818634       142.0654
2014    19      0       0.7040131       133.0361
2014    19      1       0.7678222       140.4776
2014    19      2       0.5778149       116.3916
2014    19      3       0.5922715       118.0586
2014    19      4       0.6032945       119.1935
2014    19      5       0.479867        102.0173
2014    19      6       0.2928371       70.61596
2014    19      7       0.2866356       69.44474
2014    20      0       0.3231822       75.79299
2014    20      1       0.3585714       81.69683
2014    20      2       0.4470911       96.32631
2014    20      3       0.4557993       97.92319
2014    20      4       0.5113735       106.5903
2014    20      5       0.5218333       108.793
2014    20      6       0.4014764       89.88634
2014    20      7       0.319792        75.18081
2014    21      0       0.3130473       73.44226
2014    21      1       0.318542        74.11123
2014    21      2       0.3685383       83.62332
2014    21      3       0.4945962       104.2751
2014    21      4       0.6134287       121.0658
2014    21      5       0.4675538       100.563
2014    21      6       0.3297207       77.68585
2014    21      7       0.2515857       62.82257
2014    22      0       0.2559131       63.33288
2014    22      1       0.2322499       58.43066
2014    22      2       0.2847942       68.41515
2014    22      3       0.3028026       71.89778
2014    22      4       0.29947         71.53925
2014    22      5       0.3230781       76.34718
2014    22      6       0.3144933       74.55059
2014    22      7       0.3872079       87.26869
2014    23      0       0.4726356       101.2161
2014    23      1       0.482624        103.0434
2014    23      2       0.5219584       108.6209
2014    23      3       0.5520769       112.7468
2014    23      4       0.5957868       118.5798
2014    23      5       0.5687845       115.1216
2014    23      6       0.6252884       123.1543
2014    23      7       0.6301217       124.1957
2014    24      0       0.6810324       129.7222
2014    24      1       0.6118486       120.6315
2014    24      2       0.4936414       103.5652
2014    24      3       0.3604303       82.28726
2014    24      4       0.3179859       75.01592
2014    24      5       0.2653146       65.54064
2014    24      6       0.2105519       54.54844
2014    24      7       0.1410007       39.19098
2014    25      0       0.2780469       67.07732
2014    25      1       0.4367168       94.69372
2014    25      2       0.6464276       124.7091
2014    25      3       0.6009044       119.175
2014    25      4       0.5463968       111.6279
2014    25      5       0.4478054       97.02905
2014    25      6       0.3724435       84.75535
2014    25      7       0.3638719       83.30045
2014    26      0       0.4027606       89.39059
2014    26      1       0.4617315       98.72544
2014    26      2       0.5717668       114.4502
2014    26      3       0.531686        109.2991
2014    26      4       0.5052365       105.1588
2014    26      5       0.4027788       89.44142
2014    26      6       0.4064385       89.8552
2014    26      7       0.4444631       96.09621
2014    27      0       0.489941        103.1163
2014    27      1       0.4662682       99.5549
2014    27      2       0.5953265       117.3421
2014    27      3       0.5160049       106.3946
2014    27      4       0.4512296       96.28151
2014    27      5       0.3474274       78.99526
2014    27      6       0.4948413       102.9639
2014    27      7       0.4475217       95.87099
2014    28      0       0.4529806       96.00383
2014    28      1       0.4391484       93.91938
2014    28      2       0.3751573       83.41969
2014    28      3       0.3062902       71.53981
2014    28      4       0.3301992       75.58217
2014    28      5       0.3230478       74.28657
2014    28      6       0.3407849       77.4153
2014    28      7       0.3177389       73.39546
2014    29      0       0.3180837       73.31349
2014    29      1       0.3332112       75.81381
2014    29      2       0.3671199       81.71211
2014    29      3       0.3958006       86.6588
2014    29      4       0.3665115       81.80797
2014    29      5       0.3357905       76.41119
2014    29      6       0.3386503       76.82928
2014    29      7       0.278118        65.88405
2014    30      0       0.2817396       66.57745
2014    30      1       0.4129375       88.95482
2014    30      2       0.3967462       86.25094
2014    30      3       0.3340213       75.75673
2014    30      4       0.2577237       62.09511
2014    30      5       0.18737         48.63302
2014    30      6       0.154906        41.99712
2014    30      7       0.1426613       39.37901
2014    31      0       0.1246003       35.4404
2014    31      1       0.1151869       33.35778
2014    31      2       0.1278499       36.15166
2014    31      3       0.1381838       38.26618
2014    31      4       0.1506931       40.7722
2014    31      5       0.174024        45.54552
2014    31      6       0.222544        55.23794
2014    31      7       0.2789763       66.02121
2015    1       0       0.461363        99.32672
2015    1       1       0.4460949       96.7884
2015    1       2       0.3543164       82.00856
2015    1       3       0.335511        78.68274
2015    1       4       0.3602645       82.44528
2015    1       5       0.3483113       80.28699
2015    1       6       0.3389138       78.67412
2015    1       7       0.3708658       84.19822
2015    2       0       0.3635274       82.95625
2015    2       1       0.3339164       77.33425
2015    2       2       0.3912832       87.62318
2015    2       3       0.5308239       109.5405
2015    2       4       0.5668876       115.1289
2015    2       5       0.5392966       111.4539
2015    2       6       0.6170499       122.2003
2015    2       7       0.580332        117.1505
2015    3       0       0.4688773       100.7586
2015    3       1       0.5101634       106.6841
2015    3       2       0.5631515       114.1656
2015    3       3       0.5706061       115.3263
2015    3       4       0.6590106       127.1333
2015    3       5       0.6388512       125.1577
2015    3       6       0.5296603       110.4151
2015    3       7       0.458109        99.73105
2015    4       0       0.4323741       95.5461
2015    4       1       0.4214005       93.64554
2015    4       2       0.3975331       89.60473
2015    4       3       0.3657167       84.16952
2015    4       4       0.4009856       89.78773
2015    4       5       0.4005983       90.30029
2015    4       6       0.3858449       87.88892
2015    4       7       0.3692411       84.99324
2015    5       0       0.2439397       60.61855
2015    5       1       0.2755214       66.08874
2015    5       2       0.357167        81.35865
2015    5       3       0.3885111       87.08853
2015    5       4       0.4438578       96.07079
2015    5       5       0.4972672       104.4898
2015    5       6       0.4937037       104.3637
2015    5       7       0.5349127       110.8554
2015    6       0       0.5092771       106.9308
2015    6       1       0.4302307       94.54925
2015    6       2       0.4760187       101.7362
2015    6       3       0.5086774       106.5259
2015    6       4       0.5739322       115.9796
2015    6       5       0.6752501       129.6383
2015    6       6       0.5760268       116.6447
2015    6       7       0.5549424       113.6666
2015    7       0       0.5559136       113.8297
2015    7       1       0.5467237       112.5689
2015    7       2       0.5112701       107.4855
2015    7       3       0.4589128       99.39289
2015    7       4       0.444705        96.76763
2015    7       5       0.4609541       99.87056
2015    7       6       0.4224839       94.2301
2015    7       7       0.3687496       85.16306
2015    8       0       0.3472649       81.1397
2015    8       1       0.3242169       76.48743
2015    8       2       0.3395601       79.04547
2015    8       3       0.3399277       78.92335
2015    8       4       0.3438464       79.47951
2015    8       5       0.3619007       82.66945
2015    8       6       0.3996078       89.3791
2015    8       7       0.3846099       87.27777
2015    9       0       0.3435146       80.31455
2015    9       1       0.3221505       76.45863
2015    9       2       0.326213        77.1183
2015    9       3       0.330548        77.73516
2015    9       4       0.3352605       78.35398
2015    9       5       0.3248085       76.61334
2015    9       6       0.3111449       74.21205
2015    9       7       0.3122992       74.47479
2015    10      0       0.29054         70.21872
2015    10      1       0.2645185       65.20226
2015    10      2       0.2592864       64.30545
2015    10      3       0.2535759       63.25821
2015    10      4       0.2866457       69.20378
2015    10      5       0.3009317       71.79638
2015    10      6       0.2827866       68.82946
2015    10      7       0.2628369       65.30901
2015    11      0       0.2469266       62.15691
2015    11      1       0.2355061       59.79297
2015    11      2       0.2465359       62.14386
2015    11      3       0.2590745       64.6285
2015    11      4       0.2922623       70.81518
2015    11      5       0.3230575       76.51874
2015    11      6       0.4063159       91.19243
2015    11      7       0.3966512       89.92987
2015    12      0       0.3322867       78.16163
2015    12      1       0.3085536       73.50606
2015    12      2       0.3403606       79.30303
2015    12      3       0.3308324       77.54717
2015    12      4       0.2904934       70.33026
2015    12      5       0.2541687       63.17071
2015    12      6       0.2289875       57.91769
2015    12      7       0.2429506       60.58995
2015    13      0       0.1957696       51.44391
2015    13      1       0.1683578       45.67124
2015    13      2       0.1876644       49.86389
2015    13      3       0.2061072       53.59926
2015    13      4       0.1864299       49.52133
2015    13      5       0.1530799       42.30722
2015    13      6       0.1818362       48.0472
2015    13      7       0.2798097       67.05961
2015    14      0       0.3291348       76.56163
2015    14      1       0.3132483       73.85648
2015    14      2       0.3040091       72.21513
2015    14      3       0.3129475       73.76938
2015    14      4       0.3620669       82.32112
2015    14      5       0.3568271       81.09551
2015    14      6       0.3981628       88.4786
2015    14      7       0.3191867       74.75271
2015    15      0       0.2848819       68.45349
2015    15      1       0.2681194       65.27852
2015    15      2       0.3845289       86.02153
2015    15      3       0.4211881       92.19181
2015    15      4       0.4329301       94.04283
2015    15      5       0.4406048       95.39345
2015    15      6       0.3589439       81.53184
2015    15      7       0.3720804       83.89052
2015    16      0       0.3766703       84.73103
2015    16      1       0.3653783       82.94483
2015    16      2       0.3399582       78.6989
2015    16      3       0.4100679       90.28243
2015    16      4       0.4820692       102.1468
2015    16      5       0.6341791       123.5282
2015    16      6       0.7050474       132.8018
2015    16      7       0.3205386       75.48657
2015    17      0       0.3225411       76.19048
2015    17      1       0.2273175       58.09141
2015    17      2       0.2545407       63.36884
2015    17      3       0.2727388       66.62738
2015    17      4       0.3055159       72.41902
2015    17      5       0.2821713       68.37818
2015    17      6       0.2548443       62.95789
2015    17      7       0.3027496       71.88441
2015    18      0       0.317841        74.74114
2015    18      1       0.3535508       81.1469
2015    18      2       0.4321484       93.95935
2015    18      3       0.6032716       119.5889
2015    18      4       0.7083693       133.3273
2015    18      5       0.7894778       143.0211
2015    18      6       0.7148825       134.5993
2015    18      7       0.8805984       153.3732
2015    19      0       0.8492687       150.2914
2015    19      1       0.7801044       142.6159
2015    19      2       0.7654954       140.9069
2015    19      3       0.8045429       145.0466
2015    19      4       0.8052727       144.8226
2015    19      5       0.736288        136.3274
2015    19      6       0.6272412       121.5942
2015    19      7       0.4663909       98.14797
2015    20      0       0.2409722       59.18067
2015    20      1       0.1101575       32.40574
2015    20      2       0.09851602      29.83319
2015    20      3       0.1104138       32.36664
2015    20      4       0.1115048       32.67975
2015    20      5       0.1123013       32.89543
2015    20      6       0.1121312       32.85515
2015    20      7       0.1175791       34.00528
2015    21      0       0.1307342       36.87296
2015    21      1       0.1519907       41.37219
2015    21      2       0.19395         50.12473
2015    21      3       0.2160116       54.59926
2015    21      4       0.2635298       63.54986
2015    21      5       0.2754932       65.72387
2015    21      6       0.3000273       70.28823
2015    21      7       0.3277468       75.3182
2015    22      0       0.3418164       78.01477
2015    22      1       0.3236018       75.03194
2015    22      2       0.4282063       92.34748
2015    22      3       0.3965075       87.50386
2015    22      4       0.3887982       86.16122
2015    22      5       0.3680238       82.58651
2015    22      6       0.3480364       79.06249
2015    22      7       0.3480372       79.16773
2015    23      0       0.3477269       79.17995
2015    23      1       0.3839279       85.37896
2015    23      2       0.413676        89.73795
2015    23      3       0.4296367       92.39159
2015    23      4       0.418326        90.70495
2015    23      5       0.3845665       85.15112
2015    23      6       0.3055048       71.75773
2015    23      7       0.2756769       66.34023
2015    24      0       0.2185163       55.42127
2015    24      1       0.2161892       54.74894
2015    24      2       0.2361507       58.36601
2015    24      3       0.2649931       63.68599
2015    24      4       0.2576122       62.23552
2015    24      5       0.2705789       64.56397
2015    24      6       0.3436055       77.78792
2015    24      7       0.5603996       111.6248
2015    25      0       0.6423343       122.8776
2015    25      1       0.6375985       122.3525
2015    25      2       0.5917879       116.4052
2015    25      3       0.6112704       119.3235
2015    25      4       0.6995742       131.0595
2015    25      5       0.6780243       128.357
2015    25      6       0.5799668       115.331
2015    25      7       0.5169346       106.3791
2015    26      0       0.5176778       106.3235
2015    26      1       0.4303649       92.92457
2015    26      2       0.4898888       102.1318
2015    26      3       0.4813051       100.7117
2015    26      4       0.4553759       96.72064
2015    26      5       0.4554486       96.50897
2015    26      6       0.434267        93.21331
2015    26      7       0.484021        100.8526
2015    27      0       0.5246928       107.1155
2015    27      1       0.4630134       98.37575
2015    27      2       0.467925        98.99473
2015    27      3       0.3818276       85.2408
2015    27      4       0.3046087       71.96425
2015    27      5       0.2362909       59.32702
2015    27      6       0.1977753       51.68413
2015    27      7       0.1510544       41.80341
2015    28      0       0.1177024       34.14317
2015    28      1       0.1162514       33.61473
2015    28      2       0.1362683       38.10942
2015    28      3       0.1667703       44.17495
2015    28      4       0.2269218       56.39187
2015    28      5       0.2825667       68.17932
2015    28      6       0.3857814       86.97137
2015    28      7       0.4411797       96.23651
2015    29      0       0.4862416       103.5281
2015    29      1       0.4570216       99.0305
2015    29      2       0.4626168       99.40455
2015    29      3       0.5073176       106.1229
2015    29      4       0.478932        102.103
2015    29      5       0.4531266       98.21188
2015    29      6       0.4508991       97.6249
2015    29      7       0.438913        95.67622
2015    30      0       0.4287044       93.98319
2015    30      1       0.4232549       93.0465
2015    30      2       0.4204193       92.56072
2015    30      3       0.4391148       95.48578
2015    30      4       0.4963111       104.2767
2015    30      5       0.5290098       109.3991
2015    30      6       0.5025211       105.8159
2015    30      7       0.4291695       94.18621
2015    31      0       0.4459143       97.38865
2015    31      1       0.387103        87.51416
2015    31      2       0.359729        82.72338
2015    31      3       0.3842718       86.67641
2015    31      4       0.4300945       94.21133
2015    31      5       0.4126615       91.66654
2015    31      6       0.4290585       93.93784
2015    31      7       0.4699007       100.5298
2016    1       0       0.3937912       89.34536
2016    1       1       0.4275694       95.3527
2016    1       2       0.4681031       102.3268
2016    1       3       0.4874359       105.4368
2016    1       4       0.4805438       104.442
2016    1       5       0.5308515       112.2018
2016    1       6       0.5831694       120.1036
2016    1       7       0.5826798       120.1004
2016    2       0       0.5896777       120.7493
2016    2       1       0.6337389       126.3437
2016    2       2       0.7798382       143.8242
2016    2       3       0.6284982       124.815
2016    2       4       0.4650901       100.8966
2016    2       5       0.2085289       54.75942
2016    2       6       0.08478898      27.12634
2016    2       7       0.05982943      20.96286
2016    3       0       0.07218221      23.97044
2016    3       1       0.08449968      26.97238
2016    3       2       0.1111539       33.17107
2016    3       3       0.1100432       32.85664
2016    3       4       0.1099247       32.7072
2016    3       5       0.1050177       31.59505
2016    3       6       0.1048929       31.59844
2016    3       7       0.1002942       30.58679
2016    4       0       0.1049261       31.68192
2016    4       1       0.1069678       32.13877
2016    4       2       0.1172906       34.50029
2016    4       3       0.1200799       35.10883
2016    4       4       0.1167302       34.31933
2016    4       5       0.1202662       35.187
2016    4       6       0.1355272       38.7074
2016    4       7       0.1792609       47.72838
2016    5       0       0.2837108       68.18636
2016    5       1       0.2976643       71.10297
2016    5       2       0.254019        63.16545
2016    5       3       0.2713027       66.34592
2016    5       4       0.304294        72.17422
2016    5       5       0.3152911       74.05194
2016    5       6       0.3314163       76.97231
2016    5       7       0.3739769       84.24097
2016    6       0       0.4717546       99.96185
2016    6       1       0.5705238       114.5912
2016    6       2       0.5703125       115.001
2016    6       3       0.5774498       116.3629
2016    6       4       0.6785548       129.9266
2016    6       5       0.7091          134.0568
2016    6       6       0.7135779       134.3094
2016    6       7       0.4540626       98.16651
2016    7       0       0.2859921       69.40484
2016    7       1       0.3322049       77.54845
2016    7       2       0.4174507       91.69888
2016    7       3       0.4068714       90.00868
2016    7       4       0.4006958       88.90051
2016    7       5       0.3901434       87.43118
2016    7       6       0.3771426       85.51484
2016    7       7       0.3917542       87.73183
2016    8       0       0.3802997       85.79977
2016    8       1       0.4384466       95.12323
2016    8       2       0.3690318       83.84655
2016    8       3       0.3316734       77.31375
2016    8       4       0.3488988       80.20248
2016    8       5       0.4157611       91.65323
2016    8       6       0.4280924       93.76656
2016    8       7       0.4177002       92.26643
2016    9       0       0.3958052       88.73029
2016    9       1       0.4087705       90.6403
2016    9       2       0.3755049       84.92807
2016    9       3       0.3612286       82.30752
2016    9       4       0.4008129       88.87487
2016    9       5       0.3577355       81.79957
2016    9       6       0.3299332       76.78296
2016    9       7       0.316651        74.24712
2016    10      0       0.262216        64.27483
2016    10      1       0.214827        55.05852
2016    10      2       0.2207223       55.96766
2016    10      3       0.2237721       56.38896
2016    10      4       0.2187073       55.32865
2016    10      5       0.2273788       57.31534
2016    10      6       0.2358941       59.13853
2016    10      7       0.2240271       56.80794
2016    11      0       0.1987231       51.65695
2016    11      1       0.1748489       46.75392
2016    11      2       0.1556514       42.76878
2016    11      3       0.1488333       41.31193
2016    11      4       0.1493901       41.33876
2016    11      5       0.1400356       39.35608
2016    11      6       0.1347852       38.28671
2016    11      7       0.1501451       41.59522
2016    12      0       0.2000898       51.93536
2016    12      1       0.2556251       62.68341
2016    12      2       0.3080667       72.35124
2016    12      3       0.3519957       79.99171
2016    12      4       0.3469335       79.14281
2016    12      5       0.3082669       72.67011
2016    12      6       0.2657971       64.83017
2016    12      7       0.2424515       60.04082
2016    13      0       0.2293394       57.69811
2016    13      1       0.1837761       48.85118
2016    13      2       0.1896614       50.01214
2016    13      3       0.2216589       56.13199
2016    13      4       0.2090761       53.46604
2016    13      5       0.1859538       48.65712
2016    13      6       0.180294        47.50213
2016    13      7       0.1972332       51.03978
2016    14      0       0.2325362       57.88372
2016    14      1       0.2520426       61.83611
2016    14      2       0.2850308       68.08392
2016    14      3       0.3222631       74.81217
2016    14      4       0.3210405       74.72934
2016    14      5       0.2226444       56.44291
2016    14      6       0.1889485       49.69533
2016    14      7       0.1422421       39.80527
2016    15      0       0.121441        35.11328
2016    15      1       0.1173104       34.21988
2016    15      2       0.1525018       42.20495
2016    15      3       0.1745597       46.87742
2016    15      4       0.1951805       51.13488
2016    15      5       0.1903575       50.18242
2016    15      6       0.1955026       51.20879
2016    15      7       0.2255063       57.14642
2016    16      0       0.2564541       63.30433
2016    16      1       0.2256022       57.34096
2016    16      2       0.2178267       55.79565
2016    16      3       0.2416172       60.30819
2016    16      4       0.2610789       63.91155
2016    16      5       0.2659849       64.93099
2016    16      6       0.1948335       51.03311
2016    16      7       0.2418471       59.70368
2016    17      0       0.3468748       79.75947
2016    17      1       0.2655014       65.1456
2016    17      2       0.3424666       79.43085
2016    17      3       0.3164364       74.61612
2016    17      4       0.2974882       70.97687
2016    17      5       0.2158534       55.20234
2016    17      6       0.1834502       48.62428
2016    17      7       0.2081534       53.60199
2016    18      0       0.223352        56.48399
2016    18      1       0.2185351       55.54028
2016    18      2       0.325647        75.92112
2016    18      3       0.4215827       92.16665
2016    18      4       0.4170118       91.24738
2016    18      5       0.3166236       74.35152
2016    18      6       0.2830016       67.85145
2016    18      7       0.2998929       70.64635
2016    19      0       0.2693918       64.85701
2016    19      1       0.2944781       69.37495
2016    19      2       0.3522811       79.42039
2016    19      3       0.3479525       78.68518
2016    19      4       0.32929         75.44616
2016    19      5       0.2501378       61.10936
2016    19      6       0.1983001       50.85612
2016    19      7       0.1796488       46.95523
2016    20      0       0.2080265       52.62561
2016    20      1       0.2683437       64.33652
2016    20      2       0.3325593       75.91954
2016    20      3       0.3586626       80.3633
2016    20      4       0.382006        84.4318
2016    20      5       0.3628258       81.20131
2016    20      6       0.292251        68.61051
2016    20      7       0.2945449       69.10891
2016    21      0       0.3484436       78.77854
2016    21      1       0.3276709       75.30215
2016    21      2       0.2658563       64.19097
2016    21      3       0.300855        70.38095
2016    21      4       0.3047357       71.02024
2016    21      5       0.3176038       73.43657
2016    21      6       0.3831774       84.86296
2016    21      7       0.417133        90.573
2016    22      0       0.3782704       83.99922
2016    22      1       0.2957402       69.4197
2016    22      2       0.2746917       65.55093
2016    22      3       0.2516208       61.2798
2016    22      4       0.2447298       59.99007
2016    22      5       0.1839979       48.14717
2016    22      6       0.1594441       42.9229
2016    22      7       0.1533961       41.53029
2016    23      0       0.1380333       38.19699
2016    23      1       0.1309793       36.6696
2016    23      2       0.1644211       43.78893
2016    23      3       0.1963387       50.13709
2016    23      4       0.2277042       56.6392
2016    23      5       0.2021054       51.95755
2016    23      6       0.1840305       48.24491
2016    23      7       0.1973819       50.95318
2016    24      0       0.2048654       52.45094
2016    24      1       0.2218651       55.69455
2016    24      2       0.2654142       64.0307
2016    24      3       0.2293741       57.22159
2016    24      4       0.2001075       51.27599
2016    24      5       0.1630985       43.63472
2016    24      6       0.1547542       41.65413
2016    24      7       0.1765226       46.10078
2016    25      0       0.2038927       51.75972
2016    25      1       0.2164604       54.31476
2016    25      2       0.2448903       59.85709
2016    25      3       0.2402493       59.0033
2016    25      4       0.2474751       60.25255
2016    25      5       0.2452929       59.89691
2016    25      6       0.2400521       58.79062
2016    25      7       0.2496177       60.73079
2016    26      0       0.2417566       59.16673
2016    26      1       0.2578844       62.11198
2016    26      2       0.3267351       74.58623
2016    26      3       0.3372614       76.29039
2016    26      4       0.2990499       69.37275
2016    26      5       0.2596696       62.35333
2016    26      6       0.218892        54.70252
2016    26      7       0.1432262       39.44881
2016    27      0       0.1037956       30.79611
2016    27      1       0.08363061      26.07949
2016    27      2       0.1216316       34.74908
2016    27      3       0.1246462       35.42697
2016    27      4       0.1456936       40.00469
2016    27      5       0.1726547       45.61331
2016    27      6       0.2329177       57.78597
2016    27      7       0.2528533       61.43177
2016    28      0       0.2976838       69.58408
2016    28      1       0.3082459       71.49887
2016    28      2       0.2715407       65.06368
2016    28      3       0.277391        66.1474
2016    28      4       0.2853033       67.45101
2016    28      5       0.2657333       64.02743
2016    28      6       0.2488179       60.79313
2016    28      7       0.2347323       58.05885
2016    29      0       0.2715412       64.8873
2016    29      1       0.2361565       58.1933
2016    29      2       0.2554918       61.84967
2016    29      3       0.27575         65.61815
2016    29      4       0.2674277       64.14742
2016    29      5       0.2332897       57.71756
2016    29      6       0.2048407       52.09618
2016    29      7       0.2286485       57.09543
2016    30      0       0.2545035       62.1274
2016    30      1       0.3124088       72.52831
2016    30      2       0.3142891       73.08261
2016    30      3       0.3177167       73.88097
2016    30      4       0.3222139       74.85149
2016    30      5       0.3686302       82.78696
2016    30      6       0.4121041       90.07618
2016    30      7       0.4433377       95.23172
2016    31      0       0.4246769       92.32832
2016    31      1       0.4277094       92.77956
2016    31      2       0.4696981       99.13239
2016    31      3       0.4541152       96.65961
2016    31      4       0.4464055       95.43063
2016    31      5       0.4461212       95.36123
2016    31      6       0.3595736       81.16491
2016    31      7       0.3204945       74.07942
2017    1       0       0.2618024       64.70127
2017    1       1       0.2261456       57.5778
2017    1       2       0.2653151       65.02473
2017    1       3       0.2663798       65.04051
2017    1       4       0.2447779       60.74092
2017    1       5       0.2286586       57.80162
2017    1       6       0.1990451       51.62473
2017    1       7       0.1932552       50.26472
2017    2       0       0.2272649       57.16998
2017    2       1       0.2463361       61.1262
2017    2       2       0.2397718       60.09817
2017    2       3       0.2629684       64.464
2017    2       4       0.3028784       71.95461
2017    2       5       0.3049849       72.62964
2017    2       6       0.26439         65.06344
2017    2       7       0.2760684       67.32954
2017    3       0       0.315702        75.05916
2017    3       1       0.3324879       78.30573
2017    3       2       0.3970461       89.40603
2017    3       3       0.462468        100.0792
2017    3       4       0.4520838       98.59851
2017    3       5       0.408151        91.65628
2017    3       6       0.4319443       95.49286
2017    3       7       0.6024934       120.9021
2017    4       0       0.5513712       113.9883
2017    4       1       0.6082857       121.757
2017    4       2       0.5584525       114.9148
2017    4       3       0.7264092       136.7893
2017    4       4       0.675646        130.6121
2017    4       5       0.4554515       99.32089
2017    4       6       0.5871572       118.6561
2017    4       7       0.7680454       141.7265
2017    5       0       0.7616393       141.1968
2017    5       1       0.8045804       145.5998
2017    5       2       0.6486516       126.5487
2017    5       3       0.6723042       129.7534
2017    5       4       0.6805588       131.1838
2017    5       5       0.6210292       123.3943
2017    5       6       0.5274619       110.4138
2017    5       7       0.3705731       84.99202
2017    6       0       0.4265555       94.29536
2017    6       1       0.6130898       122.2795
2017    6       2       0.7684207       141.785
2017    6       3       0.6523217       127.2271
2017    6       4       0.5929559       119.3439
2017    6       5       0.4685808       100.9874
2017    6       6       0.5071264       107.6103
2017    6       7       0.6830251       131.5384
2017    7       0       0.6566382       128.0026
2017    7       1       0.6045919       120.4694
2017    7       2       0.6005225       119.9145
2017    7       3       0.5987067       119.5626
2017    7       4       0.531177        109.6386
2017    7       5       0.3575776       82.23845
2017    7       6       0.2326217       58.96342
2017    7       7       0.1740576       46.82977
2017    8       0       0.1109697       32.98879
2017    8       1       0.09782558      29.99192
2017    8       2       0.1319194       37.79767
2017    8       3       0.1436225       40.28965
2017    8       4       0.14949         41.48254
2017    8       5       0.1367791       38.88335
2017    8       6       0.1123531       33.54904
2017    8       7       0.09621176      29.87919
2017    9       0       0.08466212      27.12192
2017    9       1       0.09063927      28.564
2017    9       2       0.114367        34.09867
2017    9       3       0.1203897       35.40403
2017    9       4       0.1333682       38.17117
2017    9       5       0.13611         38.77096
2017    9       6       0.1290749       37.25865
2017    9       7       0.1270481       36.7788
2017    10      0       0.1349411       38.45437
2017    10      1       0.1427886       40.14639
2017    10      2       0.1635145       44.59428
2017    10      3       0.1909665       50.23773
2017    10      4       0.2209197       56.2215
2017    10      5       0.2454018       61.01701
2017    10      6       0.2762047       66.8194
2017    10      7       0.2733816       66.33923
2017    11      0       0.2832684       68.1343
2017    11      1       0.2889144       69.15477
2017    11      2       0.3382545       78.06199
2017    11      3       0.4161316       91.13654
2017    11      4       0.5315637       109.1573
2017    11      5       0.5470627       111.5862
2017    11      6       0.4125239       91.53101
2017    11      7       0.3282981       77.11638
2017    12      0       0.2559709       63.65304
2017    12      1       0.2529798       62.95629
2017    12      2       0.2643242       64.81933
2017    12      3       0.2711274       65.87799
2017    12      4       0.2940863       70.07882
2017    12      5       0.3386456       78.13994
2017    12      6       0.3693125       83.57527
2017    12      7       0.3535236       80.83154
2017    13      0       0.3203963       74.90313
2017    13      1       0.3512183       79.97838
2017    13      2       0.3300788       76.40342
2017    13      3       0.3081137       72.36057
2017    13      4       0.3157097       73.67333
2017    13      5       0.3634755       82.0784
2017    13      6       0.3808932       85.18737
2017    13      7       0.3400827       78.23878
2017    14      0       0.285804        68.6241
2017    14      1       0.2945353       70.00668
2017    14      2       0.2969231       70.23648
2017    14      3       0.3019011       70.86212
2017    14      4       0.4421992       94.71951
2017    14      5       0.4277214       92.39657
2017    14      6       0.3551928       80.28885
2017    14      7       0.3368219       76.90605
2017    15      0       0.3417588       77.77546
2017    15      1       0.3662382       82.03004
2017    15      2       0.3754755       83.50175
2017    15      3       0.3402112       77.59654
2017    15      4       0.3060949       71.73344
2017    15      5       0.2797889       67.08888
2017    15      6       0.2314411       58.03567
2017    15      7       0.228453        57.72052
2017    16      0       0.2577651       63.47125
2017    16      1       0.2418501       60.22411
2017    16      2       0.2732925       66.21062
2017    16      3       0.3043603       71.95289
2017    16      4       0.3261861       75.76827
2017    16      5       0.278946        67.17924
2017    16      6       0.1956272       51.11434
2017    16      7       0.1522356       42.00312
2017    17      0       0.1412546       39.70349
2017    17      1       0.1313592       37.61978
2017    17      2       0.1512269       42.00726
2017    17      3       0.1988993       51.98201
2017    17      4       0.2366336       59.66476
2017    17      5       0.2668793       65.94247
2017    17      6       0.2332681       59.16744
2017    17      7       0.2549166       63.50619
2017    18      0       0.2666126       65.84768
2017    18      1       0.2435862       61.44089
2017    18      2       0.2584316       64.21898
2017    18      3       0.3056424       72.58863
2017    18      4       0.3232877       75.87092
2017    18      5       0.3324031       77.7948
2017    18      6       0.3460842       80.35501
2017    18      7       0.3714021       84.76929
2017    19      0       0.4191983       92.56452
2017    19      1       0.3679948       83.74737
2017    19      2       0.3298275       76.89369
2017    19      3       0.3295731       76.7251
2017    19      4       0.3184731       74.58059
2017    19      5       0.2554575       62.94176
2017    19      6       0.1759688       46.79658
2017    19      7       0.1385007       38.92855
2017    20      0       0.1276326       36.55228
2017    20      1       0.1392771       39.09991
2017    20      2       0.1942184       50.89869
2017    20      3       0.2421286       60.64251
2017    20      4       0.2696776       65.99459
2017    20      5       0.2552963       63.29218
2017    20      6       0.2046438       53.34693
2017    20      7       0.1703205       46.19845
2017    21      0       0.122062        35.38343
2017    21      1       0.1020378       30.74594
2017    21      2       0.1431801       40.13277
2017    21      3       0.1658375       44.95395
2017    21      4       0.2085085       53.91278
2017    21      5       0.2621526       64.51512
2017    21      6       0.3152133       74.25164
2017    21      7       0.3221096       75.4333
2017    22      0       0.3075404       72.69194
2017    22      1       0.3091794       72.74203
2017    22      2       0.3283108       75.92502
2017    22      3       0.3320417       76.62554
2017    22      4       0.3657365       82.50617
2017    22      5       0.3699405       83.20914
2017    22      6       0.3435266       78.64045
2017    22      7       0.3275784       75.73212
2017    23      0       0.3274982       75.56532
2017    23      1       0.3170258       73.60328
2017    23      2       0.3408348       77.63793
2017    23      3       0.3418638       77.8286
2017    23      4       0.3566998       80.49428
2017    23      5       0.3170253       73.46165
2017    23      6       0.270323        65.06679
2017    23      7       0.2532511       61.83138
2017    24      0       0.2432929       59.8567
2017    24      1       0.2559672       62.14539
2017    24      2       0.2674614       64.22064
2017    24      3       0.2474998       60.37455
2017    24      4       0.2032589       52.00825
2017    24      5       0.1818527       47.77178
2017    24      6       0.1550079       42.06243
2017    24      7       0.1465174       40.13561
2017    25      0       0.1187292       33.91857
2017    25      1       0.09884451      29.6289
2017    25      2       0.128686        36.3709
2017    25      3       0.1361128       38.01843
2017    25      4       0.1424526       39.35904
2017    25      5       0.1542649       41.81295
2017    25      6       0.1713464       45.34376
2017    25      7       0.1758255       46.16855
2017    26      0       0.1616494       43.42291
2017    26      1       0.1530537       41.75412
2017    26      2       0.1653654       44.36498
2017    26      3       0.1729827       45.92895
2017    26      4       0.1773703       46.8596
2017    26      5       0.1850654       48.33903
2017    26      6       0.18605         48.53366
2017    26      7       0.1833833       47.94166
2017    27      0       0.1752308       46.27575
2017    27      1       0.1698529       45.1494
2017    27      2       0.1779957       46.94994
2017    27      3       0.1761567       46.5829
2017    27      4       0.1867742       48.52233
2017    27      5       0.1933          49.84292
2017    27      6       0.1888584       48.66293
2017    27      7       0.2098016       52.98428
2017    28      0       0.2581351       62.63223
2017    28      1       0.3221887       74.30222
2017    28      2       0.3807596       84.22696
2017    28      3       0.3664985       81.94189
2017    28      4       0.3084024       72.09146
2017    28      5       0.2930933       69.53093
2017    28      6       0.2536053       62.48232
2017    28      7       0.2224686       56.48165
2017    29      0       0.1967994       51.23047
2017    29      1       0.1856489       48.77855
2017    29      2       0.2231522       56.41201
2017    29      3       0.227922        57.38701
2017    29      4       0.2982769       70.83899
2017    29      5       0.3040156       71.72845
2017    29      6       0.4166039       90.76336
2017    29      7       0.4745055       100.5489
2017    30      0       0.4169278       91.74207
2017    30      1       0.3747741       84.8049
2017    30      2       0.3650738       83.05806
2017    30      3       0.3857106       86.56683
2017    30      4       0.366995        83.48244
2017    30      5       0.3483681       80.34463
2017    30      6       0.335047        78.06172
2017    30      7       0.3136052       74.31831
2017    31      0       0.2781943       67.88272
2017    31      1       0.230434        58.55539
2017    31      2       0.2478581       61.63251
2017    31      3       0.2753999       66.274
2017    31      4       0.336015        77.21908
2017    31      5       0.3305226       76.45747
2017    31      6       0.3437966       79.1169
2017    31      7       0.3263838       76.30463
2018    1       0       0.3570015       82.7747
2018    1       1       0.3737102       85.31363
2018    1       2       0.3817836       86.53317
2018    1       3       0.4245468       93.44682
2018    1       4       0.5085669       106.3598
2018    1       5       0.585142        117.6344
2018    1       6       0.517145        108.0177
2018    1       7       0.4567943       98.91604
2018    2       0       0.4382344       95.94389
2018    2       1       0.4599604       99.07048
2018    2       2       0.4625111       99.29908
2018    2       3       0.4665532       99.63897
2018    2       4       0.5180164       107.402
2018    2       5       0.6340597       123.9097
2018    2       6       0.612538        121.3955
2018    2       7       0.5147766       107.498
2018    3       0       0.4519506       97.61821
2018    3       1       0.4096036       90.58872
2018    3       2       0.4648016       99.23096
2018    3       3       0.5415743       110.6132
2018    3       4       0.5983675       118.9242
2018    3       5       0.521259        108.1855
2018    3       6       0.4565318       98.41502
2018    3       7       0.4430998       96.13175
2018    4       0       0.4227508       92.73185
2018    4       1       0.4081315       90.18329
2018    4       2       0.4364991       94.66545
2018    4       3       0.4776956       101.1671
2018    4       4       0.5456526       111.3396
2018    4       5       0.508737        106.1909
2018    4       6       0.5085849       106.0504
2018    4       7       0.5541452       112.7199
2018    5       0       0.5572484       113.1591
2018    5       1       0.6016903       119.3246
2018    5       2       0.586428        116.9239
2018    5       3       0.6557693       126.4021
2018    5       4       0.7655123       140.0328
2018    5       5       0.7766452       141.3153
2018    5       6       0.6937391       131.4272
2018    5       7       0.6298935       123.2139
2018    6       0       0.6191554       121.7342
2018    6       1       0.6691556       127.9195
2018    6       2       0.6632961       126.9986
2018    6       3       0.6820516       129.4116
2018    6       4       0.7721329       140.1902
2018    6       5       0.7704858       140.1987
2018    6       6       0.6948248       131.1249
2018    6       7       0.5610827       113.5748
2018    7       0       0.4919769       103.3301
2018    7       1       0.5355444       109.4915
2018    7       2       0.5335198       109.1914
2018    7       3       0.5173345       106.6884
2018    7       4       0.5499026       111.7075
2018    7       5       0.5346964       109.9337
2018    7       6       0.4699848       100.4851
2018    7       7       0.3963112       88.6604
2018    8       0       0.3740972       84.66637
2018    8       1       0.398017        88.4934
2018    8       2       0.4967988       103.8787
2018    8       3       0.6403955       124.1597
2018    8       4       0.7534874       138.2955
2018    8       5       0.7290967       135.4798
2018    8       6       0.617105        121.647
2018    8       7       0.5830081       116.9379
2018    9       0       0.6577735       126.8081
2018    9       1       0.7007631       131.8364
2018    9       2       0.6511978       125.8056
2018    9       3       0.4696167       100.1771
2018    9       4       0.5001622       104.2515
2018    9       5       0.5091979       105.3322
2018    9       6       0.4147261       90.30132
2018    9       7       0.3348462       76.62044
2018    10      0       0.3124587       72.66976
2018    10      1       0.3171184       73.46335
2018    10      2       0.3520137       79.52122
2018    10      3       0.3571567       80.64556
2018    10      4       0.3872034       85.72359
2018    10      5       0.4123557       89.78031
2018    10      6       0.4660219       98.13525
2018    10      7       0.3829738       84.87706
2018    11      0       0.3022472       70.85156
2018    11      1       0.3287303       75.3747
2018    11      2       0.3895171       85.49792
2018    11      3       0.4037434       88.02347
2018    11      4       0.4044494       88.35941
2018    11      5       0.3430724       78.03258
2018    11      6       0.2332545       57.94033
2018    11      7       0.184201        48.17535
2018    12      0       0.1788303       46.89133
2018    12      1       0.239881        59.02741
2018    12      2       0.3523991       79.27267
2018    12      3       0.4114225       89.35158
2018    12      4       0.3269582       75.07406
2018    12      5       0.2269061       56.64189
2018    12      6       0.1729548       45.98957
2018    12      7       0.1842956       48.01015
2018    13      0       0.209403        53.06694
2018    13      1       0.1979283       50.76325
2018    13      2       0.2601024       62.61967
2018    13      3       0.3025074       70.59365
2018    13      4       0.3217402       74.0052
2018    13      5       0.3743476       83.27964
2018    13      6       0.4420101       94.24449
2018    13      7       0.361578        81.10456
2018    14      0       0.324038        74.62797
2018    14      1       0.3215796       74.18633
2018    14      2       0.3229453       74.2731
2018    14      3       0.2918848       68.85365
2018    14      4       0.2840174       67.5309
2018    14      5       0.2365807       58.67289
2018    14      6       0.2263698       56.55916
2018    14      7       0.2181773       54.86684
2018    15      0       0.2117171       53.57194
2018    15      1       0.2886142       68.31785
2018    15      2       0.3786775       83.82731
2018    15      3       0.420862        90.74628
2018    15      4       0.5042671       103.9601
2018    15      5       0.5197086       106.2779
2018    15      6       0.5569669       111.733
2018    15      7       0.4647892       97.99253
2018    16      0       0.4848124       100.9097
2018    16      1       0.5344644       108.3417
2018    16      2       0.5417009       109.5417
2018    16      3       0.5641483       112.8929
2018    16      4       0.5103103       104.7346
2018    16      5       0.3536403       78.91399
2018    16      6       0.288148        67.62035
2018    16      7       0.3542472       79.05824
2018    17      0       0.2908456       67.83931
2018    17      1       0.2475933       59.78779
2018    17      2       0.2043477       51.49981
2018    17      3       0.1797814       46.60299
2018    17      4       0.1625671       43.19226
2018    17      5       0.1452503       39.41521
2018    17      6       0.1500918       40.5286
2018    17      7       0.183936        47.53455
2018    18      0       0.2251225       55.73897
2018    18      1       0.2857526       67.34745
2018    18      2       0.2945768       69.0331
2018    18      3       0.3081787       71.54363
2018    18      4       0.2855724       67.55006
2018    18      5       0.211228        53.44856
2018    18      6       0.1889218       49.00185
2018    18      7       0.2099158       53.16008
2018    19      0       0.2619331       63.1111
2018    19      1       0.3051345       70.97337
2018    19      2       0.4055143       87.83728
2018    19      3       0.3765111       83.29646
2018    19      4       0.3387287       77.05318
2018    19      5       0.2517336       61.30323
2018    19      6       0.2272252       56.5002
2018    19      7       0.2226371       55.58653
2018    20      0       0.2331063       57.63681
2018    20      1       0.2333566       57.6909
2018    20      2       0.2590575       62.65528
2018    20      3       0.28357         67.3093
2018    20      4       0.3022614       70.66503
2018    20      5       0.3258771       74.80457
2018    20      6       0.316724        73.21928
2018    20      7       0.3044624       70.95287
2018    21      0       0.2841067       67.30653
2018    21      1       0.2587595       62.58278
2018    21      2       0.2845963       67.36421
2018    21      3       0.2843973       67.41042
2018    21      4       0.2791326       66.3487
2018    21      5       0.2633503       63.44844
2018    21      6       0.2348019       58.16397
2018    21      7       0.2092555       53.25061
2018    22      0       0.1892046       49.25999
2018    22      1       0.1682053       44.96587
2018    22      2       0.1645086       44.25383
2018    22      3       0.1727161       45.93484
2018    22      4       0.1743326       46.26529
2018    22      5       0.1751081       46.4366
2018    22      6       0.1824965       47.91807
2018    22      7       0.1771741       46.82412
2018    23      0       0.1395319       38.87147
2018    23      1       0.1241675       35.47818
2018    23      2       0.1525552       41.45973
2018    23      3       0.176183        46.27334
2018    23      4       0.2110479       53.20656
2018    23      5       0.2400866       58.86871
2018    23      6       0.2515983       60.98908
2018    23      7       0.2578444       62.03811
2018    24      0       0.268605        63.83925
2018    24      1       0.3028537       70.13101
2018    24      2       0.370777        82.00516
2018    24      3       0.3618381       80.78519
2018    24      4       0.3941968       86.30982
2018    24      5       0.4159741       90.0026
2018    24      6       0.3778669       83.85892
2018    24      7       0.2968918       69.91117
2018    25      0       0.2432503       59.75534
2018    25      1       0.2386713       58.75561
2018    25      2       0.3099707       71.91877
2018    25      3       0.3586101       80.43448
2018    25      4       0.4043001       88.25
2018    25      5       0.408346        89.12716
2018    25      6       0.3891694       86.13209
2018    25      7       0.3925464       86.86283
2018    26      0       0.3633072       82.02981
2018    26      1       0.3042177       71.4171
2018    26      2       0.4625292       97.48222
2018    26      3       0.515391        105.8427
2018    26      4       0.5794946       115.2201
2018    26      5       0.5749985       114.8176
2018    26      6       0.6518751       125.5203
2018    26      7       0.6124554       120.8698
2018    27      0       0.4486076       97.31394
2018    27      1       0.3521704       81.09864
2018    27      2       0.412657        91.28306
2018    27      3       0.4269121       93.44924
2018    27      4       0.49978         104.5527
2018    27      5       0.5413728       110.8374
2018    27      6       0.5542907       112.7405
2018    27      7       0.5215066       108.1877
2018    28      0       0.4675004       100.446
2018    28      1       0.4562938       98.63908
2018    28      2       0.509276        106.37
2018    28      3       0.5485204       111.9467
2018    28      4       0.4875939       103.7499
2018    28      5       0.5039035       106.4069
2018    28      6       0.5022767       106.1857
2018    28      7       0.4889378       103.971
2018    29      0       0.4920134       104.1
2018    29      1       0.5040028       105.811
2018    29      2       0.5700218       115.1516
2018    29      3       0.5621408       114.1852
2018    29      4       0.5741943       115.6025
2018    29      5       0.490959        103.7081
2018    29      6       0.441918        96.15997
2018    29      7       0.4265282       93.89162
2018    30      0       0.4197278       92.74703
2018    30      1       0.4135763       91.45312
2018    30      2       0.496131        104.1362
2018    30      3       0.5212621       107.8924
2018    30      4       0.5713904       115.3024
2018    30      5       0.5312795       109.5719
2018    30      6       0.5427046       111.3805
2018    30      7       0.5076732       106.2867
2018    31      0       0.5102577       106.2933
2018    31      1       0.5051499       105.7435
2018    31      2       0.7217203       134.5901
2018    31      3       0.6958685       131.1095
2018    31      4       0.6650781       127.5135
2018    31      5       0.5945799       118.4106
2018    31      6       0.6751465       129.0942
2018    31      7       0.7307944       135.5048
