####################################################################################################
# Month: 06Jun                                                                                     #
# Station: GAM                                                                                     #
# Frequency: 345 GHz                                                                               #
# Columns are: year    day     segment         tau     Tb (K)                                      #
####################################################################################################
2009    1       0       0.8805337       164.4702
2009    1       1       0.9321552       169.855
2009    1       2       1.018639        178.3758
2009    1       3       0.9970564       176.1082
2009    1       4       1.037039        180.5056
2009    1       5       0.9874339       176.183
2009    1       6       0.8346566       159.4012
2009    1       7       0.7119707       143.8287
2009    2       0       0.7165448       144.4515
2009    2       1       0.7323149       146.58
2009    2       2       0.7174116       144.2021
2009    2       3       0.6612296       136.489
2009    2       4       0.7340536       146.1297
2009    2       5       0.7654556       150.0803
2009    2       6       0.6672581       137.343
2009    2       7       0.6545137       135.8704
2009    3       0       0.6529506       135.7836
2009    3       1       0.7235229       145.6307
2009    3       2       0.7369562       147.293
2009    3       3       0.7314545       146.6755
2009    3       4       0.8315562       158.8846
2009    3       5       0.8267382       158.5091
2009    3       6       0.7648978       151.0574
2009    3       7       0.6703375       138.8621
2009    4       0       0.7178728       144.7952
2009    4       1       0.8295727       157.7796
2009    4       2       0.8915119       164.6537
2009    4       3       0.9227564       167.4603
2009    4       4       1.033311        178.369
2009    4       5       1.058326        180.7369
2009    4       6       1.044082        179.5952
2009    4       7       1.02705         178.4897
2009    5       0       1.036775        179.5814
2009    5       1       1.043187        180.6341
2009    5       2       1.058623        182.1538
2009    5       3       1.025406        179.0512
2009    5       4       1.009711        177.3175
2009    5       5       1.155654        189.939
2009    5       6       1.149577        189.1325
2009    5       7       1.053037        180.3517
2009    6       0       0.9288253       168.037
2009    6       1       0.8942222       164.0674
2009    6       2       0.8221525       155.9296
2009    6       3       0.7018973       141.487
2009    6       4       0.7044067       142.0801
2009    6       5       0.6969789       141.047
2009    6       6       0.7099088       142.4974
2009    6       7       0.7888317       151.9748
2009    7       0       0.8173861       155.2063
2009    7       1       0.8454347       158.348
2009    7       2       0.7763539       150.483
2009    7       3       0.7926885       152.5687
2009    7       4       0.9635857       171.875
2009    7       5       0.588068        125.1669
2009    7       6       0.5502728       119.1661
2009    7       7       0.6266949       130.0403
2009    8       0       0.6362644       131.263
2009    8       1       0.6816403       137.2528
2009    8       2       0.7560213       146.6558
2009    8       3       0.7365145       144.5077
2009    8       4       0.7317129       144.2143
2009    8       5       0.7858558       150.7938
2009    8       6       0.7385454       145.076
2009    8       7       0.6948241       139.5829
2009    9       0       0.7622214       147.9446
2009    9       1       0.8459772       157.5798
2009    9       2       1.094755        181.8616
2009    9       3       1.117582        184.0115
2009    9       4       1.356817        201.7166
2009    9       5       1.514103        211.4631
2009    9       6       1.3726          203.377
2009    9       7       1.02807         176.5893
2009    10      0       0.9378916       167.6978
2009    10      1       0.8445709       157.6397
2009    10      2       0.7276706       143.6622
2009    10      3       0.7957703       152.876
2009    10      4       0.9614576       170.9216
2009    10      5       1.02719         177.5729
2009    10      6       0.9692284       172.0747
2009    10      7       0.6519187       135.3626
2009    11      0       0.5205479       115.3623
2009    11      1       0.4457282       103.1764
2009    11      2       0.3686462       89.2903
2009    11      3       0.3398144       83.89185
2009    11      4       0.4349893       101.2433
2009    11      5       0.4943936       111.1045
2009    11      6       0.5009839       112.4801
2009    11      7       0.468738        107.4879
2009    12      0       0.4075725       96.73555
2009    12      1       0.3679668       89.64272
2009    12      2       0.3827121       92.26668
2009    12      3       0.4602113       105.8319
2009    12      4       0.679409        139.7385
2009    12      5       0.8731152       163.929
2009    12      6       0.935601        170.7546
2009    12      7       1.151853        190.7272
2009    13      0       1.51105         216.2064
2009    13      1       1.550098        218.7653
2009    13      2       1.337561        205.3869
2009    13      3       1.143471        190.8998
2009    13      4       0.9484423       172.1713
2009    13      5       0.7331071       147.4034
2009    13      6       0.6737107       139.348
2009    13      7       0.6491697       135.6549
2009    14      0       0.6790129       139.6937
2009    14      1       0.6871228       140.8709
2009    14      2       0.5805575       125.6401
2009    14      3       0.5898026       126.9984
2009    14      4       0.7448865       148.6818
2009    14      5       0.781584        153.5143
2009    14      6       0.7538489       150.0635
2009    14      7       0.8071063       156.5195
2009    15      0       0.8131258       156.9712
2009    15      1       0.7396301       147.6825
2009    15      2       0.9076022       167.6379
2009    15      3       1.434681        212.4759
2009    15      4       1.62878         224.2098
2009    15      5       1.752575        230.6123
2009    15      6       1.580723        222.0494
2009    15      7       1.418745        211.7784
2009    16      0       1.033742        179.9296
2009    16      1       0.7963686       153.1203
2009    16      2       0.7360409       144.7742
2009    16      3       0.6396289       131.5315
2009    16      4       0.6009341       125.7726
2009    16      5       0.5405033       116.2349
2009    16      6       0.4907027       108.0813
2009    16      7       0.5037953       110.2169
2009    17      0       0.5318255       115.1052
2009    17      1       0.6463869       132.555
2009    17      2       0.7671412       149.1054
2009    17      3       0.842117        158.6191
2009    17      4       0.910568        166.452
2009    17      5       0.8810197       163.2293
2009    17      6       0.9349658       169.4939
2009    17      7       1.239109        197.0711
2009    18      0       1.378442        207.1795
2009    18      1       1.274831        199.9716
2009    18      2       1.208841        194.6522
2009    18      3       1.378739        207.2839
2009    18      4       1.808752        231.2634
2009    18      5       2.495252        254.8055
2009    18      6       2.034948        240.5214
2009    18      7       2.043824        240.7376
2009    19      0       2.137633        243.8316
2009    19      1       2.287679        248.3307
2009    19      2       2.164811        244.4958
2009    19      3       2.054085        240.61
2009    19      4       2.094927        241.9
2009    19      5       2.10503         242.2086
2009    19      6       2.288671        247.484
2009    19      7       2.282855        247.09
2009    20      0       2.123797        241.9267
2009    20      1       1.925182        234.8437
2009    20      2       1.883662        233.0842
2009    20      3       1.959454        235.9131
2009    20      4       1.788342        229.2456
2009    20      5       2.048186        241.1827
2009    20      6       1.615231        221.4241
2009    20      7       1.600471        220.5434
2009    21      0       1.552321        217.7996
2009    21      1       1.541651        216.9449
2009    21      2       1.411195        208.8639
2009    21      3       1.287848        200.1822
2009    21      4       1.274498        199.3337
2009    21      5       1.12023         187.0363
2009    21      6       0.7683697       149.8387
2009    21      7       0.6255697       130.3174
2009    22      0       0.5244052       114.7768
2009    22      1       0.5443897       117.3968
2009    22      2       0.6097898       127.0633
2009    22      3       0.7160633       141.935
2009    22      4       0.9409188       168.2515
2009    22      5       1.034608        177.2314
2009    22      6       0.6000947       125.5991
2009    22      7       0.2071741       55.319
2009    23      0       0.143596        41.22012
2009    23      1       0.1526145       43.55417
2009    23      2       0.1701075       47.68137
2009    23      3       0.2102479       56.80212
2009    23      4       0.3467172       84.53002
2009    23      5       0.3981953       94.25538
2009    23      6       0.2510006       65.77831
2009    23      7       0.1766416       49.59493
2009    24      0       0.1655535       47.2789
2009    24      1       0.1835738       51.56018
2009    24      2       0.2046422       56.36557
2009    24      3       0.1811292       51.05508
2009    24      4       0.2311842       61.99294
2009    24      5       0.2395561       63.77629
2009    24      6       0.232623        62.24497
2009    24      7       0.223055        59.96053
2009    25      0       0.1991754       54.5421
2009    25      1       0.1877471       51.8739
2009    25      2       0.1919857       52.66356
2009    25      3       0.2029198       55.12305
2009    25      4       0.2527965       65.89689
2009    25      5       0.2536488       66.12858
2009    25      6       0.2523241       65.82404
2009    25      7       0.2351487       62.34279
2009    26      0       0.2557988       66.60318
2009    26      1       0.2545389       66.23711
2009    26      2       0.2646753       68.42829
2009    26      3       0.2514502       65.30939
2009    26      4       0.2907365       73.20957
2009    26      5       0.3029538       75.6337
2009    26      6       0.2684031       67.92231
2009    26      7       0.2200157       57.69858
2009    27      0       0.2133249       55.59982
2009    27      1       0.2093541       54.66293
2009    27      2       0.238926        60.83048
2009    27      3       0.2494047       63.10977
2009    27      4       0.3120879       75.98346
2009    27      5       0.3557797       84.46738
2009    27      6       0.3550417       84.59355
2009    27      7       0.3484889       83.4088
2009    28      0       0.3296247       79.90191
2009    28      1       0.3329921       80.99701
2009    28      2       0.3463311       83.89063
2009    28      3       0.3455155       84.15251
2009    28      4       0.3439009       84.19859
2009    28      5       0.4110978       96.82877
2009    28      6       0.4450774       102.4403
2009    28      7       0.4466608       102.2412
2009    29      0       0.4338096       99.70437
2009    29      1       0.4602774       103.7231
2009    29      2       0.4816112       107.3236
2009    29      3       0.5141252       112.2412
2009    29      4       0.5750313       122.1792
2009    29      5       0.6725314       135.8507
2009    29      6       0.7572741       146.6523
2009    29      7       0.7714763       148.5805
2009    30      0       0.7050975       140.5874
2009    30      1       0.6616825       135.1025
2009    30      2       0.63986         132.4224
2009    30      3       0.6314302       131.4701
2009    30      4       0.6676822       136.5077
2009    30      5       0.7140392       142.8861
2009    30      6       0.7982808       153.3502
2009    30      7       0.8289429       157.0983
2010    1       0       1.561784        219.4373
2010    1       1       1.582183        220.6544
2010    1       2       1.599139        221.2734
2010    1       3       1.434662        211.5344
2010    1       4       1.497807        215.4438
2010    1       5       1.513446        216.4139
2010    1       6       1.442478        211.6135
2010    1       7       1.350394        205.1606
2010    2       0       1.11131         186.7416
2010    2       1       0.8823014       164.4006
2010    2       2       0.8225638       157.1258
2010    2       3       0.8250197       156.6219
2010    2       4       0.9126816       166.125
2010    2       5       1.166541        189.9399
2010    2       6       1.147794        188.7096
2010    2       7       1.05246         180.4876
2010    3       0       1.006922        176.4368
2010    3       1       1.086454        183.9152
2010    3       2       0.9839649       174.3326
2010    3       3       0.7870114       153.1321
2010    3       4       0.7865867       153.1154
2010    3       5       0.7775031       152.0006
2010    3       6       0.7534919       148.805
2010    3       7       0.6835638       139.3724
2010    4       0       0.5883635       126.0893
2010    4       1       0.7024262       141.1353
2010    4       2       0.7487923       147.2004
2010    4       3       0.7852774       152.4665
2010    4       4       0.9076924       166.4474
2010    4       5       1.04069         179.4965
2010    4       6       0.9853709       174.767
2010    4       7       0.8905151       165.608
2010    5       0       0.8488227       161.7834
2010    5       1       0.8165375       157.5801
2010    5       2       0.7761271       152.2719
2010    5       3       0.845907        160.5488
2010    5       4       0.9131526       168.4939
2010    5       5       0.9750095       175.1133
2010    5       6       0.9826321       175.8832
2010    5       7       0.9043309       167.9721
2010    6       0       0.811308        158.5827
2010    6       1       0.7986558       157.1001
2010    6       2       0.7058372       144.0281
2010    6       3       0.6215915       132.0385
2010    6       4       0.7087757       144.5372
2010    6       5       0.8236798       158.8984
2010    6       6       0.8339304       159.8082
2010    6       7       0.7682825       151.8749
2010    7       0       0.6795707       140.2563
2010    7       1       0.6138157       131.0925
2010    7       2       0.5378036       119.7197
2010    7       3       0.5394205       119.9064
2010    7       4       0.5785206       126.7259
2010    7       5       0.6055787       129.9756
2010    7       6       0.4881561       112.0443
2010    7       7       0.5113477       115.1261
2010    8       0       0.3873824       93.52809
2010    8       1       0.3190922       80.46648
2010    8       2       0.3018928       76.69027
2010    8       3       0.3267386       81.73645
2010    8       4       0.3872239       93.40394
2010    8       5       0.3873431       93.4217
2010    8       6       0.3227707       80.77156
2010    8       7       0.3195206       79.59791
2010    9       0       0.3344245       81.47843
2010    9       1       0.4717262       104.9311
2010    9       2       0.6213221       127.4617
2010    9       3       0.7144932       140.6734
2010    9       4       0.7300178       142.7089
2010    9       5       0.6408836       131.4091
2010    9       6       0.5338039       114.4254
2010    9       7       0.5534666       117.5945
2010    10      0       0.590315        123.6532
2010    10      1       0.5714797       121.0417
2010    10      2       0.5449386       117.3198
2010    10      3       0.5473301       117.9516
2010    10      4       0.6525465       133.63
2010    10      5       0.6285137       130.759
2010    10      6       0.5062208       112.6555
2010    10      7       0.4332568       100.4063
2010    11      0       0.3820427       91.59573
2010    11      1       0.3723743       89.91742
2010    11      2       0.3448443       84.68742
2010    11      3       0.3530357       86.3552
2010    11      4       0.3878689       92.78631
2010    11      5       0.3232364       80.61352
2010    11      6       0.2064037       56.21211
2010    11      7       0.1605461       45.92623
2010    12      0       0.1319654       39.31166
2010    12      1       0.1441766       42.05236
2010    12      2       0.1409132       41.3376
2010    12      3       0.1739148       48.72346
2010    12      4       0.2223389       59.86721
2010    12      5       0.1957249       54.15489
2010    12      6       0.2282313       60.22813
2010    12      7       0.2396288       62.70416
2010    13      0       0.2571485       65.74064
2010    13      1       0.2318117       60.00034
2010    13      2       0.2280994       59.13541
2010    13      3       0.2260147       59.00676
2010    13      4       0.2483428       64.02212
2010    13      5       0.2898948       72.30731
2010    13      6       0.3112437       76.38338
2010    13      7       0.3073791       75.75401
2010    14      0       0.3204912       78.42349
2010    14      1       0.3933118       92.64727
2010    14      2       0.3469246       84.39507
2010    14      3       0.3594782       86.41022
2010    14      4       0.3839007       90.96259
2010    14      5       0.3542475       85.91743
2010    14      6       0.4904971       109.3524
2010    14      7       0.6771479       137.7983
2010    15      0       0.2984226       74.45174
2010    15      1       0.1379592       39.60394
2010    15      2       0.1358681       39.16415
2010    15      3       0.1520747       42.7367
2010    15      4       0.1718418       46.87528
2010    15      5       0.2056408       54.22466
2010    15      6       0.1945338       51.96296
2010    15      7       0.1865132       50.4098
2010    16      0       0.2054471       54.84614
2010    16      1       0.2527367       65.28715
2010    16      2       0.276303        70.40437
2010    16      3       0.2567025       66.10682
2010    16      4       0.2653923       67.65046
2010    16      5       0.333843        81.18956
2010    16      6       0.3305677       80.81952
2010    16      7       0.3315381       80.71021
2010    17      0       0.3742766       88.5739
2010    17      1       0.3976596       92.8456
2010    17      2       0.3920678       92.08771
2010    17      3       0.3673386       87.6988
2010    17      4       0.3466973       83.9662
2010    17      5       0.3894457       91.99099
2010    17      6       0.3678841       88.01754
2010    17      7       0.3258382       80.06863
2010    18      0       0.3185145       78.89511
2010    18      1       0.3009687       75.68413
2010    18      2       0.2838203       72.33915
2010    18      3       0.2751567       70.46462
2010    18      4       0.2874302       73.02756
2010    18      5       0.3507641       85.56433
2010    18      6       0.3714861       89.39383
2010    18      7       0.3113328       77.81596
2010    19      0       0.2931803       74.20686
2010    19      1       0.2738629       70.32427
2010    19      2       0.2487452       65.22347
2010    19      3       0.2268031       60.76308
2010    19      4       0.353357        86.49074
2010    19      5       0.4722542       107.1815
2010    19      6       0.4695049       106.7816
2010    19      7       0.4036189       95.58197
2010    20      0       0.3771061       91.11732
2010    20      1       0.3816947       90.9923
2010    20      2       0.3619611       86.62181
2010    20      3       0.3279718       80.26571
2010    20      4       0.450278        103.6122
2010    20      5       0.5198702       115.1779
2010    20      6       0.4952588       111.2815
2010    20      7       0.4310515       101.0906
2010    21      0       0.3594033       87.75733
2010    21      1       0.3075969       77.47487
2010    21      2       0.2851536       72.91828
2010    21      3       0.2791127       71.71068
2010    21      4       0.3759033       91.0451
2010    21      5       0.4912278       110.8123
2010    21      6       0.4726564       107.7484
2010    21      7       0.340094        83.98284
2010    22      0       0.2047339       55.92666
2010    22      1       0.2073466       56.49938
2010    22      2       0.1919101       53.11891
2010    22      3       0.1893195       52.72707
2010    22      4       0.2809545       72.34213
2010    22      5       0.2714469       70.37007
2010    22      6       0.256878        67.42239
2010    22      7       0.2537632       66.82761
2010    23      0       0.3074785       77.62143
2010    23      1       0.3048185       76.78708
2010    23      2       0.3094764       77.48581
2010    23      3       0.2924302       74.11496
2010    23      4       0.3393967       83.55941
2010    23      5       0.4178365       97.17075
2010    23      6       0.4700056       105.9458
2010    23      7       0.398926        94.13389
2010    24      0       0.3294491       81.76432
2010    24      1       0.3023589       76.73314
2010    24      2       0.2750039       71.05902
2010    24      3       0.2514371       66.18664
2010    24      4       0.2877854       73.94222
2010    24      5       0.2999168       76.51118
2010    24      6       0.327522        82.17517
2010    24      7       0.3401202       84.98425
2010    25      0       0.3042261       77.96452
2010    25      1       0.2962373       76.21539
2010    25      2       0.2706988       70.69997
2010    25      3       0.2070809       56.78055
2010    25      4       0.2503402       66.30019
2010    25      5       0.3174372       80.40656
2010    25      6       0.3353474       84.10705
2010    25      7       0.3090125       79.7771
2010    26      0       0.2328737       63.69118
2010    26      1       0.2078801       57.89371
2010    26      2       0.2261389       61.70206
2010    26      3       0.323339        82.19969
2010    26      4       0.4471694       105.462
2010    26      5       0.5485633       121.3855
2010    26      6       0.5782107       125.8397
2010    26      7       0.5447511       120.7555
2010    27      0       0.4879132       111.6752
2010    27      1       0.4873293       111.6162
2010    27      2       0.5230326       117.1394
2010    27      3       0.5727557       124.9707
2010    27      4       0.6798433       139.8736
2010    27      5       0.7844773       153.203
2010    27      6       0.7869892       153.3887
2010    27      7       0.7955943       154.5177
2010    28      0       0.7716757       151.5006
2010    28      1       0.8393989       159.3973
2010    28      2       0.9483646       171.4122
2010    28      3       0.9061246       167.1221
2010    28      4       0.8107906       156.6532
2010    28      5       0.8677239       163.1373
2010    28      6       0.8224221       157.5894
2010    28      7       0.7229296       145.2418
2010    29      0       0.6431418       134.3587
2010    29      1       0.5626371       122.554
2010    29      2       0.4652087       106.7016
2010    29      3       0.4175387       99.05133
2010    29      4       0.5068321       113.6983
2010    29      5       0.5398146       118.8532
2010    29      6       0.493705        111.3233
2010    29      7       0.4846182       110.088
2010    30      0       0.4957087       111.7797
2010    30      1       0.4749324       108.4096
2010    30      2       0.4482853       104.6549
2010    30      3       0.4366721       102.9889
2010    30      4       0.4913942       112.0715
2010    30      5       0.6561216       136.2527
2010    30      6       0.6903977       140.8616
2010    30      7       0.6560066       136.2977
2011    1       0       0.06641109      22.68227
2011    1       1       0.07018691      23.58387
2011    1       2       0.0816757       26.41756
2011    1       3       0.1000811       30.7567
2011    1       4       0.143484        41.17886
2011    1       5       0.2581075       66.93259
2011    1       6       0.2042169       55.21309
2011    1       7       0.1500021       42.59828
2011    2       0       0.1433334       41.23495
2011    2       1       0.1270856       37.44292
2011    2       2       0.1150425       34.54785
2011    2       3       0.103023        31.50574
2011    2       4       0.1457557       41.90027
2011    2       5       0.1694417       47.42796
2011    2       6       0.1489969       42.69226
2011    2       7       0.1248579       36.81808
2011    3       0       0.1234734       36.49863
2011    3       1       0.1299426       37.92568
2011    3       2       0.1261545       36.80271
2011    3       3       0.1285676       37.05622
2011    3       4       0.2125858       56.19802
2011    3       5       0.2845616       71.84502
2011    3       6       0.3004494       74.51512
2011    3       7       0.273753        69.11456
2011    4       0       0.2345058       61.03293
2011    4       1       0.23498         60.95014
2011    4       2       0.2493858       64.30399
2011    4       3       0.2679725       67.94613
2011    4       4       0.4521823       104.3919
2011    4       5       0.5548681       121.6125
2011    4       6       0.5110248       114.4239
2011    4       7       0.4034108       96.05345
2011    5       0       0.3735529       89.33447
2011    5       1       0.4153755       97.35849
2011    5       2       0.5504206       119.7734
2011    5       3       0.6780868       139.0449
2011    5       4       0.8274192       157.9593
2011    5       5       1.028014        179.4169
2011    5       6       1.074295        183.3413
2011    5       7       1.126721        188.1418
2011    6       0       1.241921        197.4273
2011    6       1       1.14751         189.6696
2011    6       2       1.010801        177.1471
2011    6       3       0.9746462       173.2379
2011    6       4       1.093387        184.1852
2011    6       5       1.092564        184.1054
2011    6       6       0.992367        174.5018
2011    6       7       0.6842056       137.8082
2011    7       0       0.4104818       94.64868
2011    7       1       0.1411612       40.92947
2011    7       2       0.1185217       35.63777
2011    7       3       0.1924194       52.03704
2011    7       4       0.8623131       155.6212
2011    7       5       1.149982        182.16
2011    7       6       0.6620025       132.1733
2011    7       7       0.2126058       56.70579
2011    8       0       0.2372064       62.00444
2011    8       1       0.3546125       85.56023
2011    8       2       0.3236201       79.71946
2011    8       3       0.2626999       67.78252
2011    8       4       0.4233635       98.18809
2011    8       5       0.463719        105.6003
2011    8       6       0.4275283       99.78402
2011    8       7       0.3510141       86.35495
2011    9       0       0.4284338       101.0235
2011    9       1       0.4597049       106.328
2011    9       2       0.5353974       118.6373
2011    9       3       0.5072423       113.5508
2011    9       4       0.5604173       121.5202
2011    9       5       0.6820826       139.3896
2011    9       6       0.6773573       139.0323
2011    9       7       0.5659171       122.6604
2011    10      0       0.4246996       98.7943
2011    10      1       0.3852786       91.4912
2011    10      2       0.3622708       87.14093
2011    10      3       0.3413871       83.11563
2011    10      4       0.3892238       92.91727
2011    10      5       0.3577688       87.77848
2011    10      6       0.3113453       78.40107
2011    10      7       0.4362679       100.9118
2011    11      0       0.6594488       136.423
2011    11      1       0.7216872       144.9734
2011    11      2       0.6707983       138.1809
2011    11      3       0.5823469       125.393
2011    11      4       0.6600606       136.6108
2011    11      5       0.6325836       132.8358
2011    11      6       0.5499126       120.4145
2011    11      7       0.4713209       107.4074
2011    12      0       0.5208015       115.3165
2011    12      1       0.5022145       112.2745
2011    12      2       0.422678        98.80649
2011    12      3       0.4171323       97.92086
2011    12      4       0.5492186       119.9462
2011    12      5       0.6922084       140.5306
2011    12      6       0.7652192       150.2929
2011    12      7       0.7906188       153.7733
2011    13      0       0.8292844       158.5341
2011    13      1       0.7809227       152.843
2011    13      2       0.7408215       147.5558
2011    13      3       0.7739269       151.4859
2011    13      4       0.8895486       164.8324
2011    13      5       0.9646397       172.7756
2011    13      6       0.9838263       174.4134
2011    13      7       0.996584        175.1492
2011    14      0       1.023357        177.348
2011    14      1       1.012971        176.4929
2011    14      2       0.9865917       173.9146
2011    14      3       0.9252124       167.7996
2011    14      4       1.010879        176.5767
2011    14      5       1.102676        185.1313
2011    14      6       1.697778        226.6442
2011    14      7       1.082475        183.7421
2011    15      0       1.053035        181.6468
2011    15      1       1.032021        180.0021
2011    15      2       1.034262        180.1869
2011    15      3       0.9853124       174.8058
2011    15      4       0.8665394       163.3665
2011    15      5       0.7645288       151.2513
2011    15      6       0.5116452       114.7408
2011    15      7       0.3205503       80.16396
2011    16      0       0.2633079       68.41094
2011    16      1       0.2080479       56.4549
2011    16      2       0.1836344       50.87452
2011    16      3       0.1982542       54.12422
2011    16      4       0.2893825       73.94074
2011    16      5       0.2857343       72.91886
2011    16      6       0.2399197       62.82936
2011    16      7       0.2268398       60.05589
2011    17      0       0.2496862       64.55457
2011    17      1       0.268685        68.68302
2011    17      2       0.2994568       75.02122
2011    17      3       0.3010632       75.14402
2011    17      4       0.513476        115.0409
2011    17      5       0.5945933       128.1582
2011    17      6       0.6293992       133.4498
2011    17      7       0.6734446       139.9015
2011    18      0       0.7015222       143.9716
2011    18      1       0.7136913       145.5302
2011    18      2       0.7583106       151.4617
2011    18      3       0.7365517       148.6669
2011    18      4       0.8035089       157.1052
2011    18      5       0.8975606       167.2277
2011    18      6       0.793375        154.9951
2011    18      7       0.6728947       139.2081
2011    19      0       0.6115071       130.2419
2011    19      1       0.5586523       122.21
2011    19      2       0.4967721       112.3182
2011    19      3       0.5207205       116.8371
2011    19      4       0.6473749       135.9842
2011    19      5       0.7351516       147.7275
2011    19      6       0.7237658       146.3441
2011    19      7       0.6888004       142.8368
2011    20      0       0.6725169       140.5912
2011    20      1       0.6857666       142.3446
2011    20      2       0.6930669       143.1499
2011    20      3       0.6559592       138.0208
2011    20      4       0.7001098       143.0234
2011    20      5       0.7665244       151.4968
2011    20      6       0.7524244       149.5991
2011    20      7       0.6770068       140.5502
2011    21      0       0.5544075       121.9818
2011    21      1       0.5208676       116.243
2011    21      2       0.5399212       119.0603
2011    21      3       0.5748155       123.9171
2011    21      4       0.6272221       131.4963
2011    21      5       0.6744861       138.3761
2011    21      6       0.7280663       145.3226
2011    21      7       0.7282536       145.6979
2011    22      0       0.7685221       150.5005
2011    22      1       0.7746017       151.0188
2011    22      2       0.7718734       150.4535
2011    22      3       0.7465615       147.4403
2011    22      4       0.8560906       160.5471
2011    22      5       0.9484342       170.1452
2011    22      6       0.9194492       167.149
2011    22      7       0.7657093       149.5481
2011    23      0       0.7331093       145.8939
2011    23      1       0.7549089       148.4424
2011    23      2       0.7879078       152.4459
2011    23      3       0.7665825       149.7515
2011    23      4       0.8323441       157.4925
2011    23      5       0.5717392       122.1068
2011    23      6       0.1161209       34.73891
2011    23      7       0.1182674       35.92763
2011    24      0       0.1232192       37.06111
2011    24      1       0.1167          35.42951
2011    24      2       0.1259536       37.65578
2011    24      3       0.1506128       43.47054
2011    24      4       0.1580136       45.34413
2011    24      5       0.137989        40.93242
2011    24      6       0.1284173       38.70831
2011    24      7       0.1310818       39.10637
2011    25      0       0.1407532       41.03444
2011    25      1       0.1490772       42.7316
2011    25      2       0.1649605       46.12392
2011    25      3       0.1770108       48.69753
2011    25      4       0.2261342       59.29878
2011    25      5       0.3258301       79.90995
2011    25      6       0.3676927       88.05871
2011    25      7       0.3369923       82.18039
2011    26      0       0.2883074       72.49472
2011    26      1       0.2737547       69.56697
2011    26      2       0.2595982       66.68472
2011    26      3       0.2423781       63.14108
2011    26      4       0.3164476       78.39628
2011    26      5       0.3330596       81.96316
2011    26      6       0.3039682       76.15932
2011    26      7       0.2475936       64.5173
2011    27      0       0.2218537       59.03218
2011    27      1       0.1878369       51.62006
2011    27      2       0.1594191       45.04835
2011    27      3       0.1566111       44.20161
2011    27      4       0.2112824       56.60927
2011    27      5       0.2498005       65.04796
2011    27      6       0.2267069       60.27197
2011    27      7       0.2080361       56.15744
2011    28      0       0.1961312       53.4379
2011    28      1       0.2044726       55.2496
2011    28      2       0.2190471       58.47696
2011    28      3       0.2216533       59.20214
2011    28      4       0.2972046       75.05877
2011    28      5       0.3276375       81.05294
2011    28      6       0.284253        72.39275
2011    28      7       0.2554842       66.26361
2011    29      0       0.2534761       65.8388
2011    29      1       0.3301548       81.49177
2011    29      2       0.232703        61.67154
2011    29      3       0.2254549       60.08232
2011    29      4       0.2801709       71.5943
2011    29      5       0.2779165       71.06658
2011    29      6       0.2240977       59.61131
2011    29      7       0.2265786       59.96936
2011    30      0       0.2410041       63.03886
2011    30      1       0.224919        59.71212
2011    30      2       0.2191286       58.49954
2011    30      3       0.2261969       60.17608
2011    30      4       0.2914661       73.94758
2011    30      5       0.3056048       76.9973
2011    30      6       0.2858355       72.99111
2011    30      7       0.2591514       67.39181
2012    1       0       0.9200292       166.1952
2012    1       1       0.9309663       167.3325
2012    1       2       0.8344552       156.7214
2012    1       3       0.6802561       137.363
2012    1       4       0.7049446       140.6049
2012    1       5       0.7660017       148.5818
2012    1       6       0.7570425       147.6352
2012    1       7       0.7167358       142.6909
2012    2       0       0.6549788       134.705
2012    2       1       0.5306122       116.7083
2012    2       2       0.3502745       85.64999
2012    2       3       0.2987396       75.92298
2012    2       4       0.4108162       97.76143
2012    2       5       0.460681        105.9833
2012    2       6       0.3910395       94.31934
2012    2       7       0.2775625       72.31199
2012    3       0       0.1892232       52.9511
2012    3       1       0.1857324       51.96496
2012    3       2       0.1708874       48.50988
2012    3       3       0.199873        55.11917
2012    3       4       0.3527052       87.27206
2012    3       5       0.3943454       95.00342
2012    3       6       0.4022153       96.34069
2012    3       7       0.3843745       93.0702
2012    4       0       0.3537956       86.97747
2012    4       1       0.279222        71.58736
2012    4       2       0.2267253       60.22775
2012    4       3       0.2494724       64.9011
2012    4       4       0.4079963       96.05518
2012    4       5       0.5103977       113.0622
2012    4       6       0.5440827       118.131
2012    4       7       0.5840982       124.046
2012    5       0       0.6060249       127.0966
2012    5       1       0.6156919       128.4134
2012    5       2       0.7070411       140.4111
2012    5       3       0.8821492       160.8203
2012    5       4       1.427234        206.3741
2012    5       5       1.643719        218.7561
2012    5       6       1.561553        214.9491
2012    5       7       1.495793        211.7648
2012    6       0       1.315467        200.5409
2012    6       1       0.9280248       167.4934
2012    6       2       0.6267601       130.871
2012    6       3       0.5388406       117.8152
2012    6       4       0.5489729       119.4288
2012    6       5       0.5761617       123.0742
2012    6       6       0.4919796       110.1723
2012    6       7       0.4146759       97.46389
2012    7       0       0.4018485       94.98397
2012    7       1       0.3937404       93.76156
2012    7       2       0.4283109       99.76712
2012    7       3       0.4936434       110.6181
2012    7       4       0.4982666       111.5437
2012    7       5       0.4218113       98.58356
2012    7       6       0.4086573       95.73395
2012    7       7       0.4321911       99.27613
2012    8       0       0.4794901       107.1397
2012    8       1       0.6802798       137.9996
2012    8       2       0.9420683       170.2597
2012    8       3       1.213183        195.041
2012    8       4       0.9895168       176.1035
2012    8       5       0.599291        128.6263
2012    8       6       0.19171         53.05768
2012    8       7       0.106331        32.96815
2012    9       0       0.1011884       31.48393
2012    9       1       0.1245409       36.30259
2012    9       2       0.1452636       41.26582
2012    9       3       0.1507648       42.71718
2012    9       4       0.2413076       62.95637
2012    9       5       0.3314354       81.17193
2012    9       6       0.2902849       72.43015
2012    9       7       0.3153554       77.25245
2012    10      0       0.3584329       85.85409
2012    10      1       0.4213437       97.72934
2012    10      2       0.4282149       99.26624
2012    10      3       0.3914715       92.92403
2012    10      4       0.4290227       99.89613
2012    10      5       0.4795768       108.888
2012    10      6       0.4720845       107.9597
2012    10      7       0.3741306       90.61532
2012    11      0       0.2992887       76.10519
2012    11      1       0.273951        71.00351
2012    11      2       0.2360341       62.93429
2012    11      3       0.189553        52.66117
2012    11      4       0.1735433       48.91353
2012    11      5       0.1950733       53.74752
2012    11      6       0.1775075       49.56533
2012    11      7       0.1489155       42.72497
2012    12      0       0.1319411       38.56988
2012    12      1       0.1267388       37.32694
2012    12      2       0.119818        35.77428
2012    12      3       0.1085355       33.09854
2012    12      4       0.1438569       41.75142
2012    12      5       0.1981878       54.21259
2012    12      6       0.1945466       53.33723
2012    12      7       0.1872715       51.69235
2012    13      0       0.182257        50.52375
2012    13      1       0.1938088       53.12131
2012    13      2       0.2189488       58.41859
2012    13      3       0.2365209       62.00783
2012    13      4       0.2518632       65.56791
2012    13      5       0.2842082       72.40388
2012    13      6       0.2990167       75.13976
2012    13      7       0.2828275       71.67897
2012    14      0       0.2876753       72.59954
2012    14      1       0.3051861       75.98253
2012    14      2       0.3176669       78.70035
2012    14      3       0.331965        81.52665
2012    14      4       0.3569489       86.37552
2012    14      5       0.3968394       93.72744
2012    14      6       0.4284116       99.52186
2012    14      7       0.4932858       110.8181
2012    15      0       0.5226925       115.7138
2012    15      1       0.4934682       111.0294
2012    15      2       0.431901        100.7339
2012    15      3       0.4025907       95.59667
2012    15      4       0.4945132       111.2627
2012    15      5       0.5780433       124.2891
2012    15      6       0.5862184       125.348
2012    15      7       0.5674073       122.3562
2012    16      0       0.5352738       117.5232
2012    16      1       0.5344863       117.459
2012    16      2       0.5305885       116.7053
2012    16      3       0.5298931       116.6713
2012    16      4       0.6280601       131.2908
2012    16      5       0.6631076       136.0449
2012    16      6       0.6995973       141.0031
2012    16      7       0.752529        147.971
2012    17      0       0.7907555       152.535
2012    17      1       0.7288622       144.7745
2012    17      2       0.6124017       128.5396
2012    17      3       0.5284515       115.8261
2012    17      4       0.5101455       112.8678
2012    17      5       0.3809847       90.72923
2012    17      6       0.2748047       70.12758
2012    17      7       0.2232268       59.39735
2012    18      0       0.2347389       61.76956
2012    18      1       0.3021285       75.4545
2012    18      2       0.3729896       88.98673
2012    18      3       0.4387574       100.6205
2012    18      4       0.5704155       121.8952
2012    18      5       0.6659963       135.6611
2012    18      6       1.01201         175.7146
2012    18      7       1.286208        198.9355
2012    19      0       1.156667        188.4546
2012    19      1       1.33395         201.4249
2012    19      2       1.636855        218.9233
2012    19      3       1.86728         229.3709
2012    19      4       2.24569         242.79
2012    19      5       2.043453        236.5997
2012    19      6       1.574366        215.8093
2012    19      7       1.238782        194.0348
2012    20      0       1.044952        178.0808
2012    20      1       0.9855734       172.6708
2012    20      2       0.8159061       154.5183
2012    20      3       0.611522        128.1794
2012    20      4       0.6070661       127.538
2012    20      5       0.5028232       111.5453
2012    20      6       0.3567553       86.1449
2012    20      7       0.3436792       83.83002
2012    21      0       0.4196917       97.83085
2012    21      1       0.4193809       97.77235
2012    21      2       0.346119        84.43508
2012    21      3       0.3089892       77.02974
2012    21      4       0.3546845       85.6458
2012    21      5       0.3324296       81.57364
2012    21      6       0.3117558       77.27803
2012    21      7       0.294728        73.6153
2012    22      0       0.2745051       69.23878
2012    22      1       0.2399          62.02954
2012    22      2       0.20661         55.20279
2012    22      3       0.2116674       56.26224
2012    22      4       0.2265973       59.68268
2012    22      5       0.2272082       59.84069
2012    22      6       0.1726675       47.54626
2012    22      7       0.1517193       42.93313
2012    23      0       0.1610597       45.12258
2012    23      1       0.1634303       45.5933
2012    23      2       0.2230756       59.20895
2012    23      3       0.2261587       60.27577
2012    23      4       0.2409259       63.81919
2012    23      5       0.2666542       68.67893
2012    23      6       0.253888        65.20161
2012    23      7       0.2179755       58.1482
2012    24      0       0.3076715       76.46341
2012    24      1       0.4792948       107.1579
2012    24      2       0.5365435       116.2432
2012    24      3       0.4470191       102.1188
2012    24      4       0.4848533       108.7539
2012    24      5       0.4162644       97.55982
2012    24      6       0.339545        82.43196
2012    24      7       0.268227        68.13633
2012    25      0       0.2931853       72.52732
2012    25      1       0.392352        90.75999
2012    25      2       0.4708459       104.1138
2012    25      3       0.5702275       119.6182
2012    25      4       0.6798948       136.4503
2012    25      5       0.6196974       128.0816
2012    25      6       0.5732843       121.4302
2012    25      7       0.5555837       118.8063
2012    26      0       0.5252904       113.1121
2012    26      1       0.7039157       139.8104
2012    26      2       0.6588535       133.0951
2012    26      3       0.6586577       132.8981
2012    26      4       0.7765653       149.228
2012    26      5       0.7873926       150.9035
2012    26      6       0.7121927       141.7264
2012    26      7       0.6323734       130.9674
2012    27      0       0.5820892       123.3741
2012    27      1       0.5462423       118.0482
2012    27      2       0.5460088       118.1513
2012    27      3       0.5289936       115.7615
2012    27      4       0.5568114       120.4983
2012    27      5       0.6019409       127.4721
2012    27      6       0.6234535       130.5035
2012    27      7       0.6009078       127.3846
2012    28      0       0.5718932       123.2712
2012    28      1       0.5709034       123.1105
2012    28      2       0.5666114       122.6525
2012    28      3       0.5473533       119.9453
2012    28      4       0.5621773       122.3385
2012    28      5       0.6021423       128.5139
2012    28      6       0.5723616       124.2816
2012    28      7       0.5392593       119.2365
2012    29      0       0.4931796       111.7689
2012    29      1       0.4457714       103.6932
2012    29      2       0.4277055       100.5002
2012    29      3       0.4403281       102.7077
2012    29      4       0.4739596       108.3644
2012    29      5       0.5147677       115.0147
2012    29      6       0.4997968       112.5466
2012    29      7       0.4588877       105.6582
2012    30      0       0.4540993       104.7796
2012    30      1       0.4803288       108.9983
2012    30      2       0.4932437       111.0345
2012    30      3       0.521356        115.6656
2012    30      4       0.6167173       130.3978
2012    30      5       0.6801984       139.4973
2012    30      6       0.6929081       141.2462
2012    30      7       0.6451335       134.8069
2013    1       0       1.564343        219.8789
2013    1       1       1.300653        202.0369
2013    1       2       1.135578        189.3744
2013    1       3       1.013669        178.8457
2013    1       4       0.9233397       169.6487
2013    1       5       0.7540996       149.663
2013    1       6       0.6195592       130.872
2013    1       7       0.5553319       121.2271
2013    2       0       0.4771042       108.5326
2013    2       1       0.3460416       84.91252
2013    2       2       0.2442282       64.22064
2013    2       3       0.1681941       47.4025
2013    2       4       0.1384565       40.47124
2013    2       5       0.1315058       38.74071
2013    2       6       0.1449807       41.93807
2013    2       7       0.166282        46.68436
2013    3       0       0.2131069       56.83618
2013    3       1       0.2790727       70.56125
2013    3       2       0.3301854       81.03878
2013    3       3       0.4393217       101.2564
2013    3       4       0.5356587       117.3025
2013    3       5       0.5684767       122.5806
2013    3       6       0.6160714       129.5895
2013    3       7       0.6645514       136.2951
2013    4       0       0.8044046       154.3832
2013    4       1       0.9297249       168.641
2013    4       2       0.9652377       172.4232
2013    4       3       1.001965        176.2515
2013    4       4       1.05153         180.9436
2013    4       5       1.119737        187.0207
2013    4       6       1.22732         195.6428
2013    4       7       1.455721        211.5873
2013    5       0       1.806257        231.2805
2013    5       1       1.701971        225.0801
2013    5       2       1.786061        229.031
2013    5       3       1.854844        232.1753
2013    5       4       1.821985        229.901
2013    5       5       1.750531        226.1906
2013    5       6       1.657071        221.6239
2013    5       7       1.453319        210.1841
2013    6       0       1.177282        190.9
2013    6       1       0.9404056       169.4171
2013    6       2       0.7342097       145.6904
2013    6       3       0.4927583       110.6101
2013    6       4       0.4291223       99.82575
2013    6       5       0.5097695       113.4447
2013    6       6       0.5715633       123.0195
2013    6       7       0.5925708       125.8392
2013    7       0       0.7388192       145.4421
2013    7       1       0.9649008       171.6929
2013    7       2       0.7153945       142.2571
2013    7       3       0.7874095       151.2332
2013    7       4       0.9273169       167.1553
2013    7       5       0.9145387       166.0677
2013    7       6       0.9516843       170.0227
2013    7       7       0.9795501       172.9937
2013    8       0       0.9731758       172.7028
2013    8       1       0.9616316       171.8768
2013    8       2       1.469322        213.9216
2013    8       3       0.9448876       170.2947
2013    8       4       0.9219802       168.2262
2013    8       5       0.8858819       164.6174
2013    8       6       0.7008744       142.337
2013    8       7       0.5708128       123.6911
2013    9       0       0.472274        107.7573
2013    9       1       0.3534523       86.49824
2013    9       2       0.2777152       71.49764
2013    9       3       0.2109553       57.35529
2013    9       4       0.2498929       66.08375
2013    9       5       0.2342488       62.80032
2013    9       6       0.1142169       34.86932
2013    9       7       0.117539        35.59891
2013    10      0       0.1042547       32.3677
2013    10      1       0.09492085      29.96394
2013    10      2       0.09609967      30.01061
2013    10      3       0.1008919       31.03952
2013    10      4       0.1188218       35.42405
2013    10      5       0.1376599       39.88891
2013    10      6       0.1247943       36.78535
2013    10      7       0.121514        35.9344
2013    11      0       0.1164208       34.68044
2013    11      1       0.1073151       32.51692
2013    11      2       0.1124478       33.77183
2013    11      3       0.1237551       36.57648
2013    11      4       0.2053481       56.24707
2013    11      5       0.2203252       59.49199
2013    11      6       0.2413289       63.85861
2013    11      7       0.2451479       64.87732
2013    12      0       0.2614325       68.40157
2013    12      1       0.3181607       80.02961
2013    12      2       0.3966327       95.01739
2013    12      3       0.4212845       99.27825
2013    12      4       0.4077915       96.38738
2013    12      5       0.4315127       100.4836
2013    12      6       0.393807        93.82214
2013    12      7       0.3823247       91.62541
2013    13      0       0.3877355       92.44229
2013    13      1       0.3694531       88.84521
2013    13      2       0.3503102       85.36838
2013    13      3       0.4387886       101.9024
2013    13      4       0.5171382       114.9669
2013    13      5       0.5297293       117.0998
2013    13      6       0.4919404       110.9221
2013    13      7       0.4750873       107.8747
2013    14      0       0.4792964       108.5047
2013    14      1       0.465693        106.2454
2013    14      2       0.4457114       102.7345
2013    14      3       0.4372745       101.2342
2013    14      4       0.4643152       106.0056
2013    14      5       0.4416801       102.27
2013    14      6       0.4283821       100.0719
2013    14      7       0.4370552       101.6395
2013    15      0       0.4479017       103.6302
2013    15      1       0.4531526       104.6387
2013    15      2       0.4687069       107.2994
2013    15      3       0.4833742       109.6847
2013    15      4       0.5354374       117.9417
2013    15      5       0.655229        135.4954
2013    15      6       0.6965472       141.1427
2013    15      7       0.6511261       135.2407
2013    16      0       0.6221587       131.0421
2013    16      1       0.5940669       126.8049
2013    16      2       0.5946869       126.8031
2013    16      3       0.6214076       130.3927
2013    16      4       0.6488462       133.9183
2013    16      5       0.6535912       134.6493
2013    16      6       0.6181812       129.7053
2013    16      7       0.5628007       121.441
2013    17      0       0.53799         117.9046
2013    17      1       0.5275257       116.3928
2013    17      2       0.4655206       106.049
2013    17      3       0.4887906       109.6604
2013    17      4       0.5845906       124.9241
2013    17      5       0.6989514       141.4256
2013    17      6       0.7108586       143.4866
2013    17      7       0.6995993       141.8474
2013    18      0       0.7014035       141.6491
2013    18      1       0.7332481       145.8052
2013    18      2       0.7127275       143.6586
2013    18      3       0.7087952       143.4414
2013    18      4       0.6986988       142.548
2013    18      5       0.6921006       141.8247
2013    18      6       0.708548        143.8885
2013    18      7       0.6934537       141.8762
2013    19      0       0.6754798       139.5587
2013    19      1       0.6529581       136.4173
2013    19      2       0.6341174       134.5166
2013    19      3       0.6883797       142.2311
2013    19      4       0.7382152       147.7619
2013    19      5       0.8038378       155.8029
2013    19      6       0.8013673       155.447
2013    19      7       0.7453524       148.6147
2013    20      0       0.7233348       145.8522
2013    20      1       0.7408627       148.4143
2013    20      2       0.8047684       156.5698
2013    20      3       0.800971        157.7165
2013    20      4       0.7244367       146.2666
2013    20      5       0.7339811       147.1542
2013    20      6       0.6651962       137.7477
2013    20      7       0.5648826       123.1946
2013    21      0       0.5251733       116.9131
2013    21      1       0.5274053       117.337
2013    21      2       0.5430812       120.0128
2013    21      3       0.5676495       123.7721
2013    21      4       0.5893729       126.9164
2013    21      5       0.6160323       130.7023
2013    21      6       0.5601444       122.4253
2013    21      7       0.469323        107.9386
2013    22      0       0.4387584       102.6621
2013    22      1       0.4425193       103.1985
2013    22      2       0.4687934       107.7954
2013    22      3       0.5148352       115.3452
2013    22      4       0.5733183       124.3629
2013    22      5       0.5671193       123.5325
2013    22      6       0.5453972       120.0265
2013    22      7       0.4973945       112.4995
2013    23      0       0.4886773       111.2691
2013    23      1       0.5079014       114.7287
2013    23      2       0.5372697       119.4278
2013    23      3       0.5445248       120.5124
2013    23      4       0.5150525       115.8003
2013    23      5       0.5543          121.8242
2013    23      6       0.5556167       122.0371
2013    23      7       0.6307358       133.0127
2013    24      0       0.699775        142.5188
2013    24      1       0.7678386       151.5338
2013    24      2       0.7372071       147.939
2013    24      3       0.6719788       139.3312
2013    24      4       0.6151792       131.2336
2013    24      5       0.702385        143.3823
2013    24      6       0.6366307       134.3533
2013    24      7       0.6549834       136.998
2013    25      0       0.7356677       147.9922
2013    25      1       0.7872235       154.6285
2013    25      2       0.7639353       151.5601
2013    25      3       0.6982772       142.8796
2013    25      4       0.6583396       137.4674
2013    25      5       0.6662246       138.407
2013    25      6       0.5897585       126.4504
2013    25      7       0.5852137       126.0625
2013    26      0       0.5745627       124.3937
2013    26      1       0.511149        113.738
2013    26      2       0.4900046       109.4748
2013    26      3       0.619679        129.0084
2013    26      4       0.7671793       148.9725
2013    26      5       0.776555        149.8596
2013    26      6       0.697246        139.1461
2013    26      7       0.7911116       151.3503
2013    27      0       0.7730005       148.4725
2013    27      1       0.677719        136.0674
2013    27      2       0.7452347       145.9634
2013    27      3       0.7943995       152.3983
2013    27      4       0.7763469       150.569
2013    27      5       0.7429161       146.6972
2013    27      6       0.7399929       146.3476
2013    27      7       0.6890392       139.5963
2013    28      0       0.6026703       127.5978
2013    28      1       0.5447396       119.1096
2013    28      2       0.5328708       117.6006
2013    28      3       0.5224709       115.7441
2013    28      4       0.609778        128.5186
2013    28      5       0.6631935       136.0105
2013    28      6       0.6279318       131.196
2013    28      7       0.6512451       134.5988
2013    29      0       0.7682936       149.9623
2013    29      1       1.361333        207.6541
2013    29      2       0.8561282       160.28
2013    29      3       0.8217543       156.3627
2013    29      4       0.8330401       158.0984
2013    29      5       0.8090925       155.7588
2013    29      6       0.7789501       152.0325
2013    29      7       0.7709034       151.0085
2013    30      0       0.7871917       153.1914
2013    30      1       0.8168259       156.6846
2013    30      2       0.7432653       147.5087
2013    30      3       0.6397947       133.6219
2013    30      4       0.6501138       134.7273
2013    30      5       0.6403093       133.5296
2013    30      6       0.5995895       127.6739
2013    30      7       0.6219334       130.8397
2014    1       0       0.6729703       140.3239
2014    1       1       0.5722788       125.5624
2014    1       2       0.4891889       112.207
2014    1       3       0.5055629       115.2402
2014    1       4       0.5418507       120.5669
2014    1       5       0.6197435       132.1707
2014    1       6       0.5302818       118.6577
2014    1       7       0.4533964       105.8514
2014    2       0       0.4426249       104.1611
2014    2       1       0.4445117       104.4646
2014    2       2       0.4281995       101.7256
2014    2       3       0.4235895       101.0603
2014    2       4       0.454015        106.3434
2014    2       5       0.4713791       108.9501
2014    2       6       0.4140754       99.55291
2014    2       7       0.3911552       94.83027
2014    3       0       0.4147944       99.10721
2014    3       1       0.4375328       103.0518
2014    3       2       0.4385784       103.2197
2014    3       3       0.4320324       102.9431
2014    3       4       0.4688729       108.5551
2014    3       5       0.5322579       118.7277
2014    3       6       0.511339        115.4616
2014    3       7       0.523464        117.2848
2014    4       0       0.5281357       117.7284
2014    4       1       0.564462        123.2791
2014    4       2       0.66543         137.9318
2014    4       3       0.7057724       142.994
2014    4       4       0.7219276       144.7127
2014    4       5       0.6891014       140.3464
2014    4       6       0.6101979       129.4249
2014    4       7       0.3737306       90.3414
2014    5       0       0.1751666       49.58018
2014    5       1       0.1025593       32.22212
2014    5       2       0.09037136      29.0055
2014    5       3       0.09352504      29.84639
2014    5       4       0.1709696       48.57115
2014    5       5       0.1555319       45.05667
2014    5       6       0.1023951       32.11667
2014    5       7       0.08449663      27.50188
2014    6       0       0.1018153       31.63151
2014    6       1       0.1158013       34.92132
2014    6       2       0.1307964       38.46447
2014    6       3       0.1386836       40.50934
2014    6       4       0.1482528       42.90565
2014    6       5       0.1755204       49.32608
2014    6       6       0.182079        50.97722
2014    6       7       0.1692244       48.05851
2014    7       0       0.1687686       48.01114
2014    7       1       0.1750326       49.46079
2014    7       2       0.1778767       50.19143
2014    7       3       0.1827495       51.32616
2014    7       4       0.2106546       57.51941
2014    7       5       0.255056        67.1041
2014    7       6       0.2593017       67.91636
2014    7       7       0.2138876       58.11923
2014    8       0       0.1822422       50.91641
2014    8       1       0.1807882       50.60228
2014    8       2       0.184504        51.40461
2014    8       3       0.1754175       49.34348
2014    8       4       0.1840987       51.34176
2014    8       5       0.1839206       51.39282
2014    8       6       0.1819437       50.9187
2014    8       7       0.1966693       54.30157
2014    9       0       0.2373875       62.90276
2014    9       1       0.2823871       72.1605
2014    9       2       0.3396979       83.26216
2014    9       3       0.3659738       87.84551
2014    9       4       0.3796078       90.44553
2014    9       5       0.3801469       90.40262
2014    9       6       0.3539873       85.55742
2014    9       7       0.3976088       93.52292
2014    10      0       0.4263096       98.93012
2014    10      1       0.4885716       109.5813
2014    10      2       0.5788487       123.6667
2014    10      3       0.5816993       124.2728
2014    10      4       0.5246601       115.8448
2014    10      5       0.5593116       121.43
2014    10      6       0.5197255       115.6338
2014    10      7       0.3935768       94.24192
2014    11      0       0.3002378       76.2886
2014    11      1       0.2939489       74.99481
2014    11      2       0.2796524       72.03412
2014    11      3       0.2474194       65.32012
2014    11      4       0.3893417       93.77833
2014    11      5       0.5116484       114.5053
2014    11      6       0.5489552       120.3963
2014    11      7       0.5212507       116.2966
2014    12      0       0.4718929       108.4921
2014    12      1       0.403066        95.98061
2014    12      2       0.3889799       92.81301
2014    12      3       0.4095959       96.32929
2014    12      4       0.5286909       116.7925
2014    12      5       0.6440532       133.937
2014    12      6       0.6913514       140.5532
2014    12      7       0.6690755       137.8784
2014    13      0       0.6911752       140.8936
2014    13      1       0.7418151       147.2349
2014    13      2       0.7652257       150.0605
2014    13      3       0.8464539       159.7359
2014    13      4       0.9902571       175.1638
2014    13      5       1.048739        181.3174
2014    13      6       1.058106        182.3421
2014    13      7       1.026213        179.635
2014    14      0       1.004481        177.6161
2014    14      1       1.003277        177.4827
2014    14      2       0.9845805       175.9174
2014    14      3       0.8639272       163.3678
2014    14      4       0.7922392       155.1045
2014    14      5       0.7261913       147.1513
2014    14      6       0.5875926       128.0726
2014    14      7       0.4714986       109.2227
2014    15      0       0.3737665       91.42277
2014    15      1       0.3247969       81.79521
2014    15      2       0.3652955       89.59327
2014    15      3       0.497629        113.1149
2014    15      4       0.5213563       116.9349
2014    15      5       0.522735        117.2041
2014    15      6       0.4916419       112.0988
2014    15      7       0.4464461       104.3731
2014    16      0       0.4208503       99.89284
2014    16      1       0.4612422       107.0677
2014    16      2       0.5288692       118.4307
2014    16      3       0.5270993       118.1866
2014    16      4       0.5540083       122.3876
2014    16      5       0.6287462       133.7085
2014    16      6       0.6682389       139.4002
2014    16      7       0.6501352       136.9084
2014    17      0       0.5994864       129.4376
2014    17      1       0.5829354       126.7216
2014    17      2       0.5830961       126.791
2014    17      3       0.5941681       128.5728
2014    17      4       0.5987888       129.1071
2014    17      5       0.6511384       136.5641
2014    17      6       0.5921539       128.0685
2014    17      7       0.5680087       124.2683
2014    18      0       0.5340195       118.8149
2014    18      1       0.5284259       117.8176
2014    18      2       0.5703337       124.1001
2014    18      3       0.6745818       139.0138
2014    18      4       0.7638399       150.7331
2014    18      5       0.8215383       157.887
2014    18      6       0.7698679       151.5578
2014    18      7       0.6865268       140.3729
2014    19      0       0.6290679       132.0567
2014    19      1       0.6140896       129.7195
2014    19      2       0.6537894       135.1017
2014    19      3       0.6779066       138.3195
2014    19      4       0.6951604       140.6416
2014    19      5       0.7641332       149.457
2014    19      6       0.7176764       143.6187
2014    19      7       0.6987395       141.0651
2014    20      0       0.6994588       141.1186
2014    20      1       0.7244843       144.29
2014    20      2       0.7168943       143.2854
2014    20      3       0.6603462       135.6127
2014    20      4       0.5552313       119.9826
2014    20      5       0.52163         114.6249
2014    20      6       0.4157775       96.82699
2014    20      7       0.2291438       60.24739
2014    21      0       0.1685978       46.78921
2014    21      1       0.1561901       44.24185
2014    21      2       0.2077557       56.49571
2014    21      3       0.3478041       85.48
2014    21      4       0.5318871       117.0211
2014    21      5       0.8155504       155.6797
2014    21      6       0.9223646       167.3814
2014    21      7       0.8529244       159.8494
2014    22      0       0.8949534       164.4622
2014    22      1       0.8549209       160.0815
2014    22      2       0.7261816       144.5613
2014    22      3       0.7309737       145.1741
2014    22      4       0.8918067       164.6724
2014    22      5       1.077314        183.2839
2014    22      6       1.145032        188.8896
2014    22      7       1.032128        179.0346
2014    23      0       0.8667906       163.5684
2014    23      1       0.874883        164.8382
2014    23      2       0.8191109       159.1716
2014    23      3       0.7668477       153.4272
2014    23      4       0.7269173       148.3146
2014    23      5       0.8932327       166.372
2014    23      6       0.9319713       170.3024
2014    23      7       0.849738        161.3378
2014    24      0       0.8017111       155.6549
2014    24      1       0.823393        157.3911
2014    24      2       0.8696568       162.346
2014    24      3       0.852467        161.2125
2014    24      4       0.8519074       161.3853
2014    24      5       0.9870363       175.7188
2014    24      6       1.148261        190.1897
2014    24      7       1.299788        201.9892
2014    25      0       1.483889        214.0432
2014    25      1       1.488859        214.0373
2014    25      2       1.451309        211.5143
2014    25      3       1.584783        219.475
2014    25      4       1.904468        234.7717
2014    25      5       1.873011        234.1556
2014    25      6       1.754481        228.9781
2014    25      7       1.405966        209.5749
2014    26      0       0.9867832       175.591
2014    26      1       0.8594959       161.8869
2014    26      2       0.7264694       145.4911
2014    26      3       0.728747        145.5835
2014    26      4       0.7167944       143.9707
2014    26      5       0.6725146       138.1853
2014    26      6       0.5653359       122.7165
2014    26      7       0.6036595       128.2916
2014    27      0       0.6557139       135.8194
2014    27      1       0.636167        132.8696
2014    27      2       0.552143        120.4634
2014    27      3       0.4680878       106.743
2014    27      4       0.56195         121.7352
2014    27      5       0.5540197       120.4166
2014    27      6       0.6797006       138.5331
2014    27      7       0.826368        157.006
2014    28      0       0.948255        170.4716
2014    28      1       0.8940017       164.8579
2014    28      2       0.8855202       163.8944
2014    28      3       0.8857255       164.1335
2014    28      4       1.092948        184.7878
2014    28      5       1.296857        201.2086
2014    28      6       1.365803        205.7628
2014    28      7       1.415937        208.9337
2014    29      0       1.374408        205.9567
2014    29      1       1.327955        202.5622
2014    29      2       1.282415        199.2255
2014    29      3       1.226702        195.1756
2014    29      4       1.306947        201.1729
2014    29      5       1.500868        213.9284
2014    29      6       1.456223        211.2689
2014    29      7       1.382436        206.4248
2014    30      0       1.255685        197.1715
2014    30      1       1.102983        184.7449
2014    30      2       1.217612        195.1394
2014    30      3       1.100859        185.0399
2014    30      4       1.231432        195.9948
2014    30      5       1.280136        199.8265
2014    30      6       1.358898        205.1631
2014    30      7       1.57625         219.3048
2015    1       0       0.8340747       158.3855
2015    1       1       0.9307641       169.0866
2015    1       2       0.998491        175.65
2015    1       3       1.017046        177.2999
2015    1       4       1.020584        177.0558
2015    1       5       0.695953        140.552
2015    1       6       0.5196194       114.5396
2015    1       7       0.4210905       97.88786
2015    2       0       0.3630406       87.39595
2015    2       1       0.3389406       82.62526
2015    2       2       0.1884825       51.89445
2015    2       3       0.1037743       32.41585
2015    2       4       0.2359756       61.83066
2015    2       5       0.2569041       66.25098
2015    2       6       0.2964226       74.53941
2015    2       7       0.3801453       90.19741
2015    3       0       0.3377392       82.66758
2015    3       1       0.2982832       75.1012
2015    3       2       0.3040918       75.78145
2015    3       3       0.3599435       86.33264
2015    3       4       0.5701112       122.0458
2015    3       5       0.5962064       125.7756
2015    3       6       0.5600714       120.3167
2015    3       7       0.4798907       107.4788
2015    4       0       0.4691753       105.6586
2015    4       1       0.4312669       99.41379
2015    4       2       0.3487117       84.55377
2015    4       3       0.3529374       85.17639
2015    4       4       0.4030007       94.49662
2015    4       5       0.5962492       127.0272
2015    4       6       0.4346995       100.5973
2015    4       7       0.3776715       90.60756
2015    5       0       0.3388523       83.6015
2015    5       1       0.4910828       110.912
2015    5       2       0.3306056       82.06702
2015    5       3       0.3122286       78.68436
2015    5       4       0.3738234       91.16434
2015    5       5       0.4044426       96.84138
2015    5       6       0.447567        103.9987
2015    5       7       0.4190611       98.10071
2015    6       0       0.3743022       87.99283
2015    6       1       0.4158359       95.37548
2015    6       2       0.4340861       98.45985
2015    6       3       0.4021276       92.89094
2015    6       4       0.4664997       104.8135
2015    6       5       0.5366555       116.1327
2015    6       6       0.5769084       122.0831
2015    6       7       0.5804916       122.5653
2015    7       0       0.5518551       118.4733
2015    7       1       0.5384912       116.8744
2015    7       2       0.5235758       115.0185
2015    7       3       0.4986706       111.4482
2015    7       4       0.5591531       121.068
2015    7       5       0.6007526       127.3747
2015    7       6       0.6279086       131.2144
2015    7       7       0.8169696       156.0227
2015    8       0       1.008599        176.4236
2015    8       1       1.014619        176.6972
2015    8       2       0.9005722       165.0289
2015    8       3       0.8465258       158.9546
2015    8       4       0.832922        157.4682
2015    8       5       0.8894809       163.9174
2015    8       6       0.7753088       150.5932
2015    8       7       0.7395724       146.1307
2015    9       0       0.7212943       143.7014
2015    9       1       0.6394879       132.5033
2015    9       2       0.7051741       141.2324
2015    9       3       0.7246125       143.7046
2015    9       4       0.7497559       147.1519
2015    9       5       0.7645063       149.1722
2015    9       6       0.6470218       133.722
2015    9       7       0.5642285       121.6999
2015    10      0       0.4500855       103.158
2015    10      1       0.2549043       66.54652
2015    10      2       0.1580092       45.3352
2015    10      3       0.1315381       39.07662
2015    10      4       0.1617921       46.13232
2015    10      5       0.1766481       49.47314
2015    10      6       0.1236312       37.14795
2015    10      7       0.1210634       36.61922
2015    11      0       0.1476697       42.94197
2015    11      1       0.2109979       57.2009
2015    11      2       0.2484609       65.46285
2015    11      3       0.2237365       60.30265
2015    11      4       0.250205        65.95125
2015    11      5       0.2605557       68.05848
2015    11      6       0.2273219       61.30116
2015    11      7       0.1930461       53.49969
2015    12      0       0.181554        50.63969
2015    12      1       0.1805719       50.47447
2015    12      2       0.1720308       48.6299
2015    12      3       0.1635581       46.70675
2015    12      4       0.2391563       63.61821
2015    12      5       0.3047663       77.18333
2015    12      6       0.348417        85.77592
2015    12      7       0.3593821       87.79723
2015    13      0       0.3622797       88.43457
2015    13      1       0.4576584       105.7774
2015    13      2       0.4541233       105.122
2015    13      3       0.4310569       101.0909
2015    13      4       0.393684        94.41898
2015    13      5       0.4057075       96.55746
2015    13      6       0.3978643       95.24199
2015    13      7       0.3690978       90.05987
2015    14      0       0.3620036       88.65192
2015    14      1       0.3121622       78.73787
2015    14      2       0.2374634       63.06714
2015    14      3       0.231919        61.78132
2015    14      4       0.3076383       77.77016
2015    14      5       0.3167109       79.56243
2015    14      6       0.3196149       80.17653
2015    14      7       0.3063329       77.9184
2015    15      0       0.3091109       78.62074
2015    15      1       0.3079634       78.30834
2015    15      2       0.2850746       73.4906
2015    15      3       0.2964453       75.80544
2015    15      4       0.3489513       86.39255
2015    15      5       0.3896791       93.5976
2015    15      6       0.4091546       97.29133
2015    15      7       0.4258346       100.2385
2015    16      0       0.4474641       103.6168
2015    16      1       0.5175101       115.2939
2015    16      2       0.4586451       105.7885
2015    16      3       0.3939277       93.72072
2015    16      4       0.5310459       118.5988
2015    16      5       0.5092244       114.7942
2015    16      6       0.4497278       104.9793
2015    16      7       0.4059883       97.13735
2015    17      0       0.3899105       94.17442
2015    17      1       0.2965901       75.91099
2015    17      2       0.2507026       66.15758
2015    17      3       0.2568948       67.19148
2015    17      4       0.3299874       82.49479
2015    17      5       0.4075735       97.24828
2015    17      6       0.4499977       104.6779
2015    17      7       0.4433907       103.5203
2015    18      0       0.4315203       101.1659
2015    18      1       0.3997778       95.34146
2015    18      2       0.394506        94.5307
2015    18      3       0.3981386       95.32887
2015    18      4       0.4725525       108.5653
2015    18      5       0.5157904       115.6523
2015    18      6       0.5071776       114.325
2015    18      7       0.4929524       111.9375
2015    19      0       0.4757728       109.1271
2015    19      1       0.4434636       103.7246
2015    19      2       0.3829498       92.81885
2015    19      3       0.3660915       89.62665
2015    19      4       0.4218763       99.84282
2015    19      5       0.4604817       106.3908
2015    19      6       0.4539318       105.2061
2015    19      7       0.4200096       99.28462
2015    20      0       0.3886949       93.62861
2015    20      1       0.3901309       93.79412
2015    20      2       0.38018         91.99231
2015    20      3       0.371771        90.46768
2015    20      4       0.3701989       90.06444
2015    20      5       0.4121188       97.55188
2015    20      6       0.4252481       99.82862
2015    20      7       0.3769958       91.2228
2015    21      0       0.3350374       83.35046
2015    21      1       0.3158058       79.42196
2015    21      2       0.3140308       78.86831
2015    21      3       0.3243625       80.78997
2015    21      4       0.394809        94.17555
2015    21      5       0.4555942       104.7659
2015    21      6       0.4881516       110.1672
2015    21      7       0.4378518       101.9451
2015    22      0       0.3722864       90.36379
2015    22      1       0.352905        86.50038
2015    22      2       0.3476877       85.45244
2015    22      3       0.3519212       86.22519
2015    22      4       0.4130408       97.34036
2015    22      5       0.4354449       101.3931
2015    22      6       0.4032795       95.71492
2015    22      7       0.3498125       85.79905
2015    23      0       0.278147        71.56872
2015    23      1       0.2644128       68.80381
2015    23      2       0.2609041       68.0476
2015    23      3       0.2845472       72.98701
2015    23      4       0.4316993       101.3883
2015    23      5       0.488111        110.4788
2015    23      6       0.4126694       97.4264
2015    23      7       0.3795705       91.19801
2015    24      0       0.3362551       82.85118
2015    24      1       0.3217766       79.75841
2015    24      2       0.3226674       79.60267
2015    24      3       0.3308903       81.10215
2015    24      4       0.4413238       101.2823
2015    24      5       0.4549628       103.5701
2015    24      6       0.3363413       82.16634
2015    24      7       0.3081506       76.41703
2015    25      0       0.3320999       81.00481
2015    25      1       0.3797129       89.64144
2015    25      2       0.384539        90.23751
2015    25      3       0.423349        96.80478
2015    25      4       0.4743047       105.2711
2015    25      5       0.4498876       101.393
2015    25      6       0.4681614       104.6617
2015    25      7       0.4540426       102.5686
2015    26      0       0.5287954       114.4897
2015    26      1       0.4203904       96.68607
2015    26      2       0.2783866       70.29857
2015    26      3       0.3279936       79.78521
2015    26      4       0.3711138       87.86299
2015    26      5       0.3926006       92.26605
2015    26      6       0.322075        80.30637
2015    26      7       0.2313235       62.23914
2015    27      0       0.1671059       48.19126
2015    27      1       0.1385718       41.20908
2015    27      2       0.1491836       43.54571
2015    27      3       0.154576        44.67876
2015    27      4       0.173858        48.90385
2015    27      5       0.2071435       56.51252
2015    27      6       0.1995964       54.65859
2015    27      7       0.1724288       48.59014
2015    28      0       0.1615125       45.92856
2015    28      1       0.1467885       42.39551
2015    28      2       0.1391982       40.59765
2015    28      3       0.1335996       39.35374
2015    28      4       0.1515768       43.78834
2015    28      5       0.1417556       41.37905
2015    28      6       0.1078463       32.95786
2015    28      7       0.125252        37.24651
2015    29      0       0.1531077       43.81233
2015    29      1       0.193752        53.05733
2015    29      2       0.2233646       59.73473
2015    29      3       0.2212982       59.50348
2015    29      4       0.2272345       60.87536
2015    29      5       0.2509176       66.03134
2015    29      6       0.2861355       73.48176
2015    29      7       0.3160684       79.56799
2015    30      0       0.3219228       80.75054
2015    30      1       0.3365631       83.75483
2015    30      2       0.348001        85.95962
2015    30      3       0.3814744       92.2248
2015    30      4       0.4068535       96.66782
2015    30      5       0.436058        101.707
2015    30      6       0.4256319       99.88267
2015    30      7       0.4286105       100.0798
2016    1       0       1.209653        193.7306
2016    1       1       1.25899         197.563
2016    1       2       1.19556         192.4676
2016    1       3       1.123459        186.5191
2016    1       4       1.259654        197.4968
2016    1       5       1.347149        204.1281
2016    1       6       1.432159        209.4686
2016    1       7       1.442614        209.8699
2016    2       0       1.361549        204.4684
2016    2       1       1.196856        192.6621
2016    2       2       1.159157        189.4516
2016    2       3       1.213283        193.6816
2016    2       4       1.206062        193.0409
2016    2       5       1.172203        190.3823
2016    2       6       1.13083         187.2974
2016    2       7       1.103387        185.4554
2016    3       0       1.035011        179.2474
2016    3       1       1.003147        176.1713
2016    3       2       0.9620002       172.1289
2016    3       3       0.91062         166.7108
2016    3       4       0.9869716       174.3971
2016    3       5       1.009378        176.8153
2016    3       6       1.09008         184.4358
2016    3       7       1.081453        183.7924
2016    4       0       0.992708        175.6267
2016    4       1       0.9287297       169.1365
2016    4       2       0.8604235       161.8942
2016    4       3       0.8408338       159.2337
2016    4       4       0.8645766       161.3581
2016    4       5       0.936626        169.257
2016    4       6       0.9260053       168.0973
2016    4       7       0.8997026       165.3601
2016    5       0       0.8841696       163.7396
2016    5       1       0.8676504       161.907
2016    5       2       0.8715493       162.1286
2016    5       3       0.8836318       163.1598
2016    5       4       0.9131869       166.327
2016    5       5       0.9988563       175.1395
2016    5       6       1.022473        177.1893
2016    5       7       0.9648513       171.725
2016    6       0       0.9666751       172.0572
2016    6       1       1.050084        180.0552
2016    6       2       1.104966        185.0968
2016    6       3       1.159805        189.921
2016    6       4       1.60711         219.737
2016    6       5       2.069641        239.1008
2016    6       6       1.92788         233.7867
2016    6       7       1.779734        227.458
2016    7       0       1.747473        225.8364
2016    7       1       1.415334        207.9936
2016    7       2       1.289387        199.2872
2016    7       3       1.528201        213.7691
2016    7       4       1.764743        226.3072
2016    7       5       1.7292          225.8596
2016    7       6       1.521025        215.3125
2016    7       7       1.552794        217.1523
2016    8       0       1.753489        227.592
2016    8       1       1.490418        213.8974
2016    8       2       1.205068        194.4122
2016    8       3       0.9561391       171.7909
2016    8       4       1.138333        189.1693
2016    8       5       1.672902        224.3499
2016    8       6       1.790574        229.8826
2016    8       7       1.690404        225.3537
2016    9       0       1.626132        222.0225
2016    9       1       1.480544        213.8081
2016    9       2       1.190849        193.535
2016    9       3       1.003428        176.8934
2016    9       4       1.035862        180.3537
2016    9       5       1.220688        196.4593
2016    9       6       1.109262        187.1015
2016    9       7       0.8889661       165.4605
2016    10      0       0.7607482       150.154
2016    10      1       0.7827946       152.6449
2016    10      2       0.6965118       141.7844
2016    10      3       0.6028985       128.8687
2016    10      4       0.7725807       151.9432
2016    10      5       0.9623713       173.5282
2016    10      6       1.033154        180.0888
2016    10      7       1.045917        180.8072
2016    11      0       1.083322        184.1139
2016    11      1       1.105767        186.9105
2016    11      2       1.099884        186.3221
2016    11      3       1.009638        177.2517
2016    11      4       1.095769        186.3886
2016    11      5       1.198914        195.6708
2016    11      6       1.153167        191.7111
2016    11      7       1.128898        189.4861
2016    12      0       1.135519        189.991
2016    12      1       1.138209        189.9011
2016    12      2       1.125303        188.5085
2016    12      3       1.127692        188.8014
2016    12      4       1.107571        186.3577
2016    12      5       0.9818229       174.5836
2016    12      6       1.041698        181.6498
2016    12      7       0.5406186       118.0594
2016    13      0       0.5098251       111.7561
2016    13      1       0.5517964       117.3374
2016    13      2       0.4967263       108.4583
2016    13      3       0.5114054       110.6531
2016    13      4       0.699183        138.2577
2016    13      5       0.7015345       138.7401
2016    13      6       0.6380896       130.3465
2016    13      7       0.602987        125.4816
2016    14      0       0.5807122       122.3138
2016    14      1       0.5693287       120.7849
2016    14      2       0.4893943       109.1091
2016    14      3       0.452196        103.5014
2016    14      4       0.4584276       104.8811
2016    14      5       0.4329548       100.6117
2016    14      6       0.4241452       99.01516
2016    14      7       0.3994953       94.56144
2016    15      0       0.4678977       107.0021
2016    15      1       0.2921361       73.96639
2016    15      2       0.2687107       69.05611
2016    15      3       0.2850766       72.18056
2016    15      4       0.3596654       86.88737
2016    15      5       0.4065821       95.59037
2016    15      6       0.4650225       105.8445
2016    15      7       0.5252306       115.9212
2016    16      0       0.5653272       122.3316
2016    16      1       0.5368695       117.977
2016    16      2       0.5068915       113.0005
2016    16      3       0.4716093       107.0719
2016    16      4       0.4600026       105.3853
2016    16      5       0.3772876       90.99444
2016    16      6       0.2730451       70.44813
2016    16      7       0.2465041       64.85149
2016    17      0       0.2729557       69.90731
2016    17      1       0.2805543       71.17913
2016    17      2       0.2560852       66.47173
2016    17      3       0.315712        78.79962
2016    17      4       0.4336417       100.8484
2016    17      5       0.4520547       104.1045
2016    17      6       0.4071939       96.42731
2016    17      7       0.3979664       94.74681
2016    18      0       0.4103132       96.73002
2016    18      1       0.4059002       95.9612
2016    18      2       0.386114        92.39283
2016    18      3       0.4065981       96.17743
2016    18      4       0.4100683       96.96049
2016    18      5       0.372483        90.14633
2016    18      6       0.2785329       71.35723
2016    18      7       0.2637523       68.2276
2016    19      0       0.2948268       74.70073
2016    19      1       0.3356508       82.756
2016    19      2       0.3752165       90.4722
2016    19      3       0.4217257       99.05971
2016    19      4       0.4629139       106.1148
2016    19      5       0.4598808       105.5115
2016    19      6       0.4039313       95.44095
2016    19      7       0.3251895       80.37603
2016    20      0       0.2843278       72.12468
2016    20      1       0.3098531       77.11577
2016    20      2       0.3250883       80.03112
2016    20      3       0.2940468       74.38698
2016    20      4       0.2866191       73.3655
2016    20      5       0.286824        73.60682
2016    20      6       0.2761004       71.34479
2016    20      7       0.3091477       77.73932
2016    21      0       0.3428511       84.41126
2016    21      1       0.3634111       88.07482
2016    21      2       0.4020833       95.00482
2016    21      3       0.5409532       117.8194
2016    21      4       0.6448422       133.7123
2016    21      5       0.665862        136.7901
2016    21      6       0.6345836       132.4984
2016    21      7       0.5788427       124.5468
2016    22      0       0.5518634       120.4828
2016    22      1       0.5499144       120.1618
2016    22      2       0.528689        116.8926
2016    22      3       0.5170704       114.8432
2016    22      4       0.5578582       121.0817
2016    22      5       0.6071209       128.6575
2016    22      6       0.6241388       131.1081
2016    22      7       0.6051606       128.4297
2016    23      0       0.5547763       121.0806
2016    23      1       0.5324513       117.5969
2016    23      2       0.467235        107.6743
2016    23      3       0.4228421       99.6872
2016    23      4       0.4667302       106.5477
2016    23      5       0.5846371       124.7869
2016    23      6       0.5691449       122.2987
2016    23      7       0.4825454       108.5178
2016    24      0       0.424947        98.509
2016    24      1       0.3711695       88.53911
2016    24      2       0.3116273       76.98857
2016    24      3       0.2313707       60.66206
2016    24      4       0.3243638       80.50033
2016    24      5       0.3752877       90.47859
2016    24      6       0.3451492       85.26213
2016    24      7       0.3016905       76.80827
2016    25      0       0.2852413       73.05513
2016    25      1       0.2508076       65.51482
2016    25      2       0.2563711       65.85139
2016    25      3       0.2139007       57.39859
2016    25      4       0.3066413       77.09295
2016    25      5       0.3636153       88.86618
2016    25      6       0.3332512       83.20657
2016    25      7       0.2287111       61.43099
2016    26      0       0.1905776       52.60833
2016    26      1       0.1527412       43.299
2016    26      2       0.1540042       43.58555
2016    26      3       0.1749741       48.34893
2016    26      4       0.2665723       68.83205
2016    26      5       0.3400669       84.45319
2016    26      6       0.4429177       103.2479
2016    26      7       0.3311472       83.34339
2016    27      0       0.2043983       56.34645
2016    27      1       0.1913995       53.30041
2016    27      2       0.2080409       57.121
2016    27      3       0.2342296       63.00671
2016    27      4       0.3006449       77.69511
2016    27      5       0.3322796       83.40639
2016    27      6       0.3124486       79.41819
2016    27      7       0.2615193       69.53845
2016    28      0       0.2117032       58.35256
2016    28      1       0.165228        47.4971
2016    28      2       0.1474774       43.17465
2016    28      3       0.1442572       42.33726
2016    28      4       0.2254968       61.43553
2016    28      5       0.2702089       71.3807
2016    28      6       0.2714493       71.61563
2016    28      7       0.2501874       66.97277
2016    29      0       0.2353717       63.75071
2016    29      1       0.2583454       68.84599
2016    29      2       0.2768027       72.79452
2016    29      3       0.2665308       70.6569
2016    29      4       0.3434155       86.46028
2016    29      5       0.3824287       93.77141
2016    29      6       0.3961838       96.35527
2016    29      7       0.3390307       85.4534
2016    30      0       0.3030044       78.18065
2016    30      1       0.3246265       82.51977
2016    30      2       0.3298559       83.3683
2016    30      3       0.3026984       77.69738
2016    30      4       0.6009502       129.4108
2016    30      5       1.025322        179.8065
2016    30      6       1.130052        189.3323
2016    30      7       1.224396        196.7013
2017    1       0       0.4984156       113.8233
2017    1       1       0.4319851       102.2318
2017    1       2       0.4055617       97.32707
2017    1       3       0.3786329       92.09593
2017    1       4       0.53494         119.3182
2017    1       5       0.6314154       133.8952
2017    1       6       0.6654088       138.6662
2017    1       7       0.6254653       132.9825
2017    2       0       0.5633446       123.9013
2017    2       1       0.5224709       117.4234
2017    2       2       0.5051743       114.5096
2017    2       3       0.5169825       116.4733
2017    2       4       0.5934015       128.6299
2017    2       5       0.6595575       137.9897
2017    2       6       0.7503237       149.994
2017    2       7       0.7248505       147.2606
2017    3       0       0.6787943       140.9735
2017    3       1       0.683772        141.485
2017    3       2       0.6518588       137.3202
2017    3       3       0.613396        131.6644
2017    3       4       0.5833491       126.4849
2017    3       5       0.637926        134.4409
2017    3       6       0.5845029       126.58
2017    3       7       0.5264915       117.5917
2017    4       0       0.5440844       120.3883
2017    4       1       0.5720009       124.5428
2017    4       2       0.6438834       134.9521
2017    4       3       0.6894234       141.1902
2017    4       4       0.8041101       155.9174
2017    4       5       0.9198124       169.3386
2017    4       6       0.9541999       173.1376
2017    4       7       0.9399591       171.8526
2017    5       0       0.9234157       170.1834
2017    5       1       0.8841849       166.036
2017    5       2       0.8210275       158.8507
2017    5       3       0.8391484       161.2247
2017    5       4       0.9912839       177.5806
2017    5       5       1.140527        191.5744
2017    5       6       1.18176         195.1211
2017    5       7       1.222439        198.4386
2017    6       0       1.311474        205.2325
2017    6       1       1.440131        213.8602
2017    6       2       1.318175        205.8147
2017    6       3       1.118511        190.1506
2017    6       4       1.27374         202.9892
2017    6       5       1.16694         194.294
2017    6       6       0.6925108       142.0074
2017    6       7       0.4154397       97.98896
2017    7       0       0.2871439       73.70164
2017    7       1       0.2648336       69.05001
2017    7       2       0.2545859       66.8829
2017    7       3       0.2247933       60.38343
2017    7       4       0.2300359       61.16426
2017    7       5       0.1955408       53.28325
2017    7       6       0.1787263       49.21173
2017    7       7       0.1987641       53.05848
2017    8       0       0.1543362       43.77799
2017    8       1       0.114339        34.66855
2017    8       2       0.1233749       36.55079
2017    8       3       0.157418        43.9718
2017    8       4       0.2299576       60.08048
2017    8       5       0.2549614       67.59079
2017    8       6       0.2855165       73.97364
2017    8       7       0.2484118       65.67581
2017    9       0       0.3230463       81.25595
2017    9       1       0.4082693       97.49758
2017    9       2       0.5333529       118.2528
2017    9       3       0.480151        109.4046
2017    9       4       0.5543206       121.7561
2017    9       5       0.6901161       142.0327
2017    9       6       1.016417        179.1921
2017    9       7       1.284842        201.4884
2017    10      0       1.343633        205.6452
2017    10      1       1.542335        218.0038
2017    10      2       1.551326        218.4225
2017    10      3       1.23624         198.193
2017    10      4       1.144963        190.7609
2017    10      5       0.9409748       171.9222
2017    10      6       0.8238676       158.6561
2017    10      7       0.724316        145.8515
2017    11      0       0.5427757       119.634
2017    11      1       0.6460363       135.5325
2017    11      2       0.5769411       125.1095
2017    11      3       0.5224155       116.7924
2017    11      4       0.6508035       136.8857
2017    11      5       0.7784919       154.0389
2017    11      6       0.9247995       170.3716
2017    11      7       0.763875        153.0026
2017    12      0       0.7671076       153.0351
2017    12      1       0.8057908       157.0002
2017    12      2       0.8209151       158.1157
2017    12      3       0.8645673       163.0122
2017    12      4       0.9055468       168.0184
2017    12      5       0.9502067       173.2464
2017    12      6       0.9820024       176.5635
2017    12      7       0.9709072       175.4899
2017    13      0       0.9295212       170.9749
2017    13      1       0.8749433       164.986
2017    13      2       0.8285307       159.6974
2017    13      3       0.7795213       153.7584
2017    13      4       0.7671685       152.2101
2017    13      5       0.8150837       158.1495
2017    13      6       0.802728        156.6729
2017    13      7       0.7907399       155.1852
2017    14      0       0.7568624       151.021
2017    14      1       0.6892965       142.0074
2017    14      2       0.6447592       135.8426
2017    14      3       0.7189375       145.913
2017    14      4       0.782647        153.8635
2017    14      5       0.8384733       160.5389
2017    14      6       0.7695854       152.2304
2017    14      7       0.7041086       143.6199
2017    15      0       0.5888574       127.0582
2017    15      1       0.4919688       111.5842
2017    15      2       0.4761469       108.8212
2017    15      3       0.5086848       114.1956
2017    15      4       0.6885296       140.921
2017    15      5       0.832299        159.0138
2017    15      6       0.8502256       161.0236
2017    15      7       0.8678207       162.8341
2017    16      0       0.8441364       160.0133
2017    16      1       0.800992        154.7639
2017    16      2       0.7820384       152.5046
2017    16      3       0.7500759       148.4733
2017    16      4       0.8040577       155.0243
2017    16      5       0.8838903       164.3076
2017    16      6       0.9146316       167.536
2017    16      7       0.9346043       169.3848
2017    17      0       0.875329        162.9985
2017    17      1       0.7996726       154.2324
2017    17      2       0.7585318       149.0809
2017    17      3       0.7570502       148.8781
2017    17      4       0.7898944       152.953
2017    17      5       0.8700316       162.4428
2017    17      6       1.242907        197.7744
2017    17      7       0.9391959       169.7919
2017    18      0       0.9577287       171.7058
2017    18      1       1.070671        182.3925
2017    18      2       1.238189        196.5293
2017    18      3       1.396362        207.7452
2017    18      4       1.442694        210.61
2017    18      5       1.56683         218.176
2017    18      6       1.596369        219.916
2017    18      7       1.771297        228.6301
2017    19      0       2.008721        238.1543
2017    19      1       2.016218        238.3002
2017    19      2       1.877017        232.9864
2017    19      3       1.538542        216.7942
2017    19      4       1.395715        208.3171
2017    19      5       1.367247        206.6921
2017    19      6       1.197852        193.888
2017    19      7       1.174408        191.8115
2017    20      0       1.257931        198.3182
2017    20      1       1.371187        206.2337
2017    20      2       1.265942        198.647
2017    20      3       1.084087        183.9948
2017    20      4       1.040608        180.468
2017    20      5       1.06948         183.3116
2017    20      6       1.105811        186.4709
2017    20      7       1.077661        184.1467
2017    21      0       1.062531        182.7938
2017    21      1       1.040832        180.7443
2017    21      2       0.9259815       169.4076
2017    21      3       0.8919911       165.7714
2017    21      4       1.001093        177.3612
2017    21      5       1.055225        182.7073
2017    21      6       1.01683         179.0095
2017    21      7       0.9710436       174.289
2017    22      0       0.9002316       166.6271
2017    22      1       0.7820343       153.0566
2017    22      2       0.7060193       143.4105
2017    22      3       0.6819779       140.6586
2017    22      4       0.7393155       147.6649
2017    22      5       0.8439365       160.1371
2017    22      6       0.8077153       155.8095
2017    22      7       0.6867071       140.5707
2017    23      0       0.5950714       127.7583
2017    23      1       0.5972551       127.9405
2017    23      2       0.582662        126.008
2017    23      3       0.5471323       121.0162
2017    23      4       0.5266122       117.1751
2017    23      5       0.5854357       126.2225
2017    23      6       0.5802651       125.5426
2017    23      7       0.5103436       115.4582
2017    24      0       0.4958242       113.4465
2017    24      1       0.4883159       111.7793
2017    24      2       0.472361        108.7221
2017    24      3       0.451411        105.0395
2017    24      4       0.4693751       108.266
2017    24      5       0.5559293       121.6901
2017    24      6       0.6018865       128.5266
2017    24      7       0.6081189       129.1531
2017    25      0       0.5247981       116.9313
2017    25      1       0.4524705       104.5023
2017    25      2       0.4678875       106.8446
2017    25      3       0.4907277       110.8445
2017    25      4       0.5357001       118.1201
2017    25      5       0.5919458       126.6679
2017    25      6       0.578821        124.6572
2017    25      7       0.5963043       127.0538
2017    26      0       0.6482784       134.3101
2017    26      1       0.7181592       143.4566
2017    26      2       0.7234042       144.2246
2017    26      3       0.8901441       164.2984
2017    26      4       1.104992        185.5525
2017    26      5       1.314536        202.4031
2017    26      6       1.356746        205.5576
2017    26      7       1.313921        202.4601
2017    27      0       1.276914        199.6738
2017    27      1       1.101316        185.7007
2017    27      2       0.876902        163.0299
2017    27      3       0.5763135       123.6358
2017    27      4       0.5715973       123.1762
2017    27      5       0.5093412       113.5631
2017    27      6       0.4299728       100.1577
2017    27      7       0.4143083       97.32534
2017    28      0       0.3898414       93.09873
2017    28      1       0.366934        88.96436
2017    28      2       0.2988728       75.84527
2017    28      3       0.2122027       57.83396
2017    28      4       0.2184694       59.2767
2017    28      5       0.2610968       68.33147
2017    28      6       0.3193032       80.05025
2017    28      7       0.3418496       84.65034
2017    29      0       0.4826812       109.6077
2017    29      1       0.6559646       135.9341
2017    29      2       0.7501511       148.4105
2017    29      3       0.8282487       157.8226
2017    29      4       0.9073859       166.9891
2017    29      5       1.040671        180.9338
2017    29      6       1.085136        185.2978
2017    29      7       1.204864        195.3351
2017    30      0       1.295417        202.1721
2017    30      1       1.301836        202.6319
2017    30      2       1.337939        205.1022
2017    30      3       1.444108        212.1965
2017    30      4       1.365745        207.3279
2017    30      5       1.23195         198.0551
2017    30      6       1.055242        182.6761
2017    30      7       0.8444628       160.7383
2018    1       0       0.2489219       65.99468
2018    1       1       0.2805768       72.56897
2018    1       2       0.2704179       70.33093
2018    1       3       0.2279102       61.1106
2018    1       4       0.2625156       68.50953
2018    1       5       0.2906013       74.32303
2018    1       6       0.3248278       81.28325
2018    1       7       0.3819358       92.32438
2018    2       0       0.3515422       86.48915
2018    2       1       0.4284642       100.7101
2018    2       2       0.5510543       121.2557
2018    2       3       0.7008104       143.2161
2018    2       4       0.7606592       150.7589
2018    2       5       0.7417883       147.9988
2018    2       6       0.6852339       140.0629
2018    2       7       0.6353487       132.9867
2018    3       0       0.5881325       125.9799
2018    3       1       0.5653991       122.5134
2018    3       2       0.5833024       125.2533
2018    3       3       0.6026651       128.384
2018    3       4       0.7434146       147.9145
2018    3       5       0.8455533       160.5334
2018    3       6       0.8186262       157.543
2018    3       7       0.8196527       157.6842
2018    4       0       0.7938578       154.6368
2018    4       1       0.7608493       150.7389
2018    4       2       0.7188451       145.6108
2018    4       3       0.69255         142.1944
2018    4       4       0.8210275       158.2871
2018    4       5       1.003343        177.8069
2018    4       6       0.9612968       173.1893
2018    4       7       0.7710163       151.7884
2018    5       0       0.6428352       134.7983
2018    5       1       0.5853284       126.2671
2018    5       2       0.490788        111.172
2018    5       3       0.4188485       98.63149
2018    5       4       0.415208        97.85202
2018    5       5       0.427514        99.80645
2018    5       6       0.4156383       97.50153
2018    5       7       0.3786764       90.77535
2018    6       0       0.3141507       78.53037
2018    6       1       0.3018472       76.1833
2018    6       2       0.2804109       72.05341
2018    6       3       0.2203545       59.42898
2018    6       4       0.234634        62.69319
2018    6       5       0.282097        72.6573
2018    6       6       0.3281425       81.56129
2018    6       7       0.2987813       75.55908
2018    7       0       0.3053488       76.70562
2018    7       1       0.2749493       70.49307
2018    7       2       0.2348369       62.1153
2018    7       3       0.2686346       68.73582
2018    7       4       0.3503573       84.75499
2018    7       5       0.4286076       99.219
2018    7       6       0.4469815       102.5017
2018    7       7       0.4245099       98.8764
2018    8       0       0.3849514       91.90322
2018    8       1       0.331018        82.0801
2018    8       2       0.2809414       72.05881
2018    8       3       0.2876733       73.5064
2018    8       4       0.359032        87.59526
2018    8       5       0.4112263       97.08513
2018    8       6       0.444622        102.858
2018    8       7       0.4252657       99.45085
2018    9       0       0.3877135       92.78336
2018    9       1       0.3710426       89.53073
2018    9       2       0.3930357       93.46786
2018    9       3       0.4283757       99.88676
2018    9       4       0.4971313       111.4563
2018    9       5       0.5906459       125.856
2018    9       6       0.5884928       125.4721
2018    9       7       0.5520044       120.0433
2018    10      0       0.5100037       113.4054
2018    10      1       0.4547525       104.2936
2018    10      2       0.4097529       96.90757
2018    10      3       0.3954914       94.61716
2018    10      4       0.4351899       101.5019
2018    10      5       0.5251762       116.3416
2018    10      6       0.5457875       119.2324
2018    10      7       0.4649125       106.1978
2018    11      0       0.3816609       91.70924
2018    11      1       0.3412961       84.23329
2018    11      2       0.3063182       77.68301
2018    11      3       0.2744799       71.71088
2018    11      4       0.3245373       81.754
2018    11      5       0.403519        96.14811
2018    11      6       0.478026        108.481
2018    11      7       0.5292469       116.4843
2018    12      0       0.5071671       112.7448
2018    12      1       0.4485592       102.8255
2018    12      2       0.4091495       95.8074
2018    12      3       0.3934773       92.92522
2018    12      4       0.4283238       99.36536
2018    12      5       0.4950892       110.8824
2018    12      6       0.537223        117.8254
2018    12      7       0.6142515       129.6686
2018    13      0       0.6310966       132.2962
2018    13      1       0.6432589       134.0509
2018    13      2       0.6173846       130.6704
2018    13      3       0.5933881       127.5261
2018    13      4       0.6046916       129.11
2018    13      5       0.634829        133.6035
2018    13      6       0.574279        124.8983
2018    13      7       0.547572        120.9218
2018    14      0       0.6137529       130.9377
2018    14      1       0.5445813       120.5707
2018    14      2       0.3271979       82.26913
2018    14      3       0.250346        66.47093
2018    14      4       0.309423        79.11402
2018    14      5       0.2568664       67.84671
2018    14      6       0.1996888       55.36865
2018    14      7       0.1724975       49.16864
2018    15      0       0.1632807       46.89452
2018    15      1       0.1795662       50.58845
2018    15      2       0.2037218       55.8865
2018    15      3       0.2489862       65.82885
2018    15      4       0.2740497       71.29401
2018    15      5       0.2748763       71.43154
2018    15      6       0.295932        75.68812
2018    15      7       0.29891         76.27154
2018    16      0       0.2932888       75.07479
2018    16      1       0.2942243       75.16712
2018    16      2       0.3039501       77.24022
2018    16      3       0.2945505       75.55248
2018    16      4       0.2642653       69.47657
2018    16      5       0.2616942       69.22696
2018    16      6       0.239025        64.27877
2018    16      7       0.2544225       67.29922
2018    17      0       0.2453063       65.26746
2018    17      1       0.3074115       78.21802
2018    17      2       0.2746353       71.49222
2018    17      3       0.305635        77.87786
2018    17      4       0.4126647       98.49206
2018    17      5       0.3682694       90.63847
2018    17      6       0.3735312       91.79684
2018    17      7       0.4807953       110.6485
2018    18      0       0.5676623       124.3994
2018    18      1       0.5510958       122.1043
2018    18      2       0.4986535       113.5156
2018    18      3       0.5091567       115.0255
2018    18      4       0.5569935       122.671
2018    18      5       0.559249        123.0689
2018    18      6       0.5597222       123.3099
2018    18      7       0.5741099       125.4561
2018    19      0       0.5917863       128.0466
2018    19      1       0.5567202       122.5764
2018    19      2       0.513586        115.6378
2018    19      3       0.5225202       117.0662
2018    19      4       0.5590049       122.9404
2018    19      5       0.5460405       121.148
2018    19      6       0.5056302       114.6462
2018    19      7       0.4872423       111.3904
2018    20      0       0.4323684       101.8521
2018    20      1       0.3936945       94.84212
2018    20      2       0.3939422       94.89629
2018    20      3       0.4104824       97.96943
2018    20      4       0.4333269       102.1195
2018    20      5       0.4663373       107.8556
2018    20      6       0.4909429       112.0128
2018    20      7       0.5218694       117.0192
2018    21      0       0.5425004       120.0453
2018    21      1       0.5413236       119.629
2018    21      2       0.5472317       120.3792
2018    21      3       0.5693074       123.605
2018    21      4       0.629056        132.3721
2018    21      5       0.6488732       135.2792
2018    21      6       0.6016484       128.4925
2018    21      7       0.6011808       128.3328
2018    22      0       0.6352943       133.3395
2018    22      1       0.6751104       138.8132
2018    22      2       0.7725345       151.4513
2018    22      3       0.8462765       160.3238
2018    22      4       0.9353247       170.2287
2018    22      5       1.069928        183.4917
2018    22      6       1.074426        183.8332
2018    22      7       1.039067        180.504
2018    23      0       1.005432        177.3528
2018    23      1       0.9473714       171.6069
2018    23      2       0.9324537       169.9143
2018    23      3       0.8863677       164.8958
2018    23      4       0.8413876       160.1296
2018    23      5       0.8983224       166.679
2018    23      6       0.8351534       159.4029
2018    23      7       0.7837519       153.1565
2018    24      0       0.7652891       150.8738
2018    24      1       0.7435251       148.0593
2018    24      2       0.6920857       141.3306
2018    24      3       0.6067966       129.5852
2018    24      4       0.6696607       138.2325
2018    24      5       0.7622926       150.0548
2018    24      6       0.7721926       150.9735
2018    24      7       0.778979        151.4716
2018    25      0       0.7826732       151.7642
2018    25      1       0.7759732       150.9924
2018    25      2       0.8619566       160.9256
2018    25      3       0.9698025       171.8778
2018    25      4       0.8850531       163.2564
2018    25      5       0.8983776       165.0519
2018    25      6       0.8356823       158.4168
2018    25      7       0.8279677       157.3235
2018    26      0       0.7862377       152.1679
2018    26      1       0.7172986       143.6471
2018    26      2       0.7030858       141.7079
2018    26      3       0.6448595       133.6981
2018    26      4       0.6196219       130.4735
2018    26      5       0.5528791       120.996
2018    26      6       0.4718399       108.298
2018    26      7       0.4223492       99.62883
2018    27      0       0.398852        95.24813
2018    27      1       0.3629595       88.42624
2018    27      2       0.3394887       83.38627
2018    27      3       0.3100324       77.73961
2018    27      4       0.3954374       94.54072
2018    27      5       0.3943563       94.54599
2018    27      6       0.3818324       92.65274
2018    27      7       0.3459372       85.91096
2018    28      0       0.3518403       86.98916
2018    28      1       0.4232063       100.5095
2018    28      2       0.4662933       108.0067
2018    28      3       0.5074811       114.891
2018    28      4       0.5138122       115.9035
2018    28      5       0.5572294       122.2792
2018    28      6       0.5433965       120.0153
2018    28      7       0.5484431       120.714
2018    29      0       0.5234132       116.4967
2018    29      1       0.4986622       112.2731
2018    29      2       0.4953509       112.0714
2018    29      3       0.4505658       104.529
2018    29      4       0.5372938       119.1583
2018    29      5       0.5709785       124.0549
2018    29      6       0.5192494       115.9928
2018    29      7       0.5146816       115.3165
2018    30      0       0.4737531       108.6048
2018    30      1       0.4205801       99.73474
2018    30      2       0.3470145       85.98912
2018    30      3       0.3400361       84.5817
2018    30      4       0.4277485       101.1371
2018    30      5       0.4769814       109.3043
2018    30      6       0.4571858       105.8965
2018    30      7       0.4300951       101.1959
