####################################################################################################
# Month: 09Sep                                                                                     #
# Station: LOS                                                                                     #
# Frequency: 230 GHz                                                                               #
# Columns are: year    day     tau     Tb (K)                                                      #
####################################################################################################
2009    1       0.47127957      104.60815125
2009    2       0.50365575      109.3821125
2009    3       0.651334        130.7355875
2009    4       0.58184902      119.0836375
2009    5       0.76611745      145.0490125
2009    6       0.68574442      134.1781625
2009    7       0.58086965      121.25919125
2009    8       0.50945231      110.3568325
2009    9       0.64940451      129.2803625
2009    10      0.74877986      141.138975
2009    11      0.78751166      144.4136425
2009    12      0.59726721      122.0386
2009    13      0.5684952       118.49229
2009    14      0.5904571       121.32557375
2009    15      0.50696032      110.464735
2009    16      0.67284721      132.4654625
2009    17      0.7146505       137.5303375
2009    18      0.59431791      121.0712875
2009    19      0.56038912      117.3381625
2009    20      0.45012052      99.7808925
2009    21      0.20842282      52.78957875
2009    22      0.16743439      44.396295
2009    23      0.26197205      63.5132075
2009    24      0.37876299      84.75980125
2009    25      0.30765549      73.2778875
2009    26      0.21207598      55.24414875
2009    27      0.16819118      46.1661575
2009    28      0.19881819      52.8834625
2009    29      0.27124629      67.097305
2009    30      0.39987844      91.61189625
2010    1       0.2374287       61.70862125
2010    2       0.15780114      43.91593
2010    3       0.30945226      76.4062625
2010    4       0.26299048      66.70419125
2010    5       0.22793616      59.517995
2010    6       0.2771519       67.1550975
2010    7       0.20587008      52.66251125
2010    8       0.70476082      134.6102125
2010    9       0.4980193       103.43422875
2010    10      0.15076301      41.52872625
2010    11      0.08991172      27.8110325
2010    12      0.13621593      38.076705
2010    13      0.47893574      102.26006375
2010    14      0.3805273       89.18257125
2010    15      0.2410489       62.56427125
2010    16      0.29604369      72.82073375
2010    17      0.31747844      77.24015125
2010    18      0.3595855       85.87935625
2010    19      0.32477754      79.037745
2010    20      0.41274268      95.14336125
2010    21      0.47316464      105.60385
2010    22      0.73201184      137.20345125
2010    23      0.87742229      140.41933
2010    24      0.13910221      39.75943375
2010    25      0.21078628      55.6913475
2010    26      0.3047888       75.16154375
2010    27      0.2321945       60.73211125
2010    28      0.33698986      81.888895
2010    29      0.25875863      66.28079375
2010    30      0.35550546      84.889685
2011    1       0.63689269      130.833975
2011    2       0.69476241      139.1051375
2011    3       0.65930411      133.6327125
2011    4       0.77313362      146.9715875
2011    5       0.53811219      112.686055
2011    6       0.62705335      126.1861
2011    7       0.75438899      143.9163375
2011    8       0.43359362      98.0167475
2011    9       0.63413245      127.4762625
2011    10      0.68549504      133.813375
2011    11      0.52030011      109.99528875
2011    12      0.60001691      123.294175
2011    13      0.44799994      99.40694625
2011    14      0.52230485      110.79586375
2011    15      0.5215504       108.86283
2011    16      0.43882209      97.10932
2011    17      0.40937354      92.9888925
2011    18      0.26611376      65.98266875
2011    19      0.29829828      72.92343875
2011    20      0.23003439      59.1509225
2011    21      0.27455835      67.98456125
2011    22      0.14951782      41.2221625
2011    23      0.1555396       43.02374875
2011    24      0.22160572      57.1306875
2011    25      0.28044674      69.42116375
2011    26      0.32278316      77.21875
2011    27      0.52853911      111.95360875
2011    28      0.45431348      100.30426
2011    29      0.43847828      98.48914
2011    30      0.52962056      113.07563
2012    1       0.45593724      102.1336775
2012    2       0.67524785      136.4033875
2012    3       0.69989671      139.4949375
2012    4       0.56070269      119.224475
2012    5       0.50362485      109.48065375
2012    6       0.5595763       118.720825
2012    7       0.66733444      132.7971875
2012    8       0.64873389      129.9469625
2012    9       0.38990156      88.9891725
2012    10      0.40705499      91.15183375
2012    11      0.58312222      121.273735
2012    12      0.87018562      157.21
2012    13      0.61746699      121.51573125
2012    14      0.1815244       47.93545125
2012    15      0.11799435      34.081175
2012    16      0.17756486      47.90025125
2012    17      0.155152        42.60119375
2012    18      0.22853162      57.628495
2012    19      0.15387659      42.826075
2012    20      0.18193496      49.01034375
2012    21      0.2236927       58.18306875
2012    22      0.28650599      71.087335
2012    23      0.35313264      83.40157375
2012    24      0.51483006      110.417355
2012    25      0.41578032      93.32294375
2012    26      0.34789398      81.53126375
2012    27      0.3755087       87.07321375
2012    28      0.45992795      97.7847275
2012    29      0.51128739      106.42425
2012    30      0.38523478      88.36582375
2013    1       0.69511434      138.513975
2013    2       0.9931181       171.108025
2013    3       0.75210496      145.8041375
2013    4       0.65296849      128.3779325
2013    5       0.42620658      97.5459825
2013    6       0.41613898      96.3463075
2013    7       0.42439544      97.40676375
2013    8       0.60214405      125.8525875
2013    9       0.70638522      139.8548625
2013    10      0.8972071       158.4107
2013    11      1.21945837      192.8901125
2013    12      0.96451724      167.9569
2013    13      1.2427722       193.5673
2013    14      1.00781536      173.0154875
2013    15      0.96607521      167.9487375
2013    16      0.82190556      152.4975125
2013    17      0.53771969      115.16423375
2013    18      0.59656691      125.4026125
2013    19      0.57859351      118.96370375
2013    20      0.4017387       92.852275
2013    21      0.43599741      98.5175575
2013    22      0.43526724      98.78183625
2013    23      0.32517254      71.918895
2013    24      0.1447549       40.82358
2013    25      0.16941429      46.7703975
2013    26      0.21168995      56.257785
2013    27      0.44291275      99.95930875
2013    28      0.11614853      31.91241875
2013    29      0.11694251      34.07569875
2013    30      0.23041404      58.47257625
2014    1       0.35910424      85.93164625
2014    2       0.26904961      68.4563875
2014    3       0.40569209      94.72561
2014    4       0.47980046      104.3289575
2014    5       0.79447786      149.0018625
2014    6       0.45683155      100.13570375
2014    7       0.41591029      95.37940375
2014    8       0.56940055      120.3283875
2014    9       0.88005879      160.40695
2014    10      0.47000302      103.7583125
2014    11      0.31195029      76.55008625
2014    12      0.39765878      88.091375
2014    13      0.33961358      80.2154625
2014    14      0.39222816      91.239255
2014    15      0.52525647      112.75316
2014    16      0.70494259      137.6107375
2014    17      0.62288274      127.136875
2014    18      0.31411894      75.82626625
2014    19      0.35516572      84.41762375
2014    20      0.52440861      114.88315
2014    21      0.65999223      129.581335
2014    22      1.12890375      185.758575
2014    23      0.51053846      107.2091
2014    24      0.4475943       100.2781725
2014    25      0.61696932      126.60726625
2014    26      0.58510722      122.8459225
2014    27      0.6590408       132.987525
2014    28      0.7931984       146.96929375
2014    29      0.73221024      141.789575
2014    30      0.21455904      55.77247375
2015    1       0.62464376      126.65545
2015    2       0.76761446      146.86265
2015    3       0.68147153      135.2991
2015    4       0.8127183       150.3588625
2015    5       0.95005078      167.1655375
2015    6       0.56288467      117.40758375
2015    7       0.60855733      123.522025
2015    8       0.49275682      106.0234375
2015    9       0.54118655      115.188325
2015    10      0.28303831      70.27252875
2015    11      0.30245701      73.81525125
2015    12      0.28763569      70.84179875
2015    13      0.27227489      67.96963
2015    14      0.38237394      85.53379375
2015    15      0.61524242      126.0716725
2015    16      0.3553984       83.1637625
2015    17      0.18568655      49.68192625
2015    18      0.17405486      47.162065
2015    19      0.22750928      58.7387875
2015    20      0.26624814      65.3997825
2015    21      0.1789388       48.52339375
2015    22      0.77582078      143.75883875
2015    23      0.62004122      124.7103225
2015    24      0.45943681      99.44337875
2015    25      0.1935733       51.13033125
2015    26      0.33496344      80.9964975
2015    27      0.34103109      82.07304625
2015    28      0.3027815       74.2846775
2015    29      0.52217956      112.26108125
2015    30      0.63332524      129.14
2016    1       0.51749475      110.46677625
2016    2       0.74008666      141.77885
2016    3       0.71027912      138.1888375
2016    4       0.59150106      122.66517875
2016    5       0.39959866      91.5922
2016    6       0.74844208      143.00215
2016    7       0.61900331      124.7890375
2016    8       0.43206658      95.17812875
2016    9       0.14065105      39.96547125
2016    10      0.20427849      54.1503425
2016    11      0.28407984      68.86002875
2016    12      0.33727675      78.69896
2016    13      0.45702504      100.18778125
2016    14      0.59665959      122.423175
2016    15      0.4060269       90.2769025
2016    16      0.39806361      90.53957125
2016    17      0.3470139       81.91515
2016    18      0.10940181      32.3723225
2016    19      0.14839948      41.94065
2016    20      0.26097016      64.9653475
2016    21      0.7344661       141.0542
2016    22      0.93413638      165.3853125
2016    23      0.5710805       115.4161325
2016    24      0.20214132      51.53505125
2016    25      0.2167432       56.23135375
2016    26      0.20962669      55.08279375
2016    27      0.22563276      58.1609375
2016    28      0.28957976      71.17017125
2016    29      0.42776332      96.02942125
2016    30      0.41270916      92.46078125
2017    1       0.50326381      109.23375125
2017    2       0.54351206      113.76505375
2017    3       0.48877905      107.9752375
2017    4       0.55547862      117.91593375
2017    5       0.5224872       111.6015225
2017    6       0.44782982      101.65987875
2017    7       0.57508909      121.062425
2017    8       0.57114366      120.1459875
2017    9       0.64525896      130.268725
2017    10      0.53440757      112.7260675
2017    11      0.62242029      127.1318625
2017    12      0.70436888      137.399625
2017    13      0.5519813       117.48665
2017    14      0.4389727       98.61386375
2017    15      0.40399586      89.4010225
2017    16      0.30968344      74.6209825
2017    17      0.45819231      101.2579825
2017    18      0.32894262      74.59344875
2017    19      0.13860111      39.009805
2017    20      0.15116956      42.2659125
2017    21      0.14964463      41.762725
2017    22      0.26715775      65.64838875
2017    23      0.69244202      135.043335
2017    24      0.31909597      70.6984125
2017    25      0.19681412      51.04753
2017    26      0.20675402      52.3759575
2017    27      0.54254206      112.89601375
2017    28      0.7621074       144.0766875
2017    29      0.65969688      130.6925625
2017    30      0.56609606      117.7418625
2018    1       0.62131535      127.0939125
2018    2       0.41580009      93.4878
2018    3       0.55905422      115.21491
2018    4       0.59308552      120.31177625
2018    5       0.54226696      114.31679375
2018    6       0.70276121      134.514125
2018    7       0.60619199      122.1978375
2018    8       0.42464994      95.698025
2018    9       0.45521012      101.58775125
2018    10      0.37104378      86.567605
2018    11      0.38989309      90.50663625
2018    12      0.34758584      82.68793875
2018    13      0.23648416      61.38066625
2018    14      0.20170598      53.8581775
2018    15      0.29357526      72.98966875
2018    16      0.43157938      99.0202075
2018    17      0.37648791      88.85093125
2018    18      0.33562058      81.774985
2018    19      0.64117639      128.30844625
2018    20      0.86971148      153.55489875
2018    21      0.27498305      68.2302525
2018    22      0.29995518      71.372365
2018    23      0.22092436      57.98570875
2018    24      0.31392151      76.96852875
2018    25      0.37082496      86.70064875
2018    26      0.38122522      88.20159625
2018    27      0.14587825      40.573855
2018    28      0.1247267       36.2999575
2018    29      0.14912154      41.60358875
2018    30      0.24427938      62.9031425
