####################################################################################################
# Month: 02Feb                                                                                     #
# Station: PAR                                                                                     #
# Frequency: 230 GHz                                                                               #
# Columns are: year    day     tau     Tb (K)                                                      #
####################################################################################################
2009    1       0.22183809      58.393295
2009    2       0.244523        63.48661625
2009    3       0.25898636      66.927525
2009    4       0.19465912      52.98579375
2009    5       0.16148846      45.4364025
2009    6       0.08423445      26.6377
2009    7       0.14885152      42.540585
2009    8       0.16416725      46.256305
2009    9       0.26309949      67.72141125
2009    10      0.21621975      57.817065
2009    11      0.18378825      50.963345
2009    12      0.1402744       40.8116825
2009    13      0.1200837       35.02897
2009    14      0.26542166      68.41852625
2009    15      0.32977924      80.03945875
2009    16      0.32521298      79.4714775
2009    17      0.41344318      96.7763475
2009    18      0.39946721      94.107605
2009    19      0.32669426      81.1513125
2009    20      0.25105002      65.93381
2009    21      0.19804062      54.12598125
2009    22      0.12959733      38.0651375
2009    23      0.13996765      40.71999
2009    24      0.17272583      47.336835
2009    25      0.2333554       61.065155
2009    26      0.3296831       79.78023
2009    27      0.31698864      78.1656575
2009    28      0.20858601      55.48506625
2010    1       0.57112346      122.491275
2010    2       0.29804616      74.184475
2010    3       0.21447082      57.45284875
2010    4       0.15973085      44.560725
2010    5       0.30601062      75.37181
2010    6       0.27833136      70.2748575
2010    7       0.31103672      76.64895625
2010    8       0.24361175      63.24246875
2010    9       0.1486754       42.37541625
2010    10      0.20247125      54.99069625
2010    11      0.27709213      70.521975
2010    12      0.31090405      78.43508
2010    13      0.3325244       83.00295125
2010    14      0.2093127       56.938095
2010    15      0.17360808      48.4102675
2010    16      0.19676605      53.78175625
2010    17      0.23458336      62.16066875
2010    18      0.29164661      74.41819125
2010    19      0.34465184      82.0517525
2010    20      0.37920939      88.12233625
2010    21      0.28895503      73.1008025
2010    22      0.28204682      71.98185375
2010    23      0.22847295      60.731935
2010    24      0.27084713      69.29821
2010    25      0.3854996       90.9890125
2010    26      0.28118754      70.8465175
2010    27      0.30128172      75.54414375
2010    28      0.41624728      97.9687725
2011    1       0.18725936      50.3621375
2011    2       0.49209574      110.073715
2011    3       0.79243265      154.5397375
2011    4       0.63427276      132.60535
2011    5       0.60974135      130.147225
2011    6       0.78185622      151.114425
2011    7       0.67854111      137.547635
2011    8       0.39438815      93.1523175
2011    9       0.41613392      98.02793
2011    10      0.34313311      83.52612125
2011    11      0.39183246      92.017375
2011    12      0.37657922      89.31924875
2011    13      0.34333294      83.70146875
2011    14      0.34327125      83.81368
2011    15      0.33431962      81.58736375
2011    16      0.51767804      113.212725
2011    17      0.51357909      113.0316575
2011    18      0.29392265      73.5293
2011    19      0.53841793      116.6228625
2011    20      0.64922706      133.168875
2011    21      0.79102289      151.398475
2011    22      0.66210849      135.2264125
2011    23      0.31059229      76.136565
2011    24      0.21755744      56.00955625
2011    25      0.40074344      92.59931125
2011    26      0.48638722      108.191425
2011    27      0.40520351      95.1881025
2011    28      0.46240202      105.199125
2012    1       0.41272131      96.8349175
2012    2       0.16019357      45.1522075
2012    3       0.17719951      49.4329575
2012    4       0.22221784      59.25943875
2012    5       0.30492195      74.79544125
2012    6       0.52075621      113.7837575
2012    7       0.79006939      152.0566375
2012    8       0.79081674      153.3365375
2012    9       0.50883264      112.03210375
2012    10      0.72108121      145.6389875
2012    11      0.86400268      161.770825
2012    12      0.87425702      162.7481125
2012    13      0.64034046      132.3695
2012    14      0.76789009      150.0465875
2012    15      0.72995194      144.8089
2012    16      0.91062019      166.180075
2012    17      0.97780452      173.6416125
2012    18      0.81409971      155.0983
2012    19      0.59407074      126.2555625
2012    20      0.32320872      79.29433875
2012    21      0.28837214      72.19824125
2012    22      0.34902948      84.75522
2012    23      0.25701221      66.16901875
2012    24      0.2552243       66.15709
2012    25      0.20424069      55.24883125
2012    26      0.25554648      66.3596375
2012    27      0.23382129      62.3181625
2012    28      0.13634199      39.68859875
2012    29      0.20301159      54.77650625
2013    1       0.20062598      54.07636875
2013    2       0.15421021      43.90945875
2013    3       0.15377934      43.68286875
2013    4       0.24817082      63.776975
2013    5       0.56706386      122.34948375
2013    6       0.61918366      131.2148
2013    7       0.63746689      132.7225875
2013    8       0.41632636      97.29020625
2013    9       0.28471641      72.02665875
2013    10      0.21194829      56.33813375
2013    11      0.25144984      63.87553125
2013    12      0.3659338       87.5561275
2013    13      0.31135969      77.5570025
2013    14      0.28627053      73.18191
2013    15      0.17849978      49.75998375
2013    16      0.11818811      35.32745625
2013    17      0.11346738      33.83172875
2013    18      0.15569675      44.3718525
2013    19      0.16065846      45.55216125
2013    20      0.14959598      42.96586
2013    21      0.13564136      39.85072375
2013    22      0.1680189       47.1592675
2013    23      0.28670611      71.758825
2013    24      0.33196586      81.07038625
2013    25      0.28039506      71.00369
2013    26      0.22820952      60.5660125
2013    27      0.24721072      65.01634
2013    28      0.214341        57.4944
2014    1       0.42986494      99.39807
2014    2       0.30934265      77.74043125
2014    3       0.33540225      82.98851625
2014    4       0.23456622      61.35492125
2014    5       0.27375344      69.24209875
2014    6       0.43938436      101.0869975
2014    7       0.39804239      93.89495
2014    8       0.25250778      65.693
2014    9       0.21240874      56.92597375
2014    10      0.22409861      59.76167625
2014    11      0.16246689      46.18566375
2014    12      0.10702646      32.5016625
2014    13      0.11693744      34.5962225
2014    14      0.12817935      37.33505
2014    15      0.11716346      34.86968
2014    16      0.10840097      32.46969375
2014    17      0.10371911      31.39257125
2014    18      0.10982485      32.782655
2014    19      0.10383745      31.3584725
2014    20      0.1024756       31.39578
2014    21      0.0954381       29.5313825
2014    22      0.10523169      32.144335
2014    23      0.10720236      32.62351875
2014    24      0.10952904      33.0064175
2014    25      0.09847641      30.16884875
2014    26      0.09651425      29.66811125
2014    27      0.11009354      32.9658475
2014    28      0.10376688      30.659815
2015    1       0.52057953      113.89455625
2015    2       0.48364988      107.08663875
2015    3       0.6079154       128.4558375
2015    4       0.31621529      78.22731625
2015    5       0.18530386      50.43539125
2015    6       0.31071098      74.77378375
2015    7       0.64758806      134.268925
2015    8       0.5058154       112.96282375
2015    9       0.37742868      90.26768375
2015    10      0.4988608       111.3290775
2015    11      0.39248116      93.3282025
2015    12      0.375263        90.65025
2015    13      0.2716822       70.46095625
2015    14      0.19098328      52.47695875
2015    15      0.18234246      50.3274525
2015    16      0.19328045      53.12091125
2015    17      0.21176199      57.32860625
2015    18      0.22347186      58.68597
2015    19      0.26171046      66.64654375
2015    20      0.20648511      54.78099125
2015    21      0.22452585      58.75930625
2015    22      0.20775666      55.87047875
2015    23      0.13039257      38.21575875
2015    24      0.11379102      34.35116625
2015    25      0.13708229      39.60883375
2015    26      0.2230343       59.2792525
2015    27      0.38602838      91.140915
2015    28      0.37449689      89.8129775
2016    1       0.28043731      71.7325525
2016    2       0.27066386      69.33343625
2016    3       0.23265812      61.27502
2016    4       0.24343764      63.90995125
2016    5       0.15705235      44.53527
2016    6       0.15856958      44.86874125
2016    7       0.38199966      89.6083875
2016    8       0.27496195      70.21418125
2016    9       0.17272625      48.7623025
2016    10      0.16282812      46.3351975
2016    11      0.15256481      43.0485925
2016    12      0.29433526      71.99990625
2016    13      0.51003702      111.39174375
2016    14      0.15256352      43.05005125
2016    15      0.10596897      32.06392
2016    16      0.11411175      34.14084875
2016    17      0.16719596      45.790925
2016    18      0.31736436      77.2263875
2016    19      0.17456144      47.95652375
2016    20      0.09973324      30.58051375
2016    21      0.15572993      44.16652625
2016    22      0.35027035      83.22478375
2016    23      0.67986695      139.3405
2016    24      0.7254858       145.5128
2016    25      0.33063001      81.83034125
2016    26      0.28794394      72.71567875
2016    27      0.24538353      64.2262475
2016    28      0.18000128      49.74552
2016    29      0.13981525      40.399865
2017    1       0.15438923      43.47414875
2017    2       0.21570116      57.00320125
2017    3       0.24976005      64.43130875
2017    4       0.2148447       57.14439375
2017    5       0.22500124      60.365495
2017    6       0.20432206      55.56401125
2017    7       0.19342334      52.95962875
2017    8       0.19335659      52.810785
2017    9       0.174339        48.417455
2017    10      0.14662441      42.19159
2017    11      0.15085245      42.35485375
2017    12      0.20171126      54.3818925
2017    13      0.24172654      63.39296375
2017    14      0.21473872      57.4116225
2017    15      0.15675384      44.34564125
2017    16      0.20402414      55.1985375
2017    17      0.26427029      68.34180625
2017    18      0.32227916      79.78625875
2017    19      0.31052314      77.98104875
2017    20      0.43672152      101.35018875
2017    21      0.7011158       142.17525
2017    22      0.73448471      145.835575
2017    23      0.77617999      152.2746125
2017    24      0.80332984      155.3366375
2017    25      0.76006476      148.87675
2017    26      0.739326        145.664825
2017    27      0.76475873      148.4522
2017    28      0.49435555      110.9718375
2018    1       0.461576        101.604575
2018    2       0.80740762      151.525325
2018    3       0.82524325      156.50295
2018    4       0.96780571      171.9130875
2018    5       0.96929585      172.3900375
2018    6       0.74134766      146.7669125
2018    7       0.6613287       136.7618375
2018    8       0.52493065      116.7878375
2018    9       0.36076484      88.0121525
2018    10      0.25383269      66.49299125
2018    11      0.18596945      51.31189125
2018    12      0.19635554      53.396805
2018    13      0.20995688      54.6360975
2018    14      0.64011126      131.50986625
2018    15      0.59106821      126.680405
2018    16      0.2066684       55.93534625
2018    17      0.1689984       47.066735
2018    18      0.15122825      41.84844625
2018    19      0.26049473      66.118485
2018    20      0.32829636      80.78319125
2018    21      0.21669726      57.77509375
2018    22      0.19989517      54.18277
2018    23      0.22392495      59.72902375
2018    24      0.23223956      61.4068175
2018    25      0.2127557       57.1795
2018    26      0.21783736      57.75958875
2018    27      0.19888231      53.77103625
2018    28      0.16730635      46.27076875
