####################################################################################################
# Month: 06Jun                                                                                     #
# Station: OVRO                                                                                    #
# Frequency: 345 GHz                                                                               #
# Columns are: year    day     tau     Tb (K)                                                      #
####################################################################################################
2009    1       4.37454575      275.2665875
2009    2       3.43644275      267.131925
2009    3       2.82257312      256.6982625
2009    4       2.64564313      249.149575
2009    5       2.23926513      243.1033625
2009    6       2.793852        254.2494375
2009    7       3.17696825      261.9905125
2009    8       3.38083012      266.3319
2009    9       3.4662345       266.89765
2009    10      3.4370875       264.764275
2009    11      3.42699438      265.518875
2009    12      3.45017888      267.63255
2009    13      3.55048587      266.922375
2009    14      3.119           262.5851625
2009    15      3.33051525      265.75315
2009    16      3.80857112      269.239825
2009    17      4.06840975      272.8419
2009    18      4.08937162      273.883825
2009    19      3.30680262      271.0127625
2009    20      1.72411364      206.87765
2009    21      1.32498304      202.206425
2009    22      1.76394575      228.934875
2009    23      1.69626638      227.8285
2009    24      1.656484        229.0239625
2009    25      1.99220925      243.4198
2009    26      2.87448075      264.9761625
2009    27      1.99360488      241.9959625
2009    28      2.21821525      253.4635375
2009    29      2.98426375      272.1565375
2009    30      4.01021488      278.6131375
2010    1       3.71835025      269.7814125
2010    2       4.37400275      276.1513875
2010    3       3.71366562      272.0946125
2010    4       4.5452445       280.791025
2010    5       3.70846262      278.0013625
2010    6       3.105203        271.46975
2010    7       2.37682337      247.6561375
2010    8       3.87960012      277.4124625
2010    9       3.48874825      274.7047
2010    10      1.22846162      154.74342625
2010    11      1.51937788      213.5900125
2010    12      2.19944838      240.7685375
2010    13      2.01571725      234.639025
2010    14      1.29837176      201.92525
2010    15      2.183683        248.1218125
2010    16      0.97705911      171.4970625
2010    17      1.04949964      180.4117
2010    18      1.22419258      195.5145
2010    19      1.0327546       178.310125
2010    20      1.12645118      187.26905
2010    21      1.70476212      227.007825
2010    22      2.14266225      241.3595
2010    23      1.93071462      239.5232875
2010    24      2.465978        256.0941125
2010    25      3.68926588      273.7358375
2010    26      4.2133545       277.3023125
2010    27      3.13566063      271.7339875
2010    28      2.41911287      260.54515
2010    29      2.51261175      258.3645
2010    30      2.19966925      252.198725
2011    1       1.25883899      194.8799625
2011    2       0.97761934      167.880325
2011    3       1.36506         200.178925
2011    4       1.94749325      229.0942
2011    5       3.06679812      261.157
2011    6       2.60312675      250.7497875
2011    7       2.33323638      247.7946375
2011    8       2.27678538      246.99055
2011    9       2.45735912      253.9308875
2011    10      2.38295075      252.7451125
2011    11      3.0271015       265.2874375
2011    12      2.68397113      258.666975
2011    13      3.16473512      268.7876875
2011    14      3.153959        269.9560375
2011    15      3.0463705       271.2179
2011    16      2.15808341      235.6274875
2011    17      2.518123        255.400175
2011    18      2.427432        252.8111125
2011    19      3.65005575      268.663475
2011    20      1.61614575      227.628275
2011    21      1.93254812      242.4423125
2011    22      2.38277025      258.5365375
2011    23      1.8411605       236.9959125
2011    24      1.171162        189.6831375
2011    25      1.37241456      208.1383625
2011    26      1.40529201      211.4795125
2011    27      1.91223238      241.45925
2011    28      1.81199137      236.756075
2011    29      2.35537588      247.630475
2011    30      2.39003062      252.6405125
2012    1       2.11246125      249.376575
2012    2       1.87290075      234.0558375
2012    3       2.04107338      246.4336
2012    4       2.36101725      255.9474375
2012    5       1.31474627      177.7237375
2012    6       1.31545137      200.6223125
2012    7       1.56653575      218.7485875
2012    8       2.219405        250.6592625
2012    9       0.77932374      147.106685
2012    10      0.93605626      166.448875
2012    11      0.903333        164.9385125
2012    12      1.05697795      183.154175
2012    13      1.419705        214.0450875
2012    14      1.78077862      235.7464875
2012    15      2.64958125      261.645375
2012    16      2.16591025      250.5034625
2012    17      1.79198995      230.7429375
2012    18      1.4932735       219.3650875
2012    19      1.09095682      180.9522875
2012    20      1.14244225      194.509225
2012    21      1.4450365       217.1379
2012    22      1.09154932      183.4743375
2012    23      1.65907425      227.0319875
2012    24      1.225673        199.4963375
2012    25      1.18360411      193.73145
2012    26      1.04238355      177.47375
2012    27      1.12318563      191.3378625
2012    28      0.84951564      162.5164375
2012    29      0.83773207      161.9309625
2012    30      1.35798425      211.7637625
2013    1       1.30216338      203.0618625
2013    2       1.763637        233.5977625
2013    3       2.13046388      249.0373
2013    4       2.29430662      253.9225375
2013    5       2.11640625      246.7568
2013    6       1.79728175      234.8324375
2013    7       1.957459        243.532225
2013    8       2.14826375      252.6031875
2013    9       2.32023475      260.979925
2013    10      1.67331962      226.5349
2013    11      3.27948912      269.6550875
2013    12      2.19568588      248.9466875
2013    13      1.07001522      169.7017875
2013    14      0.76998018      150.445125
2013    15      0.86894608      163.5201375
2013    16      1.15366575      192.54555
2013    17      1.45383025      215.48535
2013    18      1.19840765      193.778625
2013    19      0.82911345      145.3371625
2013    20      1.02798665      178.794775
2013    21      1.26742562      200.93335
2013    22      1.6925865       227.8274375
2013    23      2.01891937      242.4111125
2013    24      3.92030775      271.614375
2013    25      4.11071088      276.1751625
2013    26      3.32002375      273.979875
2013    27      3.4333765       278.4954375
2013    28      3.205703        278.0015
2013    29      3.3065          278.8292
2013    30      3.227225        277.0559125
2014    1       0.95190895      172.5513125
2014    2       0.85003586      160.1352375
2014    3       1.01646796      177.975525
2014    4       1.14242078      191.369775
2014    5       1.49509712      218.543825
2014    6       1.69274262      228.843675
2014    7       1.66982313      228.885325
2014    8       1.83307925      230.8577
2014    9       1.90921712      241.030675
2014    10      2.30768925      254.7290125
2014    11      3.345856        272.0416
2014    12      2.104266        239.00695
2014    13      0.98888246      175.5785875
2014    14      1.01809555      177.2981375
2014    15      1.735197        227.435025
2014    16      2.32197262      249.0728
2014    17      1.57603125      216.744225
2014    18      1.19146888      192.90555
2014    19      1.35582862      207.1152625
2014    20      1.22318865      196.7816875
2014    21      1.47127775      214.8103125
2014    22      1.318187        204.79485
2014    23      1.482578        217.97125
2014    24      1.94050162      242.7105
2014    25      1.923039        238.8432375
2014    26      3.45786638      267.4195625
2014    27      2.98575862      263.7135875
2014    28      2.83919425      264.229075
2014    29      2.0340285       247.810175
2014    30      2.22204         255.636075
2015    1       1.32298051      199.179175
2015    2       1.12836045      189.8382875
2015    3       1.98902512      240.9497375
2015    4       2.64461625      256.3272
2015    5       2.58656262      253.0846125
2015    6       2.51042112      253.19385
2015    7       3.25812738      266.2234
2015    8       2.70545712      261.7070375
2015    9       2.4680675       258.0412
2015    10      4.06817288      274.3214625
2015    11      4.89819825      277.1438125
2015    12      4.47279437      278.2515625
2015    13      3.0565225       268.4901375
2015    14      3.212554        271.0559875
2015    15      1.28741268      197.8822875
2015    16      0.7891752       154.8984375
2015    17      1.24442437      202.487375
2015    18      1.412568        215.7997875
2015    19      0.94845942      172.6966125
2015    20      1.02239062      184.78515
2015    21      1.03081691      179.3313125
2015    22      0.65561234      135.8330375
2015    23      0.96624482      177.195675
2015    24      1.57106812      225.719375
2015    25      1.58140412      225.051775
2015    26      2.40714388      253.7920875
2015    27      4.00529137      282.0986
2015    28      4.554869        281.320825
2015    29      5.1912045       283.3956
2015    30      5.41088187      286.4466625
2016    1       2.21646412      251.0587125
2016    2       2.06280075      246.267675
2016    3       1.97661712      242.7057
2016    4       1.55684675      223.5437
2016    5       1.54761038      222.3879875
2016    6       2.91579488      267.4522625
2016    7       3.25802225      272.6200125
2016    8       2.73599738      267.4559875
2016    9       1.30929965      202.556775
2016    10      1.7393265       230.9269375
2016    11      2.38509825      242.367675
2016    12      4.37674275      273.9875375
2016    13      3.08103763      263.5310625
2016    14      1.87254075      229.984925
2016    15      1.98709025      240.3636125
2016    16      1.17751918      189.7686875
2016    17      1.7741355       229.0676625
2016    18      1.59334925      217.2870375
2016    19      1.04103249      180.8409875
2016    20      2.92171862      266.0933875
2016    21      3.13572975      273.1370375
2016    22      2.87654625      269.5066875
2016    23      1.45846475      215.001725
2016    24      1.24846462      202.1485125
2016    25      1.4365145       215.6354625
2016    26      1.56360838      225.300525
2016    27      2.023126        248.03725
2016    28      3.10562325      273.9012125
2016    29      4.86981012      283.6193125
2016    30      3.89599825      279.6322875
2017    1       2.66492813      261.520575
2017    2       2.4583895       259.7939875
2017    3       1.84906412      239.453725
2017    4       2.39847325      261.0119125
2017    5       1.99338712      246.833675
2017    6       1.67446812      232.0096625
2017    7       1.357987        211.573425
2017    8       1.5032115       219.296425
2017    9       2.51759538      260.6466625
2017    10      2.47283763      259.143025
2017    11      1.23987938      199.91005
2017    12      1.40042262      205.3610625
2017    13      1.96221513      239.804825
2017    14      2.052374        245.3575625
2017    15      1.778556        239.1951
2017    16      2.06315012      249.54735
2017    17      3.27062975      277.6847875
2017    18      3.84059288      286.2032
2017    19      3.224366        279.7173625
2017    20      2.66687512      272.7093
2017    21      2.82992912      274.96405
2017    22      3.31714838      281.1869625
2017    23      2.787917        270.320825
2017    24      2.681364        269.1870125
2017    25      3.38768875      280.3431875
2017    26      2.21424525      257.59185
2017    27      1.0327181       186.3200625
2017    28      1.19752879      201.76845
2017    29      1.42706325      219.337325
2017    30      1.76749275      235.584025
2018    1       1.5451025       220.5191875
2018    2       1.2132165       199.9709125
2018    3       1.17201365      196.6621125
2018    4       1.61491         229.0277625
2018    5       1.61509725      227.5533625
2018    6       2.0183725       247.0271875
2018    7       2.125199        247.06125
2018    8       1.94065662      242.898475
2018    9       1.46840325      219.0215625
2018    10      1.6086075       224.6123375
2018    11      1.77667538      236.26915
2018    12      1.80872125      239.0936125
2018    13      2.11617813      254.39885
2018    14      1.83124238      243.209475
2018    15      1.80958788      241.966925
2018    16      1.88560075      241.22085
2018    17      1.85733414      235.4144625
2018    18      2.0859605       243.635525
2018    19      2.56549875      264.363275
2018    20      2.03691125      252.0973375
2018    21      1.32273871      210.6649125
2018    22      0.91165286      174.271125
2018    23      1.44453138      220.352075
2018    24      1.780336        240.9390125
2018    25      2.37992625      263.6265375
2018    26      2.03707962      251.557425
2018    27      1.69165962      236.8217625
2018    28      1.07311508      187.845375
2018    29      1.97100212      242.82645
2018    30      2.17186388      254.4093625
