####################################################################################################
# Month: 12Dec                                                                                     #
# Station: VLA                                                                                     #
# Frequency: 230 GHz                                                                               #
# Columns are: year    day     segment         tau     Tb (K)                                      #
####################################################################################################
2009    1       0       0.3531379       82.25711
2009    1       1       0.3616706       83.11971
2009    1       2       0.463118        101.2369
2009    1       3       0.3623192       84.17028
2009    1       4       0.3754224       86.37646
2009    1       5       0.23201         59.00599
2009    1       6       0.1784819       48.0493
2009    1       7       0.1704584       46.27854
2009    2       0       0.1729342       46.75225
2009    2       1       0.1709685       46.40685
2009    2       2       0.1686117       45.63855
2009    2       3       0.1644635       44.59949
2009    2       4       0.1712915       46.10525
2009    2       5       0.1720179       46.22164
2009    2       6       0.1772228       47.32146
2009    2       7       0.1928216       50.66819
2009    3       0       0.1862271       49.3432
2009    3       1       0.18387         48.87571
2009    3       2       0.201901        52.6036
2009    3       3       0.222458        56.7165
2009    3       4       0.2423238       60.68203
2009    3       5       0.2356262       59.23795
2009    3       6       0.2224673       56.36948
2009    3       7       0.2052529       52.62792
2009    4       0       0.1404654       38.3985
2009    4       1       0.08080097      24.61057
2009    4       2       0.07614401      23.44827
2009    4       3       0.0742271       22.99298
2009    4       4       0.06781721      21.63044
2009    4       5       0.0626158       20.29899
2009    4       6       0.06750375      21.47232
2009    4       7       0.09405324      27.67151
2009    5       0       0.1172361       33.29779
2009    5       1       0.1236797       34.89436
2009    5       2       0.1099065       31.58669
2009    5       3       0.1138727       32.51287
2009    5       4       0.1034563       30.37007
2009    5       5       0.103405        30.4164
2009    5       6       0.1170215       33.44099
2009    5       7       0.1215358       34.62114
2009    6       0       0.1505019       40.80779
2009    6       1       0.230947        57.8635
2009    6       2       0.217606        55.14615
2009    6       3       0.1511398       41.5852
2009    6       4       0.1742859       46.73826
2009    6       5       0.2051241       53.38992
2009    6       6       0.1655926       45.01693
2009    6       7       0.1557445       43.00468
2009    7       0       0.1770695       47.74239
2009    7       1       0.2659293       66.92921
2009    7       2       0.3395634       81.08406
2009    7       3       0.4070417       92.93186
2009    7       4       0.4125573       93.54092
2009    7       5       0.4972373       106.8669
2009    7       6       0.4790686       103.5814
2009    7       7       0.5695642       117.6938
2009    8       0       0.5581878       116.4695
2009    8       1       0.6217398       125.7379
2009    8       2       0.4846702       105.946
2009    8       3       0.5152676       110.2864
2009    8       4       0.5679751       117.3775
2009    8       5       0.1947478       50.56913
2009    8       6       0.1669923       44.74031
2009    8       7       0.1608649       43.77094
2009    9       0       0.179084        47.88337
2009    9       1       0.1715782       46.37517
2009    9       2       0.1403019       39.14456
2009    9       3       0.1625603       43.93761
2009    9       4       0.208244        53.90435
2009    9       5       0.2624536       64.48088
2009    9       6       0.2504782       62.17085
2009    9       7       0.1752871       46.6422
2009    10      0       0.1364087       38.53325
2009    10      1       0.1326978       37.89756
2009    10      2       0.1024656       30.52978
2009    10      3       0.07888968      24.5341
2009    10      4       0.07705992      24.04648
2009    10      5       0.09209979      27.19585
2009    10      6       0.1680193       44.42846
2009    10      7       0.2986077       71.0729
2009    11      0       0.4482291       97.56005
2009    11      1       0.3121071       74.69176
2009    11      2       0.2380953       60.49405
2009    11      3       0.22476         57.64458
2009    11      4       0.2382457       60.49271
2009    11      5       0.2326314       59.42499
2009    11      6       0.2649585       65.81582
2009    11      7       0.3223643       76.88877
2009    12      0       0.3700126       85.69854
2009    12      1       0.3517166       82.73269
2009    12      2       0.2968392       72.57098
2009    12      3       0.3049176       74.02
2009    12      4       0.3411688       80.61733
2009    12      5       0.3597047       83.86695
2009    12      6       0.2859738       70.27727
2009    12      7       0.2656146       66.12182
2009    13      0       0.2756111       68.23581
2009    13      1       0.2999565       73.12117
2009    13      2       0.259855        65.06845
2009    13      3       0.2293032       58.75146
2009    13      4       0.2461221       62.55804
2009    13      5       0.2918453       72.12467
2009    13      6       0.3001336       74.21168
2009    13      7       0.3029965       74.32347
2009    14      0       0.3982642       91.58943
2009    14      1       0.5192444       111.469
2009    14      2       0.5555524       117.1078
2009    14      3       0.4818836       105.4563
2009    14      4       0.4979893       107.0214
2009    14      5       0.571462        117.7197
2009    14      6       0.7617441       142.7516
2009    14      7       0.7820197       145.3547
2009    15      0       0.5194583       110.0136
2009    15      1       0.2662099       65.74045
2009    15      2       0.1670334       45.1853
2009    15      3       0.1518964       41.87768
2009    15      4       0.1245681       35.91694
2009    15      5       0.09905929      29.67244
2009    15      6       0.1120661       32.85419
2009    15      7       0.1021441       30.59702
2009    16      0       0.1080781       32.15062
2009    16      1       0.08986571      27.60649
2009    16      2       0.06601706      21.52139
2009    16      3       0.07704576      24.25022
2009    16      4       0.09054615      27.44343
2009    16      5       0.137891        38.86279
2009    16      6       0.2157191       56.51991
2009    16      7       0.2752351       68.30367
2009    17      0       0.3198817       77.0924
2009    17      1       0.2734028       68.13568
2009    17      2       0.1843571       49.53656
2009    17      3       0.1884213       50.46197
2009    17      4       0.2136179       56.0353
2009    17      5       0.2083385       55.01068
2009    17      6       0.1823634       49.21363
2009    17      7       0.1711171       46.71921
2009    18      0       0.1677015       45.77643
2009    18      1       0.1566904       43.13387
2009    18      2       0.1803953       47.91038
2009    18      3       0.2049955       53.02413
2009    18      4       0.228781        57.97287
2009    18      5       0.2631405       65.04676
2009    18      6       0.31179         74.80783
2009    18      7       0.3437853       80.78545
2009    19      0       0.3521121       82.42107
2009    19      1       0.3587015       83.43929
2009    19      2       0.3485879       81.50921
2009    19      3       0.323258        76.83167
2009    19      4       0.2995863       72.35784
2009    19      5       0.267355        66.18065
2009    19      6       0.2056802       53.83156
2009    19      7       0.1748936       47.40904
2009    20      0       0.1593365       43.97387
2009    20      1       0.144898        40.65578
2009    20      2       0.1390607       39.1381
2009    20      3       0.117076        33.76136
2009    20      4       0.1033743       30.26766
2009    20      5       0.09825047      28.87455
2009    20      6       0.1198747       33.95065
2009    20      7       0.1366211       37.82299
2009    21      0       0.1541963       41.81805
2009    21      1       0.1924942       50.31882
2009    21      2       0.2471942       61.20289
2009    21      3       0.2014027       51.85173
2009    21      4       0.1870378       49.19015
2009    21      5       0.1736061       46.78671
2009    21      6       0.1835476       49.01027
2009    21      7       0.2240226       57.24399
2009    22      0       0.2862876       69.38706
2009    22      1       0.3278521       77.57079
2009    22      2       0.3757911       85.9983
2009    22      3       0.3906854       88.59221
2009    22      4       0.4413166       96.64199
2009    22      5       0.3536371       82.14592
2009    22      6       0.4227868       93.66811
2009    22      7       0.4078199       91.12849
2009    23      0       0.3283985       77.40415
2009    23      1       0.4786053       103.5316
2009    23      2       0.400999        89.91818
2009    23      3       0.193648        50.14319
2009    23      4       0.2357567       58.39824
2009    23      5       0.3024751       70.97441
2009    23      6       0.4417157       94.86123
2009    23      7       0.3584033       81.11458
2009    24      0       0.3343657       77.40012
2009    24      1       0.4093126       91.36246
2009    24      2       0.2752731       67.20605
2009    24      3       0.2069912       53.85004
2009    24      4       0.1917244       50.2658
2009    24      5       0.153019        41.90634
2009    24      6       0.1101786       31.97881
2009    24      7       0.0881634       26.70957
2009    25      0       0.07963881      24.72239
2009    25      1       0.08120334      25.18023
2009    25      2       0.08153261      25.0805
2009    25      3       0.07830049      24.15507
2009    25      4       0.08922393      26.84721
2009    25      5       0.1093905       31.71951
2009    25      6       0.1405022       38.91929
2009    25      7       0.1710331       45.56233
2009    26      0       0.1713305       45.56925
2009    26      1       0.1629893       43.52415
2009    26      2       0.1587078       42.45557
2009    26      3       0.1401832       38.55005
2009    26      4       0.1209568       34.11388
2009    26      5       0.1095864       31.6005
2009    26      6       0.1214645       34.37753
2009    26      7       0.1298749       36.37305
2009    27      0       0.1314882       36.7498
2009    27      1       0.132487        36.97862
2009    27      2       0.1386251       38.23384
2009    27      3       0.1483221       40.24362
2009    27      4       0.2183709       54.65889
2009    27      5       0.2046981       52.29883
2009    27      6       0.1848352       48.43111
2009    27      7       0.2165975       55.2848
2009    28      0       0.2175499       55.57074
2009    28      1       0.1854672       48.91263
2009    28      2       0.1619502       43.68299
2009    28      3       0.1631424       43.79215
2009    28      4       0.1679825       44.76607
2009    28      5       0.1873166       48.75498
2009    28      6       0.2172745       54.94094
2009    28      7       0.2651419       64.52686
2009    29      0       0.3213181       75.23804
2009    29      1       0.4060006       90.60095
2009    29      2       0.3190634       74.71874
2009    29      3       0.3758427       84.9402
2009    29      4       0.5472465       112.664
2009    29      5       0.5610038       114.8433
2009    29      6       0.5821895       117.8996
2009    29      7       0.6076283       121.2719
2009    30      0       0.4928562       104.7575
2009    30      1       0.3809812       86.56184
2009    30      2       0.3480377       80.77817
2009    30      3       0.3112658       74.05082
2009    30      4       0.2640196       64.89972
2009    30      5       0.2689938       66.23494
2009    30      6       0.3168695       74.96383
2009    30      7       0.4147463       92.31289
2009    31      0       0.5121851       108.2059
2009    31      1       0.5071612       107.1733
2009    31      2       0.3921379       88.62038
2009    31      3       0.3554007       82.09291
2009    31      4       0.2789335       67.31749
2009    31      5       0.14102         38.69867
2009    31      6       0.09109642      27.38131
2009    31      7       0.09039096      27.31982
2010    1       0       0.1371284       38.2886
2010    1       1       0.1494806       41.09114
2010    1       2       0.182666        48.47989
2010    1       3       0.2258963       57.76427
2010    1       4       0.3134043       75.5044
2010    1       5       0.3202789       76.93478
2010    1       6       0.3161028       76.27286
2010    1       7       0.3205949       77.44662
2010    2       0       0.2940031       72.71229
2010    2       1       0.262509        66.60849
2010    2       2       0.2705405       68.06766
2010    2       3       0.2930816       72.17392
2010    2       4       0.2909602       71.71256
2010    2       5       0.2829518       70.08824
2010    2       6       0.2761304       68.8187
2010    2       7       0.2690324       67.53999
2010    3       0       0.2714346       68.04184
2010    3       1       0.2651736       66.97852
2010    3       2       0.2649188       66.79732
2010    3       3       0.3081862       75.02465
2010    3       4       0.3463469       82.1806
2010    3       5       0.3251419       78.30163
2010    3       6       0.2932765       72.1918
2010    3       7       0.2939357       72.26898
2010    4       0       0.2859796       71.01058
2010    4       1       0.2504242       63.5365
2010    4       2       0.249944        63.1577
2010    4       3       0.1997384       53.07549
2010    4       4       0.1835632       49.37384
2010    4       5       0.1796983       48.29358
2010    4       6       0.1985615       52.28523
2010    4       7       0.2148079       55.58912
2010    5       0       0.2089087       54.2857
2010    5       1       0.2236086       57.08352
2010    5       2       0.2634802       64.8485
2010    5       3       0.2573971       64.21911
2010    5       4       0.2687196       66.83754
2010    5       5       0.2995703       73.00799
2010    5       6       0.3405599       80.95674
2010    5       7       0.4089233       93.77931
2010    6       0       0.3807786       89.01984
2010    6       1       0.3555624       84.23554
2010    6       2       0.3929675       90.50614
2010    6       3       0.4072564       93.40112
2010    6       4       0.4334942       98.45946
2010    6       5       0.5082776       111.0543
2010    6       6       0.5439187       117.0313
2010    6       7       0.5732503       121.2331
2010    7       0       0.5027522       110.3647
2010    7       1       0.4318957       98.83598
2010    7       2       0.3369159       81.87306
2010    7       3       0.2569225       66.02084
2010    7       4       0.2721113       69.69718
2010    7       5       0.3264655       79.13017
2010    7       6       0.1756162       47.85006
2010    7       7       0.1631499       45.17222
2010    8       0       0.1783893       48.66647
2010    8       1       0.1552777       43.5147
2010    8       2       0.1539768       43.31685
2010    8       3       0.1486735       42.23411
2010    8       4       0.1454247       41.34063
2010    8       5       0.1442192       40.92779
2010    8       6       0.1304463       37.5753
2010    8       7       0.1446207       40.71925
2010    9       0       0.1604205       44.30789
2010    9       1       0.1639561       45.01917
2010    9       2       0.1950827       51.62559
2010    9       3       0.1909049       50.31557
2010    9       4       0.2101102       54.37693
2010    9       5       0.2890431       70.70493
2010    9       6       0.3678644       86.11877
2010    9       7       0.4450949       100.2822
2010    10      0       0.4241577       96.93933
2010    10      1       0.3881817       90.41846
2010    10      2       0.3512773       83.56097
2010    10      3       0.3879839       90.21161
2010    10      4       0.3642971       86.71686
2010    10      5       0.3418269       82.34761
2010    10      6       0.3163985       77.65464
2010    10      7       0.3453892       82.76372
2010    11      0       0.4192366       96.15549
2010    11      1       0.4306691       98.44165
2010    11      2       0.4306063       98.80756
2010    11      3       0.4305903       98.67841
2010    11      4       0.4053885       94.53734
2010    11      5       0.3892451       91.96299
2010    11      6       0.4187834       96.678
2010    11      7       0.4098266       94.96811
2010    12      0       0.389931        91.17757
2010    12      1       0.3300411       79.94087
2010    12      2       0.2666202       67.71511
2010    12      3       0.3277212       80.09525
2010    12      4       0.3547463       84.94533
2010    12      5       0.3897646       91.40259
2010    12      6       0.3347046       81.67992
2010    12      7       0.2887496       72.72039
2010    13      0       0.2514371       65.25869
2010    13      1       0.2347145       61.73435
2010    13      2       0.1704955       47.49214
2010    13      3       0.1613706       45.40726
2010    13      4       0.162932        45.76267
2010    13      5       0.1339728       38.81186
2010    13      6       0.1295995       37.68314
2010    13      7       0.1213065       35.65435
2010    14      0       0.1157626       34.35446
2010    14      1       0.1095307       32.85368
2010    14      2       0.106781        32.1109
2010    14      3       0.1065113       32.01072
2010    14      4       0.09953618      30.24114
2010    14      5       0.08876693      27.47692
2010    14      6       0.100443        30.65222
2010    14      7       0.103269        31.34567
2010    15      0       0.1330529       38.5643
2010    15      1       0.1495905       42.32564
2010    15      2       0.1619861       44.96982
2010    15      3       0.2077452       55.28365
2010    15      4       0.2180417       57.52245
2010    15      5       0.2675875       67.68148
2010    15      6       0.3284745       80.00237
2010    15      7       0.3781345       89.02061
2010    16      0       0.4308285       98.0614
2010    16      1       0.4703398       104.612
2010    16      2       0.4973629       108.9066
2010    16      3       0.5515626       117.5043
2010    16      4       0.6528739       131.814
2010    16      5       0.6024165       124.4382
2010    16      6       0.5661196       118.6923
2010    16      7       0.7271964       140.5483
2010    17      0       0.6246017       126.4037
2010    17      1       0.6854077       134.574
2010    17      2       0.570165        119.0421
2010    17      3       0.6204611       125.2281
2010    17      4       0.4376957       97.7298
2010    17      5       0.3355389       79.66345
2010    17      6       0.2950843       71.86613
2010    17      7       0.2796365       68.45258
2010    18      0       0.3238023       76.63041
2010    18      1       0.4273366       95.37501
2010    18      2       0.4920975       106.1543
2010    18      3       0.4685482       102.5234
2010    18      4       0.5534166       115.7565
2010    18      5       0.5911005       121.6727
2010    18      6       0.5610089       118.2673
2010    18      7       0.6381678       129.7984
2010    19      0       0.6778595       135.1585
2010    19      1       0.6125374       126.3051
2010    19      2       0.6044684       125.5997
2010    19      3       0.6271316       129.1223
2010    19      4       0.6171469       128.1324
2010    19      5       0.5141833       112.8462
2010    19      6       0.4313232       99.06974
2010    19      7       0.3761523       89.0449
2010    20      0       0.4140332       95.67586
2010    20      1       0.4409977       100.1293
2010    20      2       0.4041113       93.39395
2010    20      3       0.4083355       94.70586
2010    20      4       0.379897        89.11623
2010    20      5       0.3365777       80.91238
2010    20      6       0.3322516       80.2891
2010    20      7       0.287177        71.29104
2010    21      0       0.3172583       77.28347
2010    21      1       0.3254565       78.95759
2010    21      2       0.3574087       85.02098
2010    21      3       0.3986734       92.60501
2010    21      4       0.3705585       87.5558
2010    21      5       0.4527157       101.9523
2010    21      6       0.5548546       118.5794
2010    21      7       0.6733139       135.3922
2010    22      0       0.8323762       154.8379
2010    22      1       0.7372893       143.5029
2010    22      2       0.675667        135.6172
2010    22      3       0.6668614       133.8187
2010    22      4       0.584992        122.1165
2010    22      5       0.4864026       107.0371
2010    22      6       0.4974052       108.3851
2010    22      7       0.4589435       102.1711
2010    23      0       0.3848543       89.47274
2010    23      1       0.450092        101.1209
2010    23      2       0.4940547       108.3934
2010    23      3       0.5983509       124.2846
2010    23      4       0.5901913       123.4019
2010    23      5       0.7007225       138.0652
2010    23      6       0.5567625       116.0409
2010    23      7       0.381709        87.22939
2010    24      0       0.3905659       88.57414
2010    24      1       0.3546559       82.8475
2010    24      2       0.387954        89.73024
2010    24      3       0.3158754       76.66082
2010    24      4       0.2700974       67.9233
2010    24      5       0.2956347       73.5028
2010    24      6       0.28216         70.97238
2010    24      7       0.2502982       64.2725
2010    25      0       0.2470965       63.62618
2010    25      1       0.259856        66.75302
2010    25      2       0.2677503       68.29789
2010    25      3       0.2809813       70.66357
2010    25      4       0.2950137       73.19947
2010    25      5       0.3103451       76.10868
2010    25      6       0.308335        75.71554
2010    25      7       0.2777122       69.29524
2010    26      0       0.2638353       66.63113
2010    26      1       0.2507922       64.55161
2010    26      2       0.2299279       60.16198
2010    26      3       0.1876918       50.7169
2010    26      4       0.1683907       46.23862
2010    26      5       0.1772562       47.92429
2010    26      6       0.205025        54.35686
2010    26      7       0.2744841       68.44024
2010    27      0       0.2848965       70.41463
2010    27      1       0.276484        68.62517
2010    27      2       0.2705135       67.43203
2010    27      3       0.2821887       69.93038
2010    27      4       0.3028094       73.88155
2010    27      5       0.3075057       74.68106
2010    27      6       0.3041018       73.422
2010    27      7       0.3532843       81.97043
2010    28      0       0.4493023       98.43945
2010    28      1       0.4881131       104.8168
2010    28      2       0.5370868       112.1937
2010    28      3       0.609019        122.4477
2010    28      4       0.6128351       123.1228
2010    28      5       0.4726705       102.68
2010    28      6       0.3900264       89.0849
2010    28      7       0.3258738       77.46574
2010    29      0       0.262556        65.38758
2010    29      1       0.2571667       64.20173
2010    29      2       0.232418        59.14583
2010    29      3       0.2596613       64.6726
2010    29      4       0.3548594       82.70083
2010    29      5       0.4372928       97.4346
2010    29      6       0.6494171       129.593
2010    29      7       0.6049594       124.0359
2010    30      0       0.5314327       112.3327
2010    30      1       0.4793769       103.6035
2010    30      2       0.4174154       93.7212
2010    30      3       0.3812469       87.11162
2010    30      4       0.4812081       103.4933
2010    30      5       0.514034        108.2566
2010    30      6       0.3447241       79.54814
2010    30      7       0.2893472       68.14247
2010    31      0       0.1955837       49.41841
2010    31      1       0.1982147       49.7181
2010    31      2       0.1356471       36.42968
2010    31      3       0.1257334       34.1265
2010    31      4       0.15211         39.92953
2010    31      5       0.1556408       40.72443
2010    31      6       0.2393647       57.55754
2010    31      7       0.2294484       55.79211
2011    1       0       0.1640821       45.1907
2011    1       1       0.2131632       55.62496
2011    1       2       0.1737899       47.04451
2011    1       3       0.1749769       47.50006
2011    1       4       0.1595255       44.01454
2011    1       5       0.1981139       52.67623
2011    1       6       0.2147849       56.22725
2011    1       7       0.2839207       70.0552
2011    2       0       0.3868229       88.74042
2011    2       1       0.3720496       85.51893
2011    2       2       0.3743018       86.40725
2011    2       3       0.3640907       84.47826
2011    2       4       0.3429237       80.69533
2011    2       5       0.3826006       88.15679
2011    2       6       0.5367953       113.2489
2011    2       7       0.6156871       124.4908
2011    3       0       0.6789551       132.409
2011    3       1       0.6560653       128.5297
2011    3       2       0.5286157       109.8558
2011    3       3       0.3912256       87.88993
2011    3       4       0.3768152       84.81797
2011    3       5       0.3498896       80.30289
2011    3       6       0.4601947       98.72011
2011    3       7       0.4679586       99.40317
2011    4       0       0.3280611       75.93785
2011    4       1       0.2864898       68.255
2011    4       2       0.2779625       66.83542
2011    4       3       0.3298383       76.48125
2011    4       4       0.3249392       75.709
2011    4       5       0.3366171       77.7436
2011    4       6       0.3625792       82.30807
2011    4       7       0.3746152       84.50378
2011    5       0       0.3214019       75.32877
2011    5       1       0.2740448       66.04151
2011    5       2       0.2723496       65.41812
2011    5       3       0.3031377       71.18092
2011    5       4       0.4050637       88.67705
2011    5       5       0.4146203       90.32401
2011    5       6       0.4031067       87.84322
2011    5       7       0.3862495       84.68852
2011    6       0       0.2715539       64.14266
2011    6       1       0.1810578       46.33165
2011    6       2       0.1492819       39.68228
2011    6       3       0.1224998       33.96765
2011    6       4       0.1193791       33.35288
2011    6       5       0.1057543       30.37268
2011    6       6       0.09441969      27.88282
2011    6       7       0.1300709       36.58315
2011    7       0       0.141352        39.214
2011    7       1       0.129496        36.89856
2011    7       2       0.1346106       38.12783
2011    7       3       0.141977        39.88581
2011    7       4       0.1394774       39.3671
2011    7       5       0.1271808       36.53326
2011    7       6       0.1179896       34.48952
2011    7       7       0.143271        40.28767
2011    8       0       0.1535109       42.42232
2011    8       1       0.1406097       39.07872
2011    8       2       0.1018175       29.94377
2011    8       3       0.07009491      22.30264
2011    8       4       0.06778446      21.77998
2011    8       5       0.07314344      23.09534
2011    8       6       0.08230809      25.42556
2011    8       7       0.09400414      28.29429
2011    9       0       0.113699        32.94007
2011    9       1       0.1293735       36.55002
2011    9       2       0.1342457       37.64075
2011    9       3       0.1455517       40.17381
2011    9       4       0.158945        43.22491
2011    9       5       0.1488273       40.99765
2011    9       6       0.1268887       36.01205
2011    9       7       0.09963571      29.73107
2011    10      0       0.0970987       29.14664
2011    10      1       0.1078473       31.68527
2011    10      2       0.1148394       33.4085
2011    10      3       0.114112        33.25855
2011    10      4       0.1093348       32.13486
2011    10      5       0.100143        29.93854
2011    10      6       0.09800726      29.43797
2011    10      7       0.1105132       32.52326
2011    11      0       0.1306643       37.28164
2011    11      1       0.1429702       40.00495
2011    11      2       0.1591811       43.47757
2011    11      3       0.1577866       43.37849
2011    11      4       0.170567        46.24156
2011    11      5       0.1715729       46.41226
2011    11      6       0.1947714       51.17561
2011    11      7       0.2105431       54.69679
2011    12      0       0.2264944       58.37832
2011    12      1       0.2358451       60.21117
2011    12      2       0.3260444       77.62436
2011    12      3       0.532074        112.1008
2011    12      4       0.7176842       137.6304
2011    12      5       0.7788826       145.6117
2011    12      6       0.848691        154.1679
2011    12      7       0.8933675       158.7269
2011    13      0       0.8152458       150.1696
2011    13      1       0.7741002       145.6576
2011    13      2       0.5977907       123.0018
2011    13      3       0.4704247       103.1982
2011    13      4       0.4423311       98.48928
2011    13      5       0.4604024       101.5744
2011    13      6       0.5188124       110.8907
2011    13      7       0.470486        103.4636
2011    14      0       0.5605146       116.5237
2011    14      1       0.4722849       102.4653
2011    14      2       0.4196631       93.55663
2011    14      3       0.4018095       89.9551
2011    14      4       0.2752672       66.89989
2011    14      5       0.2741903       66.86632
2011    14      6       0.2627193       64.93065
2011    14      7       0.2433487       61.13931
2011    15      0       0.2460865       61.55856
2011    15      1       0.2501218       62.35439
2011    15      2       0.2298669       58.18002
2011    15      3       0.2098554       53.98563
2011    15      4       0.1780622       47.31256
2011    15      5       0.1566302       42.55435
2011    15      6       0.1597642       43.3239
2011    15      7       0.1643916       44.43506
2011    16      0       0.1695767       45.54002
2011    16      1       0.1676772       45.11176
2011    16      2       0.1711801       45.92405
2011    16      3       0.1770385       47.41756
2011    16      4       0.1847019       49.05471
2011    16      5       0.1991123       52.12739
2011    16      6       0.2205246       57.01846
2011    16      7       0.2241101       58.45986
2011    17      0       0.2240566       58.70836
2011    17      1       0.2088391       55.58119
2011    17      2       0.1910552       51.7703
2011    17      3       0.1879276       50.66495
2011    17      4       0.2704412       68.29797
2011    17      5       0.3636926       86.28705
2011    17      6       0.4184773       95.88485
2011    17      7       0.5096509       110.5245
2011    18      0       0.4998999       110.0284
2011    18      1       0.522643        113.4347
2011    18      2       0.5525875       118.51
2011    18      3       0.4670359       105.8541
2011    18      4       0.5269294       115.2563
2011    18      5       0.5068702       110.9525
2011    18      6       0.4778371       106.0647
2011    18      7       0.4811101       106.3543
2011    19      0       0.5248855       112.8188
2011    19      1       0.6557484       131.8089
2011    19      2       0.583975        120.2521
2011    19      3       0.5362311       111.8276
2011    19      4       0.4892919       104.3631
2011    19      5       0.5365689       111.628
2011    19      6       0.6660332       129.9379
2011    19      7       0.484871        104.6418
2011    20      0       0.5439541       113.5038
2011    20      1       0.5917356       120.5016
2011    20      2       0.4910021       105.799
2011    20      3       0.4584126       100.5355
2011    20      4       0.4197028       94.07657
2011    20      5       0.4079367       92.16927
2011    20      6       0.3878956       88.9156
2011    20      7       0.4734515       103.2265
2011    21      0       0.4642886       101.7511
2011    21      1       0.3886406       88.97768
2011    21      2       0.3493523       82.05653
2011    21      3       0.3321449       78.84775
2011    21      4       0.322673        77.01227
2011    21      5       0.349711        81.69265
2011    21      6       0.4454164       98.09422
2011    21      7       0.3887123       88.68773
2011    22      0       0.3447982       80.70221
2011    22      1       0.3400294       79.82679
2011    22      2       0.2646237       65.57622
2011    22      3       0.2753982       67.52213
2011    22      4       0.2878921       69.76471
2011    22      5       0.2440348       61.02039
2011    22      6       0.3059135       72.76214
2011    22      7       0.5102645       105.7458
2011    23      0       0.4921491       103.4969
2011    23      1       0.4643434       99.70459
2011    23      2       0.4192848       92.1859
2011    23      3       0.4210021       91.6459
2011    23      4       0.3602878       80.57086
2011    23      5       0.3328059       75.90516
2011    23      6       0.2935251       69.07412
2011    23      7       0.2835992       67.47082
2011    24      0       0.2930028       69.41599
2011    24      1       0.2897714       68.9097
2011    24      2       0.2734115       65.8681
2011    24      3       0.2562374       62.47951
2011    24      4       0.1924168       49.64385
2011    24      5       0.1346887       37.08489
2011    24      6       0.1233118       34.45614
2011    24      7       0.1353655       37.23522
2011    25      0       0.1628788       43.39874
2011    25      1       0.1994902       51.43
2011    25      2       0.1936691       50.28243
2011    25      3       0.1639503       43.88247
2011    25      4       0.1350235       37.46622
2011    25      5       0.1200835       33.98449
2011    25      6       0.1319809       36.71748
2011    25      7       0.1407814       38.78846
2011    26      0       0.1366748       37.94685
2011    26      1       0.1432813       39.46956
2011    26      2       0.1680274       45.12661
2011    26      3       0.1773782       47.34054
2011    26      4       0.1823479       48.59739
2011    26      5       0.1916312       51.23334
2011    26      6       0.1718906       46.96821
2011    26      7       0.1246529       36.31781
2011    27      0       0.106832        32.0069
2011    27      1       0.08457493      26.29922
2011    27      2       0.08640615      26.69025
2011    27      3       0.09373055      28.37436
2011    27      4       0.09423522      28.54158
2011    27      5       0.08795137      27.08127
2011    27      6       0.08448051      26.25928
2011    27      7       0.107265        32.10596
2011    28      0       0.1326902       37.77682
2011    28      1       0.1247143       35.85463
2011    28      2       0.09004214      27.70052
2011    28      3       0.1045435       31.65241
2011    28      4       0.1283641       37.17918
2011    28      5       0.1287413       37.01361
2011    28      6       0.1868987       50.02457
2011    28      7       0.2116455       55.48385
2011    29      0       0.1962671       52.30354
2011    29      1       0.2158874       56.52716
2011    29      2       0.2449088       62.94482
2011    29      3       0.2952838       73.46317
2011    29      4       0.3315272       80.67172
2011    29      5       0.3701775       87.89011
2011    29      6       0.3670572       87.15467
2011    29      7       0.3617553       86.36198
2011    30      0       0.3105587       76.82647
2011    30      1       0.2826701       71.21234
2011    30      2       0.3433735       82.84233
2011    30      3       0.3497538       83.89393
2011    30      4       0.3599145       85.62087
2011    30      5       0.3043835       75.11222
2011    30      6       0.275638        69.45301
2011    30      7       0.2587258       66.0823
2011    31      0       0.2359771       61.54013
2011    31      1       0.2409409       62.60541
2011    31      2       0.2640492       67.52856
2011    31      3       0.2632791       67.19559
2011    31      4       0.1907347       51.71798
2011    31      5       0.1487942       41.84819
2011    31      6       0.1532933       42.86023
2011    31      7       0.171579        46.74009
2012    1       0       0.1879861       50.88902
2012    1       1       0.2117703       56.28596
2012    1       2       0.1985596       53.35853
2012    1       3       0.1364293       38.78239
2012    1       4       0.172185        46.31482
2012    1       5       0.1939987       51.9625
2012    1       6       0.1747482       48.15438
2012    1       7       0.174289        47.98431
2012    2       0       0.1831624       49.93865
2012    2       1       0.2011013       53.95338
2012    2       2       0.2316384       60.4908
2012    2       3       0.2317147       60.27943
2012    2       4       0.2268073       58.55984
2012    2       5       0.2244895       57.31188
2012    2       6       0.2235594       57.47569
2012    2       7       0.2267013       58.91371
2012    3       0       0.2266715       59.22486
2012    3       1       0.2678631       67.92291
2012    3       2       0.2880203       71.6577
2012    3       3       0.3975063       92.29252
2012    3       4       0.5666942       119.6514
2012    3       5       0.4836654       107.6438
2012    3       6       0.3197319       78.92589
2012    3       7       0.3400372       82.45104
2012    4       0       0.4043081       93.80968
2012    4       1       0.4459085       100.7002
2012    4       2       0.3689047       87.67565
2012    4       3       0.33032         80.45053
2012    4       4       0.3085585       76.15755
2012    4       5       0.2889363       71.45144
2012    4       6       0.3047252       74.28239
2012    4       7       0.3359908       80.09951
2012    5       0       0.3324979       79.99569
2012    5       1       0.3498402       83.44492
2012    5       2       0.3709606       87.44651
2012    5       3       0.3812529       88.99247
2012    5       4       0.3877232       89.90926
2012    5       5       0.3603246       85.24233
2012    5       6       0.3636612       86.34251
2012    5       7       0.3924064       92.34258
2012    6       0       0.3732079       88.84299
2012    6       1       0.2786357       70.54826
2012    6       2       0.2513279       64.61625
2012    6       3       0.2488278       63.68766
2012    6       4       0.2392663       61.75867
2012    6       5       0.2425785       62.25573
2012    6       6       0.2758693       68.97133
2012    6       7       0.2897826       71.67626
2012    7       0       0.2995413       73.60366
2012    7       1       0.3155302       76.6899
2012    7       2       0.3499057       82.84908
2012    7       3       0.3842236       89.01225
2012    7       4       0.3581931       84.8221
2012    7       5       0.3103551       76.15873
2012    7       6       0.3084454       75.65719
2012    7       7       0.308652        75.60941
2012    8       0       0.3231605       78.39205
2012    8       1       0.3289358       79.57588
2012    8       2       0.3086948       75.82864
2012    8       3       0.2873783       71.63177
2012    8       4       0.290915        72.18512
2012    8       5       0.2741508       68.77233
2012    8       6       0.2459214       62.94101
2012    8       7       0.2389788       61.48542
2012    9       0       0.2352082       60.51021
2012    9       1       0.2381233       60.86798
2012    9       2       0.2461664       62.67976
2012    9       3       0.2124569       55.60682
2012    9       4       0.1936485       51.4771
2012    9       5       0.1966812       51.91552
2012    9       6       0.2684008       66.23337
2012    9       7       0.362523        83.62541
2012    10      0       0.3583437       82.21021
2012    10      1       0.1048112       30.38545
2012    10      2       0.09995787      29.43305
2012    10      3       0.1025198       30.21131
2012    10      4       0.1172023       33.30628
2012    10      5       0.1093581       31.67368
2012    10      6       0.1260582       35.92583
2012    10      7       0.1404871       39.20275
2012    11      0       0.1609212       43.53535
2012    11      1       0.166158        44.62649
2012    11      2       0.1827512       48.13388
2012    11      3       0.1912466       49.6874
2012    11      4       0.1898689       49.44959
2012    11      5       0.1774034       46.87625
2012    11      6       0.1379024       38.29814
2012    11      7       0.1531697       41.59496
2012    12      0       0.1589377       43.00593
2012    12      1       0.1720127       46.02414
2012    12      2       0.1606632       43.8062
2012    12      3       0.1625672       44.26976
2012    12      4       0.1667779       45.23489
2012    12      5       0.1424311       39.90828
2012    12      6       0.1436226       40.31558
2012    12      7       0.1526601       42.38296
2012    13      0       0.150079        41.79577
2012    13      1       0.134221        38.07877
2012    13      2       0.1362107       38.49255
2012    13      3       0.1483103       41.27872
2012    13      4       0.1437357       40.29844
2012    13      5       0.1545041       42.77647
2012    13      6       0.1870535       50.05561
2012    13      7       0.2287474       58.72251
2012    14      0       0.2698367       67.07088
2012    14      1       0.3609223       84.24704
2012    14      2       0.7378544       140.9652
2012    14      3       0.9079688       162.3017
2012    14      4       0.6095498       124.0491
2012    14      5       0.6708969       131.6729
2012    14      6       0.4700346       101.1599
2012    14      7       0.3829887       86.88897
2012    15      0       0.3201791       75.85419
2012    15      1       0.2656569       65.88486
2012    15      2       0.2907843       71.2326
2012    15      3       0.3610427       84.76709
2012    15      4       0.3646357       84.85442
2012    15      5       0.388166        88.54206
2012    15      6       0.3747788       86.11042
2012    15      7       0.4307902       95.73931
2012    16      0       0.477954        103.7018
2012    16      1       0.4145918       93.31063
2012    16      2       0.4548649       99.9097
2012    16      3       0.365159        84.56574
2012    16      4       0.3286473       77.76283
2012    16      5       0.4104523       91.19093
2012    16      6       0.3171026       75.51725
2012    16      7       0.2738018       67.17432
2012    17      0       0.2636185       64.99263
2012    17      1       0.2722491       66.91067
2012    17      2       0.2561956       63.69761
2012    17      3       0.266582        65.93749
2012    17      4       0.222641        57.48905
2012    17      5       0.18976         50.85517
2012    17      6       0.224246        58.84439
2012    17      7       0.2896509       72.49615
2012    18      0       0.3130782       77.45175
2012    18      1       0.2729447       69.22475
2012    18      2       0.1522259       42.51238
2012    18      3       0.1153411       33.91529
2012    18      4       0.1393347       39.51523
2012    18      5       0.1843873       49.76717
2012    18      6       0.2443553       62.80705
2012    18      7       0.3024189       74.40034
2012    19      0       0.4664884       102.575
2012    19      1       0.4806176       105.0929
2012    19      2       0.5287965       112.7153
2012    19      3       0.570534        119.0511
2012    19      4       0.5937895       122.6799
2012    19      5       0.2545795       63.07208
2012    19      6       0.2486184       61.28656
2012    19      7       0.1630785       43.58477
2012    20      0       0.08743738      26.64939
2012    20      1       0.09485217      28.30895
2012    20      2       0.08380059      25.61804
2012    20      3       0.06769034      21.76125
2012    20      4       0.06828174      21.85793
2012    20      5       0.07180854      22.7731
2012    20      6       0.07003163      22.53055
2012    20      7       0.08662841      26.69802
2012    21      0       0.09379758      28.38598
2012    21      1       0.09600917      28.7907
2012    21      2       0.08826075      26.76904
2012    21      3       0.09327837      27.82379
2012    21      4       0.08747337      26.34205
2012    21      5       0.07680198      23.86833
2012    21      6       0.09924488      29.83386
2012    21      7       0.1205333       35.13088
2012    22      0       0.1340676       38.27607
2012    22      1       0.1457408       40.73216
2012    22      2       0.1713833       46.53021
2012    22      3       0.2303654       59.02623
2012    22      4       0.3409412       79.92106
2012    22      5       0.4578561       100.1504
2012    22      6       0.4687665       102.9561
2012    22      7       0.3881299       89.80662
2012    23      0       0.3133126       76.28214
2012    23      1       0.2952283       72.94646
2012    23      2       0.2597902       65.97397
2012    23      3       0.2026049       53.68588
2012    23      4       0.1761007       47.61616
2012    23      5       0.1342432       37.6873
2012    23      6       0.1400074       39.19968
2012    23      7       0.1259653       36.201
2012    24      0       0.1264516       36.09171
2012    24      1       0.149508        41.17052
2012    24      2       0.1987755       51.87625
2012    24      3       0.2398267       60.42413
2012    24      4       0.2757282       68.12346
2012    24      5       0.2582428       64.60339
2012    24      6       0.3589817       83.67767
2012    24      7       0.4092664       93.21282
2012    25      0       0.4881254       104.8469
2012    25      1       0.5096519       107.808
2012    25      2       0.4113801       91.10622
2012    25      3       0.363008        82.73874
2012    25      4       0.1565108       42.11816
2012    25      5       0.131999        37.09104
2012    25      6       0.1289524       36.34957
2012    25      7       0.1345037       37.68026
2012    26      0       0.1519784       41.76722
2012    26      1       0.2033863       52.91856
2012    26      2       0.3224628       76.39757
2012    26      3       0.3327387       78.12474
2012    26      4       0.3073539       73.58918
2012    26      5       0.3671032       84.14212
2012    26      6       0.3021083       72.653
2012    26      7       0.1860911       49.16265
2012    27      0       0.1526807       42.10325
2012    27      1       0.158239        43.22569
2012    27      2       0.1838774       48.68051
2012    27      3       0.2101659       54.23851
2012    27      4       0.2273379       57.76764
2012    27      5       0.2393957       59.93585
2012    27      6       0.2343728       58.30113
2012    27      7       0.3995847       87.5047
2012    28      0       0.3657394       82.26474
2012    28      1       0.2797444       66.83919
2012    28      2       0.2657873       64.25742
2012    28      3       0.2916607       69.17719
2012    28      4       0.2687434       64.75158
2012    28      5       0.2263932       56.65987
2012    28      6       0.1577292       42.48666
2012    28      7       0.131457        36.7788
2012    29      0       0.1124821       32.52555
2012    29      1       0.1196365       33.98074
2012    29      2       0.117504        33.65522
2012    29      3       0.08985082      27.10354
2012    29      4       0.07037567      22.37413
2012    29      5       0.08028         24.73846
2012    29      6       0.1119624       32.69385
2012    29      7       0.138232        38.8833
2012    30      0       0.1872801       49.55671
2012    30      1       0.1896944       50.01991
2012    30      2       0.3301978       78.40451
2012    30      3       0.2610073       64.31323
2012    30      4       0.2536573       63.01977
2012    30      5       0.3133318       74.42454
2012    30      6       0.3623107       83.60532
2012    30      7       0.3156651       75.59686
2012    31      0       0.3381689       79.42725
2012    31      1       0.5047154       107.0144
2012    31      2       0.4280329       94.57769
2012    31      3       0.4937152       104.3067
2012    31      4       0.2903771       69.26307
2012    31      5       0.2664648       64.78071
2012    31      6       0.3106118       72.48403
2012    31      7       0.2753207       65.72144
2013    1       0       0.2896666       71.37785
2013    1       1       0.3067709       75.03534
2013    1       2       0.3613316       85.08729
2013    1       3       0.5022977       108.7827
2013    1       4       0.5356302       113.7924
2013    1       5       0.5175313       111.5685
2013    1       6       0.3836803       89.20472
2013    1       7       0.2308875       59.70531
2013    2       0       0.1754045       48.17258
2013    2       1       0.170511        47.0459
2013    2       2       0.1697684       46.80151
2013    2       3       0.1495955       42.13376
2013    2       4       0.1964399       52.81003
2013    2       5       0.2322221       60.55765
2013    2       6       0.2360126       61.57589
2013    2       7       0.2178951       57.43404
2013    3       0       0.2071255       55.07726
2013    3       1       0.195012        52.31621
2013    3       2       0.2113242       55.77178
2013    3       3       0.2037361       53.71572
2013    3       4       0.2123991       55.51256
2013    3       5       0.2067517       54.31862
2013    3       6       0.2137456       56.05869
2013    3       7       0.2037712       54.16829
2013    4       0       0.2214833       57.97664
2013    4       1       0.2213894       57.99592
2013    4       2       0.2534741       64.83645
2013    4       3       0.2836844       71.19857
2013    4       4       0.3081789       75.58833
2013    4       5       0.3435476       82.13165
2013    4       6       0.3752893       87.93941
2013    4       7       0.6362924       128.7693
2013    5       0       0.5541187       116.6311
2013    5       1       0.4722269       103.3422
2013    5       2       0.4449721       98.49868
2013    5       3       0.4511103       99.14194
2013    5       4       0.5072757       107.6856
2013    5       5       0.5380399       112.189
2013    5       6       0.4551863       99.50462
2013    5       7       0.327278        76.93695
2013    6       0       0.1829611       48.0698
2013    6       1       0.1360989       37.68402
2013    6       2       0.1187388       33.74012
2013    6       3       0.1113293       31.93856
2013    6       4       0.1072902       31.02514
2013    6       5       0.1072334       30.94826
2013    6       6       0.110267        31.71846
2013    6       7       0.1322776       36.73812
2013    7       0       0.1368375       37.95424
2013    7       1       0.1265466       35.72919
2013    7       2       0.1048105       30.70667
2013    7       3       0.1361769       37.96466
2013    7       4       0.2032022       52.68175
2013    7       5       0.2638836       65.32976
2013    7       6       0.2338614       59.40037
2013    7       7       0.2047715       53.41003
2013    8       0       0.1869986       49.48766
2013    8       1       0.18014         48.01223
2013    8       2       0.2123698       54.60731
2013    8       3       0.2209839       56.79318
2013    8       4       0.2309592       58.76972
2013    8       5       0.2271412       57.76369
2013    8       6       0.1997469       51.79606
2013    8       7       0.1889292       49.23883
2013    9       0       0.206182        52.95301
2013    9       1       0.3027825       72.02117
2013    9       2       0.3785929       85.6448
2013    9       3       0.2848336       68.68853
2013    9       4       0.2069171       52.98921
2013    9       5       0.1711698       45.318
2013    9       6       0.1009875       29.53838
2013    9       7       0.06646015      21.31428
2013    10      0       0.067239        21.65626
2013    10      1       0.06847602      21.98747
2013    10      2       0.05544785      18.62851
2013    10      3       0.0496301       17.09122
2013    10      4       0.0481513       16.67665
2013    10      5       0.05144448      17.40779
2013    10      6       0.1074059       29.98699
2013    10      7       0.1793231       46.03158
2013    11      0       0.1805028       47.12647
2013    11      1       0.248256        60.8907
2013    11      2       0.2504315       61.97657
2013    11      3       0.2865058       69.38374
2013    11      4       0.3621004       83.85906
2013    11      5       0.3310596       78.37324
2013    11      6       0.2671087       66.2183
2013    11      7       0.2732307       67.92437
2013    12      0       0.3262054       78.84238
2013    12      1       0.2031096       53.65091
2013    12      2       0.2037272       53.8081
2013    12      3       0.2486076       63.36991
2013    12      4       0.6249055       129.0786
2013    12      5       0.5000167       109.3008
2013    12      6       0.5299589       114.0765
2013    12      7       0.5740871       120.8533
2013    13      0       0.5121261       111.3873
2013    13      1       0.4747862       105.6299
2013    13      2       0.6774466       134.3349
2013    13      3       0.6935863       135.5731
2013    13      4       0.4586934       101.4163
2013    13      5       0.392439        89.77459
2013    13      6       0.3511355       82.54357
2013    13      7       0.2988928       72.82406
2013    14      0       0.2902123       71.06126
2013    14      1       0.2849731       69.51661
2013    14      2       0.2501836       61.76118
2013    14      3       0.2104696       53.58997
2013    14      4       0.1697739       45.48469
2013    14      5       0.1757555       46.86221
2013    14      6       0.1783738       47.32623
2013    14      7       0.1732656       46.47036
2013    15      0       0.1665627       45.29459
2013    15      1       0.1572926       43.55449
2013    15      2       0.1339888       38.16029
2013    15      3       0.1295945       36.90785
2013    15      4       0.2071303       54.40972
2013    15      5       0.2536211       64.51342
2013    15      6       0.2465498       63.56007
2013    15      7       0.2141752       56.92431
2013    16      0       0.1929039       52.62072
2013    16      1       0.1635303       45.89894
2013    16      2       0.141804        40.4939
2013    16      3       0.1513808       42.43172
2013    16      4       0.1596373       44.61867
2013    16      5       0.1791137       49.43791
2013    16      6       0.1852057       50.45469
2013    16      7       0.1972404       53.23526
2013    17      0       0.2045916       54.74032
2013    17      1       0.1960401       52.74771
2013    17      2       0.1688678       46.4433
2013    17      3       0.14063         39.87062
2013    17      4       0.1191732       34.7853
2013    17      5       0.1037293       31.07896
2013    17      6       0.1123614       33.28212
2013    17      7       0.1352891       38.59113
2013    18      0       0.137714        39.07322
2013    18      1       0.1398925       39.32399
2013    18      2       0.1570379       43.06144
2013    18      3       0.1904155       50.43035
2013    18      4       0.193031        51.12147
2013    18      5       0.1783395       47.85817
2013    18      6       0.2102465       54.77498
2013    18      7       0.2739309       68.13559
2013    19      0       0.2781743       68.97387
2013    19      1       0.295107        71.8102
2013    19      2       0.2901243       70.72897
2013    19      3       0.3112628       75.26756
2013    19      4       0.2858942       71.09976
2013    19      5       0.2380208       61.30671
2013    19      6       0.1925909       51.25136
2013    19      7       0.1791487       48.34331
2013    20      0       0.1946568       51.30346
2013    20      1       0.1721511       46.59493
2013    20      2       0.2472887       62.687
2013    20      3       0.3481926       82.17013
2013    20      4       0.3706235       86.33321
2013    20      5       0.4944317       106.9333
2013    20      6       0.6680957       131.1708
2013    20      7       0.5723037       117.4435
2013    21      0       0.4242405       94.64892
2013    21      1       0.4240217       94.55182
2013    21      2       0.4847943       104.2402
2013    21      3       0.5394711       112.5554
2013    21      4       0.5247329       109.8902
2013    21      5       0.2983926       71.47387
2013    21      6       0.323655        75.6215
2013    21      7       0.5164779       107.691
2013    22      0       0.3472667       80.15467
2013    22      1       0.3225146       75.59155
2013    22      2       0.3063462       72.68306
2013    22      3       0.377368        85.3063
2013    22      4       0.2417554       60.13843
2013    22      5       0.1925711       49.9843
2013    22      6       0.1734041       45.76632
2013    22      7       0.1718447       45.57329
2013    23      0       0.1744757       46.22973
2013    23      1       0.1898526       49.61784
2013    23      2       0.1732539       46.32372
2013    23      3       0.1387848       38.88937
2013    23      4       0.1448985       40.77179
2013    23      5       0.1310186       37.63085
2013    23      6       0.1492512       41.90777
2013    23      7       0.1708675       46.88197
2013    24      0       0.1792943       48.88337
2013    24      1       0.1763454       48.25809
2013    24      2       0.1622518       44.85053
2013    24      3       0.1348197       38.15447
2013    24      4       0.1280504       36.57978
2013    24      5       0.132111        37.47863
2013    24      6       0.1510302       41.81789
2013    24      7       0.2464106       62.66178
2013    25      0       0.2566846       64.80625
2013    25      1       0.2248154       58.40683
2013    25      2       0.1554767       43.01071
2013    25      3       0.06902439      22.31065
2013    25      4       0.07908752      24.90683
2013    25      5       0.09369251      28.57915
2013    25      6       0.1115054       32.80847
2013    25      7       0.1154999       33.3991
2013    26      0       0.1264303       36.01302
2013    26      1       0.1303795       36.99334
2013    26      2       0.1185096       34.39822
2013    26      3       0.1198514       34.75828
2013    26      4       0.1221003       35.19138
2013    26      5       0.1129021       32.9915
2013    26      6       0.1223809       35.38549
2013    26      7       0.1273482       36.3891
2013    27      0       0.1190374       34.42765
2013    27      1       0.1338206       37.72447
2013    27      2       0.1568782       42.80533
2013    27      3       0.1665956       44.98031
2013    27      4       0.1522932       41.77963
2013    27      5       0.13662         38.27328
2013    27      6       0.1418911       39.63124
2013    27      7       0.1460261       40.70017
2013    28      0       0.1426859       39.99358
2013    28      1       0.1376782       38.84063
2013    28      2       0.1349565       38.147
2013    28      3       0.1324806       37.51309
2013    28      4       0.142211        39.64776
2013    28      5       0.1722531       46.34295
2013    28      6       0.2176365       56.40618
2013    28      7       0.2559022       64.44814
2013    29      0       0.3343039       79.65475
2013    29      1       0.3048141       73.39733
2013    29      2       0.3348531       78.77579
2013    29      3       0.4042294       90.29895
2013    29      4       0.5259267       109.6902
2013    29      5       0.4564916       99.53305
2013    29      6       0.4859328       103.8495
2013    29      7       0.4740737       101.4882
2013    30      0       0.2674152       65.79929
2013    30      1       0.217773        56.02693
2013    30      2       0.1615601       44.04382
2013    30      3       0.1664207       44.95435
2013    30      4       0.1640006       44.47673
2013    30      5       0.1593906       43.29005
2013    30      6       0.1885626       50.28754
2013    30      7       0.2125199       55.47324
2013    31      0       0.2152864       56.06352
2013    31      1       0.2132395       55.59659
2013    31      2       0.2142385       55.6224
2013    31      3       0.211717        55.03667
2013    31      4       0.2198299       56.7473
2013    31      5       0.244857        61.96057
2013    31      6       0.2635525       65.93616
2013    31      7       0.2454793       62.27496
2014    1       0       0.1847032       49.66252
2014    1       1       0.1740244       47.65193
2014    1       2       0.1481785       41.86498
2014    1       3       0.1468376       41.60004
2014    1       4       0.1417747       40.3837
2014    1       5       0.1432151       40.53217
2014    1       6       0.1440284       40.64194
2014    1       7       0.1504717       42.06437
2014    2       0       0.1513507       42.24467
2014    2       1       0.1499052       41.72303
2014    2       2       0.1597516       43.60998
2014    2       3       0.1881257       49.51636
2014    2       4       0.2413748       60.5388
2014    2       5       0.30552         73.31511
2014    2       6       0.333136        78.88636
2014    2       7       0.3710644       85.46513
2014    3       0       0.518491        110.5836
2014    3       1       0.6397372       128.4641
2014    3       2       0.770168        147.0408
2014    3       3       0.8023289       153.0291
2014    3       4       0.7927092       152.3537
2014    3       5       0.7443258       146.3392
2014    3       6       0.7134914       142.4595
2014    3       7       0.8467788       158.0193
2014    4       0       0.9303732       167.3502
2014    4       1       1.130049        186.636
2014    4       2       0.9675824       171.4811
2014    4       3       0.9083885       165.0961
2014    4       4       1.026879        176.0624
2014    4       5       1.03893         176.4498
2014    4       6       1.320801        200.1237
2014    4       7       1.09437         182.0419
2014    5       0       0.7920576       150.4358
2014    5       1       0.6965131       138.6837
2014    5       2       0.55764         119.3536
2014    5       3       0.4371379       100.4117
2014    5       4       0.3098429       76.19298
2014    5       5       0.2673201       67.54432
2014    5       6       0.2586628       66.09101
2014    5       7       0.2616097       65.84023
2014    6       0       0.2976474       72.97329
2014    6       1       0.2652583       67.47378
2014    6       2       0.2690926       68.3013
2014    6       3       0.2590976       65.73388
2014    6       4       0.2997183       74.24503
2014    6       5       0.3801146       89.05161
2014    6       6       0.4702334       104.3434
2014    6       7       0.6566457       131.2339
2014    7       0       0.8400782       153.6303
2014    7       1       0.7350851       142.2506
2014    7       2       0.7189684       140.1187
2014    7       3       0.6141358       125.6223
2014    7       4       0.4772231       105.092
2014    7       5       0.3251923       78.97006
2014    7       6       0.2770882       69.98138
2014    7       7       0.2606849       66.68033
2014    8       0       0.2168518       57.67794
2014    8       1       0.2106722       56.21433
2014    8       2       0.1898994       51.72541
2014    8       3       0.170901        47.19156
2014    8       4       0.1708318       46.66427
2014    8       5       0.1612048       44.39507
2014    8       6       0.1749828       47.60782
2014    8       7       0.2177045       57.32339
2014    9       0       0.2412563       62.38675
2014    9       1       0.2437662       62.79333
2014    9       2       0.2157811       56.66203
2014    9       3       0.2964896       73.44578
2014    9       4       0.4755177       105.6918
2014    9       5       0.5159705       112.0323
2014    9       6       0.680132        135.6872
2014    9       7       0.893905        160.9704
2014    10      0       0.7575803       145.8557
2014    10      1       0.7857443       149.1743
2014    10      2       0.9159786       163.048
2014    10      3       0.8973722       161.1206
2014    10      4       0.7302595       142.1735
2014    10      5       0.6565417       132.96
2014    10      6       0.7356319       142.677
2014    10      7       0.7012926       138.6269
2014    11      0       0.6234477       128.3173
2014    11      1       0.55032         117.8638
2014    11      2       0.5412615       116.5573
2014    11      3       0.4877099       108.3549
2014    11      4       0.4265546       98.2288
2014    11      5       0.4060994       94.5266
2014    11      6       0.3781692       89.47861
2014    11      7       0.4039252       94.16855
2014    12      0       0.4195998       96.97868
2014    12      1       0.4271014       97.96217
2014    12      2       0.3891595       91.06173
2014    12      3       0.3502528       83.54861
2014    12      4       0.3283962       78.85779
2014    12      5       0.3113069       75.0526
2014    12      6       0.3630187       84.94788
2014    12      7       0.3571937       84.39318
2014    13      0       0.3543074       84.4237
2014    13      1       0.4153293       96.01671
2014    13      2       0.5100279       111.6674
2014    13      3       0.6116747       127.2093
2014    13      4       0.560786        119.5899
2014    13      5       0.4257436       97.47301
2014    13      6       0.3865954       90.77375
2014    13      7       0.6047213       125.0014
2014    14      0       0.699693        137.2734
2014    14      1       0.6172051       124.6837
2014    14      2       0.3942552       89.10339
2014    14      3       0.353739        81.97782
2014    14      4       0.2894773       70.39066
2014    14      5       0.2477104       62.13923
2014    14      6       0.2106718       54.65639
2014    14      7       0.1856052       49.23064
2014    15      0       0.222434        57.06842
2014    15      1       0.259656        64.87794
2014    15      2       0.2608716       65.12473
2014    15      3       0.2301509       58.85321
2014    15      4       0.1531796       42.33894
2014    15      5       0.1441999       40.18695
2014    15      6       0.1931024       51.02531
2014    15      7       0.277812        68.25012
2014    16      0       0.3431771       80.45046
2014    16      1       0.3918301       89.08517
2014    16      2       0.3528479       82.35943
2014    16      3       0.3374305       78.85529
2014    16      4       0.3149427       74.37841
2014    16      5       0.3326948       77.57804
2014    16      6       0.3559092       82.50071
2014    16      7       0.3630649       84.24972
2014    17      0       0.3594211       83.64381
2014    17      1       0.3352731       79.21672
2014    17      2       0.3471893       81.46019
2014    17      3       0.4314482       95.92537
2014    17      4       0.5125148       108.4682
2014    17      5       0.537809        112.0701
2014    17      6       0.5969919       120.4141
2014    17      7       0.6225468       124.3018
2014    18      0       0.4537313       99.05462
2014    18      1       0.4680198       101.4905
2014    18      2       0.3893731       88.85585
2014    18      3       0.2968367       71.97666
2014    18      4       0.3499722       81.39635
2014    18      5       0.3868983       87.74357
2014    18      6       0.5472257       112.9437
2014    18      7       0.5775216       117.5521
2014    19      0       0.5607566       114.9803
2014    19      1       0.4785775       102.7636
2014    19      2       0.3766841       86.08414
2014    19      3       0.2787296       68.20793
2014    19      4       0.2036613       53.05347
2014    19      5       0.1598521       43.50054
2014    19      6       0.1632157       44.40148
2014    19      7       0.1612193       44.10327
2014    20      0       0.1661229       45.27259
2014    20      1       0.1853318       49.65809
2014    20      2       0.2114641       55.15987
2014    20      3       0.2154781       56.01627
2014    20      4       0.1949757       51.73185
2014    20      5       0.2425205       60.83586
2014    20      6       0.268239        66.08097
2014    20      7       0.2282849       58.83329
2014    21      0       0.2357545       60.26275
2014    21      1       0.2818508       69.06373
2014    21      2       0.3421836       80.38839
2014    21      3       0.3638968       84.73503
2014    21      4       0.3623827       84.7756
2014    21      5       0.3226329       77.95939
2014    21      6       0.3242473       79.06871
2014    21      7       0.4187005       95.72348
2014    22      0       0.4336168       99.01313
2014    22      1       0.4372229       99.75039
2014    22      2       0.4107995       95.30745
2014    22      3       0.4252591       97.3957
2014    22      4       0.4238055       97.13162
2014    22      5       0.3957046       92.03263
2014    22      6       0.4184592       96.07155
2014    22      7       0.3993602       92.74809
2014    23      0       0.5107571       110.6904
2014    23      1       0.518896        111.3523
2014    23      2       0.2763297       67.95611
2014    23      3       0.2439369       61.10422
2014    23      4       0.2186272       55.55437
2014    23      5       0.1769946       46.66659
2014    23      6       0.1177025       33.3232
2014    23      7       0.1098737       31.55602
2014    24      0       0.1153129       32.97145
2014    24      1       0.1313636       36.74929
2014    24      2       0.1313463       36.75283
2014    24      3       0.1298161       36.51134
2014    24      4       0.1313839       37.08447
2014    24      5       0.1111928       32.29025
2014    24      6       0.1450921       40.2868
2014    24      7       0.1680263       45.55468
2014    25      0       0.1564113       43.13162
2014    25      1       0.1717633       46.40488
2014    25      2       0.2311192       58.63885
2014    25      3       0.2968685       71.66588
2014    25      4       0.2736753       67.43521
2014    25      5       0.2533928       63.72762
2014    25      6       0.2266597       58.5504
2014    25      7       0.2651255       66.13157
2014    26      0       0.5713588       118.1331
2014    26      1       0.6222998       124.9638
2014    26      2       0.3791689       86.14683
2014    26      3       0.2616407       63.81502
2014    26      4       0.1850598       47.94684
2014    26      5       0.1350941       37.04244
2014    26      6       0.1858139       47.69429
2014    26      7       0.1635562       43.20429
2014    27      0       0.1621166       42.97226
2014    27      1       0.1456762       39.46322
2014    27      2       0.1430631       38.85809
2014    27      3       0.1482492       39.93411
2014    27      4       0.1530216       40.98513
2014    27      5       0.1625179       43.01627
2014    27      6       0.1613936       42.76538
2014    27      7       0.1423906       38.80275
2014    28      0       0.1352241       37.27799
2014    28      1       0.1180714       33.45575
2014    28      2       0.1424033       38.92745
2014    28      3       0.1822738       47.85353
2014    28      4       0.1838983       48.20533
2014    28      5       0.1543083       41.54682
2014    28      6       0.1941105       50.02246
2014    28      7       0.2480876       61.2483
2014    29      0       0.2724745       66.13695
2014    29      1       0.2037257       52.65321
2014    29      2       0.149931        41.34678
2014    29      3       0.1738679       47.05346
2014    29      4       0.1192284       34.48839
2014    29      5       0.09959167      29.88142
2014    29      6       0.1084049       32.00073
2014    29      7       0.1069388       31.66806
2014    30      0       0.1145102       33.33346
2014    30      1       0.1097482       32.18901
2014    30      2       0.09630555      28.78199
2014    30      3       0.1127671       32.99826
2014    30      4       0.1273902       36.78559
2014    30      5       0.1383506       39.03093
2014    30      6       0.1562646       43.00276
2014    30      7       0.1794395       47.91471
2014    31      0       0.2308763       58.69154
2014    31      1       0.2756995       68.07718
2014    31      2       0.3054639       73.8021
2014    31      3       0.2975307       71.32661
2014    31      4       0.2823782       68.21922
2014    31      5       0.2895986       69.44817
2014    31      6       0.246185        61.537
2014    31      7       0.2345746       59.42803
2015    1       0       0.1005145       29.72347
2015    1       1       0.1120414       32.28521
2015    1       2       0.1276016       35.68164
2015    1       3       0.1365309       37.55821
2015    1       4       0.1229881       34.91443
2015    1       5       0.1249566       35.43751
2015    1       6       0.1395077       38.62963
2015    1       7       0.1426116       39.27384
2015    2       0       0.0899702       27.36364
2015    2       1       0.08228986      25.46243
2015    2       2       0.08004453      24.88459
2015    2       3       0.076522        24.02594
2015    2       4       0.08084836      25.09846
2015    2       5       0.08104916      25.22927
2015    2       6       0.0777735       24.56499
2015    2       7       0.07622043      24.1882
2015    3       0       0.08985876      27.3187
2015    3       1       0.1113303       32.40358
2015    3       2       0.1390047       38.74192
2015    3       3       0.1554346       42.4869
2015    3       4       0.1387742       38.87075
2015    3       5       0.1442752       39.87701
2015    3       6       0.1589699       43.30406
2015    3       7       0.156201        42.94955
2015    4       0       0.1628241       44.46134
2015    4       1       0.1480875       41.39981
2015    4       2       0.1202858       34.68164
2015    4       3       0.1495839       40.91861
2015    4       4       0.1767727       47.10733
2015    4       5       0.1549277       42.72072
2015    4       6       0.1798064       48.69079
2015    4       7       0.1912988       51.45026
2015    5       0       0.2096468       54.94836
2015    5       1       0.2161074       56.21883
2015    5       2       0.2357522       60.25701
2015    5       3       0.2729806       67.44514
2015    5       4       0.2231135       57.81386
2015    5       5       0.1254406       36.35681
2015    5       6       0.1101647       32.63748
2015    5       7       0.09028724      27.94477
2015    6       0       0.1071325       32.13724
2015    6       1       0.1406435       39.7287
2015    6       2       0.11153         32.12671
2015    6       3       0.1051591       30.60342
2015    6       4       0.1100485       31.77581
2015    6       5       0.1195249       34.35967
2015    6       6       0.1439731       40.38361
2015    6       7       0.1507365       42.17493
2015    7       0       0.143436        40.67345
2015    7       1       0.1376558       39.32859
2015    7       2       0.1409176       39.84962
2015    7       3       0.1234145       35.82675
2015    7       4       0.1150655       33.82211
2015    7       5       0.1121628       32.81362
2015    7       6       0.09897172      29.78167
2015    7       7       0.0985358       29.95132
2015    8       0       0.1052752       31.6278
2015    8       1       0.09453729      29.11395
2015    8       2       0.09805329      29.8493
2015    8       3       0.1021629       30.72307
2015    8       4       0.1257993       36.00084
2015    8       5       0.1895586       50.67578
2015    8       6       0.2526638       64.6343
2015    8       7       0.325207        79.31945
2015    9       0       0.3384075       81.8343
2015    9       1       0.3088159       76.42828
2015    9       2       0.3460083       83.52874
2015    9       3       0.3925795       91.90648
2015    9       4       0.4070627       94.69431
2015    9       5       0.3103202       77.03632
2015    9       6       0.2816176       71.23388
2015    9       7       0.2111388       56.45796
2015    10      0       0.2124764       56.82315
2015    10      1       0.2104402       56.45613
2015    10      2       0.19795         53.54056
2015    10      3       0.2075968       55.31633
2015    10      4       0.2426511       63.1195
2015    10      5       0.194136        52.54677
2015    10      6       0.2264354       59.4945
2015    10      7       0.2379382       62.19021
2015    11      0       0.25763         66.53008
2015    11      1       0.2312427       60.69534
2015    11      2       0.1995264       53.7158
2015    11      3       0.2267516       59.17553
2015    11      4       0.2374778       61.59055
2015    11      5       0.3385864       81.29524
2015    11      6       0.353992        84.4421
2015    11      7       0.3604909       85.01074
2015    12      0       0.4077027       93.4757
2015    12      1       0.479849        105.8504
2015    12      2       0.5988288       123.8813
2015    12      3       0.676414        134.4959
2015    12      4       0.6808403       134.3733
2015    12      5       0.6577119       130.1472
2015    12      6       0.425996        94.73128
2015    12      7       0.3942095       88.36192
2015    13      0       0.5165781       107.4418
2015    13      1       0.4279688       93.92455
2015    13      2       0.3687288       83.92612
2015    13      3       0.3780348       85.65888
2015    13      4       0.3143908       74.50528
2015    13      5       0.1881319       49.87243
2015    13      6       0.1177378       34.49969
2015    13      7       0.1675877       46.15893
2015    14      0       0.2203373       57.60112
2015    14      1       0.2156933       56.84027
2015    14      2       0.1901605       51.07667
2015    14      3       0.1877432       50.43609
2015    14      4       0.2158247       56.36588
2015    14      5       0.2241532       58.1227
2015    14      6       0.3031223       74.12813
2015    14      7       0.4698853       103.3678
2015    15      0       0.2722187       66.65855
2015    15      1       0.1895175       49.26319
2015    15      2       0.2692567       64.85438
2015    15      3       0.2454229       60.21753
2015    15      4       0.2114373       53.26054
2015    15      5       0.1720924       45.11202
2015    15      6       0.1883051       48.27519
2015    15      7       0.1938137       49.60606
2015    16      0       0.1956067       50.21259
2015    16      1       0.1665325       44.19577
2015    16      2       0.1645498       43.82043
2015    16      3       0.1573307       42.24027
2015    16      4       0.1550541       41.70194
2015    16      5       0.1545805       41.50051
2015    16      6       0.1560217       41.85789
2015    16      7       0.173599        45.89447
2015    17      0       0.1479275       40.48262
2015    17      1       0.1514199       41.38453
2015    17      2       0.1459886       40.47288
2015    17      3       0.1358394       37.99534
2015    17      4       0.1237959       35.52847
2015    17      5       0.1242917       35.55383
2015    17      6       0.1456887       40.05057
2015    17      7       0.1758389       46.86955
2015    18      0       0.1938096       50.78978
2015    18      1       0.2218461       56.58415
2015    18      2       0.2402459       60.83505
2015    18      3       0.228599        58.66201
2015    18      4       0.2423696       61.77739
2015    18      5       0.2644581       66.52716
2015    18      6       0.2700524       67.99658
2015    18      7       0.2904599       72.37276
2015    19      0       0.2511019       64.68894
2015    19      1       0.1950728       52.82579
2015    19      2       0.1463691       41.64478
2015    19      3       0.1244117       36.36848
2015    19      4       0.130257        37.59145
2015    19      5       0.1416749       40.09511
2015    19      6       0.1647121       45.12548
2015    19      7       0.1816644       48.55688
2015    20      0       0.2271526       57.38014
2015    20      1       0.3399615       80.55206
2015    20      2       0.42585         96.91304
2015    20      3       0.2902978       71.81645
2015    20      4       0.241793        61.76736
2015    20      5       0.2696007       67.53657
2015    20      6       0.3938005       90.23305
2015    20      7       0.2124844       55.56635
2015    21      0       0.237746        60.52924
2015    21      1       0.2848383       70.22502
2015    21      2       0.3566096       83.06912
2015    21      3       0.2723386       67.32623
2015    21      4       0.1871442       50.1277
2015    21      5       0.2341023       59.82251
2015    21      6       0.2842701       70.07574
2015    21      7       0.3018703       73.20639
2015    22      0       0.32172         76.89558
2015    22      1       0.2852594       69.91742
2015    22      2       0.2280719       58.54284
2015    22      3       0.3235977       77.61406
2015    22      4       0.3801744       87.84086
2015    22      5       0.4257607       95.36987
2015    22      6       0.5571049       116.4976
2015    22      7       0.588352        121.1657
2015    23      0       0.4386532       98.77527
2015    23      1       0.4236053       95.85803
2015    23      2       0.4391318       98.53386
2015    23      3       0.4615934       102.519
2015    23      4       0.5216487       112.0029
2015    23      5       0.5722201       119.5533
2015    23      6       0.6290984       127.6981
2015    23      7       0.5328117       113.8943
2015    24      0       0.5211998       112.0352
2015    24      1       0.5145846       110.9233
2015    24      2       0.5063703       109.3551
2015    24      3       0.5487796       115.7592
2015    24      4       0.5794796       120.3308
2015    24      5       0.5935718       122.1169
2015    24      6       0.4662633       103.1889
2015    24      7       0.3081143       75.03048
2015    25      0       0.3027126       74.55924
2015    25      1       0.3152013       77.76107
2015    25      2       0.2434627       62.89645
2015    25      3       0.2674008       67.99301
2015    25      4       0.2717485       68.86446
2015    25      5       0.2639516       66.77283
2015    25      6       0.2132455       56.02046
2015    25      7       0.2063834       54.34622
2015    26      0       0.1973689       52.04995
2015    26      1       0.1951543       51.16982
2015    26      2       0.182483        48.1467
2015    26      3       0.1881825       48.96824
2015    26      4       0.1726406       45.44857
2015    26      5       0.1722634       45.16129
2015    26      6       0.2315958       57.05749
2015    26      7       0.3426708       77.82756
2015    27      0       0.4345242       93.42061
2015    27      1       0.4300648       92.87668
2015    27      2       0.3019375       70.80742
2015    27      3       0.3186791       73.71962
2015    27      4       0.4239304       91.8606
2015    27      5       0.3476003       79.8842
2015    27      6       0.3691045       84.16371
2015    27      7       0.3915013       88.44271
2015    28      0       0.3527102       82.2949
2015    28      1       0.3253062       77.47088
2015    28      2       0.3142421       75.10988
2015    28      3       0.2975461       72.05737
2015    28      4       0.3003585       72.43063
2015    28      5       0.2796189       68.53217
2015    28      6       0.2774503       68.27502
2015    28      7       0.2921765       71.08373
2015    29      0       0.3011213       72.39926
2015    29      1       0.2714646       66.39555
2015    29      2       0.229694        58.15082
2015    29      3       0.2378374       59.66066
2015    29      4       0.2608791       63.944
2015    29      5       0.2854848       68.36943
2015    29      6       0.4225215       91.43355
2015    29      7       0.4225429       91.44166
2015    30      0       0.2734702       66.01254
2015    30      1       0.222748        56.25921
2015    30      2       0.1932012       50.25667
2015    30      3       0.1815673       47.921
2015    30      4       0.154777        42.14972
2015    30      5       0.141252        39.12288
2015    30      6       0.1488589       40.74135
2015    30      7       0.1372701       38.32008
2015    31      0       0.1378659       38.59388
2015    31      1       0.1386469       38.7866
2015    31      2       0.1268345       36.01304
2015    31      3       0.1132574       32.74117
2015    31      4       0.107472        31.46265
2015    31      5       0.1111182       32.3277
2015    31      6       0.1203155       34.48739
2015    31      7       0.1489315       41.00426
2016    1       0       0.1760369       47.14909
2016    1       1       0.1825681       48.70136
2016    1       2       0.2189554       55.83265
2016    1       3       0.2254404       57.08935
2016    1       4       0.1892899       49.92298
2016    1       5       0.1792834       47.53272
2016    1       6       0.2190966       56.01639
2016    1       7       0.2408939       60.81442
2016    2       0       0.2809833       68.69811
2016    2       1       0.2919931       70.62351
2016    2       2       0.3253832       76.23083
2016    2       3       0.3921069       87.77517
2016    2       4       0.3613113       82.19632
2016    2       5       0.3127987       73.72432
2016    2       6       0.2693709       65.97636
2016    2       7       0.3163195       74.96156
2016    3       0       0.3154106       74.92403
2016    3       1       0.3482075       80.89115
2016    3       2       0.4568412       99.33598
2016    3       3       0.6333762       126.535
2016    3       4       0.5547026       115.8549
2016    3       5       0.4648974       102.7557
2016    3       6       0.412584        93.76788
2016    3       7       0.3605529       85.2911
2016    4       0       0.3306217       79.3911
2016    4       1       0.2280253       58.74457
2016    4       2       0.1493576       41.50244
2016    4       3       0.121081        35.09746
2016    4       4       0.1154466       33.905
2016    4       5       0.1248324       35.92775
2016    4       6       0.1551066       43.03091
2016    4       7       0.1784701       48.05137
2016    5       0       0.1872759       50.17973
2016    5       1       0.1998821       52.8412
2016    5       2       0.2209295       57.21848
2016    5       3       0.2577522       64.64223
2016    5       4       0.2825324       69.53005
2016    5       5       0.2889747       70.85577
2016    5       6       0.290429        71.35265
2016    5       7       0.2735915       68.18703
2016    6       0       0.3201097       76.58837
2016    6       1       0.3142688       75.18779
2016    6       2       0.2798907       68.22631
2016    6       3       0.297796        71.45769
2016    6       4       0.3936367       88.78142
2016    6       5       0.5414348       112.8994
2016    6       6       0.4559841       100.2003
2016    6       7       0.4600961       101.5236
2016    7       0       0.4210583       95.67154
2016    7       1       0.3881182       90.27381
2016    7       2       0.3807465       89.05217
2016    7       3       0.4062175       93.7726
2016    7       4       0.3984716       92.45434
2016    7       5       0.348628        83.24058
2016    7       6       0.3135907       75.76232
2016    7       7       0.3028263       73.48631
2016    8       0       0.2877935       70.51213
2016    8       1       0.2971236       72.13807
2016    8       2       0.3093225       74.13117
2016    8       3       0.3211033       76.1632
2016    8       4       0.3216405       76.66729
2016    8       5       0.3221612       77.71238
2016    8       6       0.3358764       80.41778
2016    8       7       0.3415387       81.4631
2016    9       0       0.3623977       85.24907
2016    9       1       0.3212973       77.82928
2016    9       2       0.3401124       81.34813
2016    9       3       0.3730603       87.46167
2016    9       4       0.3944697       91.40564
2016    9       5       0.4171404       95.67847
2016    9       6       0.4089956       94.50348
2016    9       7       0.3667566       86.90788
2016    10      0       0.3735522       88.16509
2016    10      1       0.3803708       89.1675
2016    10      2       0.3484441       83.49168
2016    10      3       0.2912996       72.48143
2016    10      4       0.2406975       61.96209
2016    10      5       0.1980936       52.82723
2016    10      6       0.2019773       53.94548
2016    10      7       0.2203938       57.81963
2016    11      0       0.2899779       72.71318
2016    11      1       0.3817291       90.02112
2016    11      2       0.4312574       98.29567
2016    11      3       0.5350069       115.9603
2016    11      4       0.6240402       130.2272
2016    11      5       0.6789265       136.7701
2016    11      6       0.6977735       138.2394
2016    11      7       0.5017063       110.1906
2016    12      0       0.397727        92.7128
2016    12      1       0.3941735       91.82559
2016    12      2       0.4450698       100.7088
2016    12      3       0.5072324       110.7999
2016    12      4       0.5539146       118.0434
2016    12      5       0.5821594       122.1954
2016    12      6       0.6354649       130.1062
2016    12      7       0.5893903       123.6577
2016    13      0       0.5628171       119.5562
2016    13      1       0.5639158       119.6385
2016    13      2       0.5613524       119.2411
2016    13      3       0.5914329       123.6102
2016    13      4       0.5430516       116.56
2016    13      5       0.5499137       117.4324
2016    13      6       0.5696796       120.3212
2016    13      7       0.5751175       121.1284
2016    14      0       0.500979        109.969
2016    14      1       0.4842377       107.6856
2016    14      2       0.3758666       88.95519
2016    14      3       0.5305824       115.7986
2016    14      4       0.4474192       102.1866
2016    14      5       0.4390198       100.5936
2016    14      6       0.4317322       99.06513
2016    14      7       0.3920089       91.65854
2016    15      0       0.3488104       83.6548
2016    15      1       0.3254683       79.53345
2016    15      2       0.3161612       77.77109
2016    15      3       0.250651        64.56649
2016    15      4       0.2059819       55.05172
2016    15      5       0.1915552       51.81006
2016    15      6       0.2433513       62.61459
2016    15      7       0.2974791       73.43367
2016    16      0       0.3376452       81.43564
2016    16      1       0.3545288       84.60693
2016    16      2       0.3445175       82.33101
2016    16      3       0.4300806       96.84436
2016    16      4       0.6360892       129.4356
2016    16      5       0.5710675       121.6707
2016    16      6       0.7108224       140.8257
2016    16      7       0.8581296       159.25
2016    17      0       0.7294099       144.0559
2016    17      1       0.6703331       135.73
2016    17      2       0.7548889       146.0313
2016    17      3       0.8104562       152.1541
2016    17      4       0.7945075       150.1081
2016    17      5       0.3560808       82.6482
2016    17      6       0.2874607       68.82842
2016    17      7       0.2459231       60.95971
2016    18      0       0.09569091      28.48231
2016    18      1       0.08144476      25.03344
2016    18      2       0.07783453      24.36298
2016    18      3       0.07093203      22.65708
2016    18      4       0.070173        22.27733
2016    18      5       0.0698164       22.20343
2016    18      6       0.07070399      22.47651
2016    18      7       0.07680161      24.03921
2016    19      0       0.09300965      28.01991
2016    19      1       0.09950371      29.4907
2016    19      2       0.09451276      28.21875
2016    19      3       0.1071726       31.05396
2016    19      4       0.1368154       37.9417
2016    19      5       0.2035848       52.93426
2016    19      6       0.2276714       58.39768
2016    19      7       0.2618707       65.98266
2016    20      0       0.2929447       72.42696
2016    20      1       0.3110774       76.17038
2016    20      2       0.3105298       76.26311
2016    20      3       0.3109858       76.31293
2016    20      4       0.2875559       71.71767
2016    20      5       0.2540798       64.66784
2016    20      6       0.2865472       71.29112
2016    20      7       0.3263592       78.84314
2016    21      0       0.3850185       89.59657
2016    21      1       0.4240284       96.72262
2016    21      2       0.4261613       96.89328
2016    21      3       0.5515025       116.2427
2016    21      4       0.7589859       145.115
2016    21      5       0.8528425       156.6759
2016    21      6       0.8850409       161.033
2016    21      7       0.9529204       168.4651
2016    22      0       0.8894502       162.2102
2016    22      1       0.9543456       168.6965
2016    22      2       1.021701        175.8739
2016    22      3       1.219604        192.6559
2016    22      4       1.136533        184.5639
2016    22      5       1.317783        199.8116
2016    22      6       1.244098        194.8149
2016    22      7       1.139574        186.9833
2016    23      0       1.256352        197.2502
2016    23      1       1.200513        190.8638
2016    23      2       0.6705883       134.6061
2016    23      3       0.5843996       122.3207
2016    23      4       0.4838512       106.9834
2016    23      5       0.4554943       101.704
2016    23      6       0.3649711       86.5601
2016    23      7       0.3190458       77.9471
2016    24      0       0.3046485       74.97101
2016    24      1       0.356122        84.31869
2016    24      2       0.3548913       84.36219
2016    24      3       0.2982441       73.78236
2016    24      4       0.2986864       74.14332
2016    24      5       0.3646015       86.9017
2016    24      6       0.3502491       84.34905
2016    24      7       0.3564435       85.481
2016    25      0       0.4242905       96.89492
2016    25      1       0.5629868       118.1861
2016    25      2       0.757854        141.7697
2016    25      3       0.3151818       73.93451
2016    25      4       0.3674265       82.49374
2016    25      5       0.3541101       80.42595
2016    25      6       0.2302171       57.678
2016    25      7       0.1813992       48.00739
2016    26      0       0.2120167       54.56158
2016    26      1       0.2578141       64.21901
2016    26      2       0.2492478       62.73421
2016    26      3       0.1744918       46.84176
2016    26      4       0.164007        44.5573
2016    26      5       0.1431485       39.91697
2016    26      6       0.2112305       55.15071
2016    26      7       0.2447822       62.57684
2016    27      0       0.2608345       65.95723
2016    27      1       0.2786928       69.45734
2016    27      2       0.2661092       67.04005
2016    27      3       0.2281386       59.106
2016    27      4       0.213937        56.02956
2016    27      5       0.1974713       52.51987
2016    27      6       0.2034611       53.95118
2016    27      7       0.2091506       55.25968
2016    28      0       0.2199884       57.63627
2016    28      1       0.2056961       54.70456
2016    28      2       0.1664801       45.79938
2016    28      3       0.1562043       43.35717
2016    28      4       0.1421185       40.07339
2016    28      5       0.1321749       37.86285
2016    28      6       0.1333972       38.13285
2016    28      7       0.140472        39.79538
2016    29      0       0.1537115       42.86306
2016    29      1       0.1649775       45.46185
2016    29      2       0.1662385       45.53597
2016    29      3       0.1448447       40.12948
2016    29      4       0.1467625       40.09238
2016    29      5       0.2004064       51.5902
2016    29      6       0.2801908       68.09255
2016    29      7       0.3779299       86.49481
2016    30      0       0.4318782       96.00997
2016    30      1       0.3964825       90.21833
2016    30      2       0.4204527       94.92745
2016    30      3       0.4526694       101.3401
2016    30      4       0.4808541       106.4536
2016    30      5       0.5418248       116.4254
2016    30      6       0.5824272       122.9085
2016    30      7       0.5385427       116.8201
2016    31      0       0.5582256       119.5837
2016    31      1       0.6403256       131.4647
2016    31      2       0.5560279       118.9692
2016    31      3       0.5960287       124.8584
2016    31      4       0.6578528       132.9257
2016    31      5       0.7563026       143.8915
2016    31      6       0.6643648       131.4556
2016    31      7       0.6221806       125.6484
2017    1       0       0.6810179       134.7939
2017    1       1       0.7179996       139.6397
2017    1       2       0.7021748       138.1686
2017    1       3       0.6846431       135.8482
2017    1       4       0.6857888       136.1366
2017    1       5       0.6557886       132.1623
2017    1       6       0.6511069       131.4906
2017    1       7       0.6596305       132.5107
2017    2       0       0.6071306       125.3278
2017    2       1       0.557651        118.2775
2017    2       2       0.545849        116.409
2017    2       3       0.5753946       120.4383
2017    2       4       0.5914158       122.3156
2017    2       5       0.594877        122.7354
2017    2       6       0.6998853       136.7318
2017    2       7       0.7695152       145.9578
2017    3       0       0.7483093       143.7626
2017    3       1       0.6389541       129.8535
2017    3       2       0.5927731       123.0595
2017    3       3       0.5392731       115.2458
2017    3       4       0.4920339       108.1982
2017    3       5       0.470609        104.902
2017    3       6       0.5986927       124.8521
2017    3       7       0.6745523       135.7283
2017    4       0       0.5657158       120.4626
2017    4       1       0.4385072       100.2432
2017    4       2       0.4089548       95.117
2017    4       3       0.5053537       110.6911
2017    4       4       0.5255502       113.7646
2017    4       5       0.3236265       78.34351
2017    4       6       0.2827986       70.09874
2017    4       7       0.3035561       74.12853
2017    5       0       0.3002374       73.53646
2017    5       1       0.2930627       71.59789
2017    5       2       0.2866268       70.14254
2017    5       3       0.4333619       95.56755
2017    5       4       0.6049762       121.9218
2017    5       5       0.5646016       116.1229
2017    5       6       0.5775908       117.8952
2017    5       7       0.620916        124.4376
2017    6       0       0.6496956       128.4554
2017    6       1       0.5944863       121.2173
2017    6       2       0.558062        115.8453
2017    6       3       0.434189        96.36728
2017    6       4       0.270733        66.56813
2017    6       5       0.143087        39.63354
2017    6       6       0.09865238      29.48967
2017    6       7       0.1304024       36.8259
2017    7       0       0.1910276       50.19315
2017    7       1       0.1468738       40.32959
2017    7       2       0.1287067       36.10434
2017    7       3       0.1023854       29.91003
2017    7       4       0.1191815       33.62473
2017    7       5       0.175659        45.84097
2017    7       6       0.2511615       60.73067
2017    7       7       0.2294331       56.50193
2017    8       0       0.1529415       40.79513
2017    8       1       0.1675384       43.88118
2017    8       2       0.2028045       51.43211
2017    8       3       0.2246787       56.39439
2017    8       4       0.244558        60.8267
2017    8       5       0.2430775       60.80809
2017    8       6       0.2529205       63.03637
2017    8       7       0.2533982       63.58853
2017    9       0       0.2416799       61.41781
2017    9       1       0.2120107       55.31757
2017    9       2       0.1811266       48.61604
2017    9       3       0.1673276       45.71248
2017    9       4       0.1573698       43.4558
2017    9       5       0.1476553       41.14395
2017    9       6       0.1654641       45.28437
2017    9       7       0.1567413       43.45529
2017    10      0       0.1324223       37.98493
2017    10      1       0.1200805       35.06442
2017    10      2       0.09638254      29.23587
2017    10      3       0.07670495      24.26903
2017    10      4       0.08208668      25.54814
2017    10      5       0.08267237      25.71508
2017    10      6       0.08635012      26.68723
2017    10      7       0.08936746      27.476
2017    11      0       0.09389899      28.56984
2017    11      1       0.09419394      28.57891
2017    11      2       0.08645521      26.62669
2017    11      3       0.07093587      22.64801
2017    11      4       0.06766821      21.72068
2017    11      5       0.07611334      23.75761
2017    11      6       0.08339388      25.51414
2017    11      7       0.1086644       31.71486
2017    12      0       0.09886466      29.40699
2017    12      1       0.08786042      27.08269
2017    12      2       0.1027918       30.73762
2017    12      3       0.1115572       32.72764
2017    12      4       0.113272        33.24462
2017    12      5       0.1155071       33.92801
2017    12      6       0.1345577       38.54246
2017    12      7       0.1452165       40.80742
2017    13      0       0.1478535       41.41216
2017    13      1       0.1523821       42.44382
2017    13      2       0.150777        42.06751
2017    13      3       0.1428681       40.27254
2017    13      4       0.1362717       38.70073
2017    13      5       0.1301387       37.3365
2017    13      6       0.1418242       40.19061
2017    13      7       0.1403069       39.98568
2017    14      0       0.1243136       36.27253
2017    14      1       0.1169867       34.46888
2017    14      2       0.1205075       35.13369
2017    14      3       0.1295262       37.00388
2017    14      4       0.1480377       41.07001
2017    14      5       0.20135         52.10147
2017    14      6       0.2883203       69.08987
2017    14      7       0.2733558       66.83194
2017    15      0       0.2809262       68.75343
2017    15      1       0.4312101       97.48151
2017    15      2       0.2185695       56.6159
2017    15      3       0.1945146       51.5097
2017    15      4       0.1961988       51.91382
2017    15      5       0.180896        48.49666
2017    15      6       0.1505539       41.55507
2017    15      7       0.1500989       41.41151
2017    16      0       0.1602459       43.92643
2017    16      1       0.1733265       46.95127
2017    16      2       0.1883346       50.38117
2017    16      3       0.202101        53.33618
2017    16      4       0.1914603       50.84004
2017    16      5       0.1796782       48.18807
2017    16      6       0.1891762       50.22825
2017    16      7       0.2069603       53.68894
2017    17      0       0.2220162       56.2856
2017    17      1       0.2220523       56.11816
2017    17      2       0.3233252       75.33485
2017    17      3       0.4588061       99.2257
2017    17      4       0.3432629       79.9508
2017    17      5       0.5009963       106.1811
2017    17      6       0.5249394       109.9059
2017    17      7       0.5895728       120.4294
2017    18      0       0.538461        113.0143
2017    18      1       0.4320904       96.07125
2017    18      2       0.3518613       82.39143
2017    18      3       0.3728965       85.63747
2017    18      4       0.3578222       83.05536
2017    18      5       0.4027968       91.04035
2017    18      6       0.5537819       115.3034
2017    18      7       0.6465673       127.6064
2017    19      0       0.5366749       112.5957
2017    19      1       0.4018359       91.45593
2017    19      2       0.3428879       81.00871
2017    19      3       0.2968257       72.10376
2017    19      4       0.2339363       59.26065
2017    19      5       0.261905        65.02415
2017    19      6       0.3031316       73.32621
2017    19      7       0.2809988       69.20066
2017    20      0       0.2848647       70.11301
2017    20      1       0.293409        71.96973
2017    20      2       0.283658        70.18976
2017    20      3       0.2837951       70.33288
2017    20      4       0.2723769       68.23364
2017    20      5       0.2482142       63.44893
2017    20      6       0.2468204       63.06056
2017    20      7       0.2554459       64.35541
2017    21      0       0.2598716       65.2441
2017    21      1       0.2663205       66.5324
2017    21      2       0.2933174       71.97213
2017    21      3       0.2409139       62.10398
2017    21      4       0.2056669       54.95802
2017    21      5       0.2547602       64.86064
2017    21      6       0.2106668       55.58213
2017    21      7       0.1413443       39.92922
2017    22      0       0.101687        30.23121
2017    22      1       0.09705386      28.92223
2017    22      2       0.1003255       29.59406
2017    22      3       0.1212353       34.2663
2017    22      4       0.1553317       41.6819
2017    22      5       0.1563616       41.90944
2017    22      6       0.1533405       41.51867
2017    22      7       0.1989867       51.56236
2017    23      0       0.1859176       49.04112
2017    23      1       0.1830793       48.49095
2017    23      2       0.2155624       55.54974
2017    23      3       0.2564617       63.96401
2017    23      4       0.2812293       68.85148
2017    23      5       0.2675459       66.18157
2017    23      6       0.3288219       78.09475
2017    23      7       0.3982947       91.09997
2017    24      0       0.3329081       79.21894
2017    24      1       0.2882718       70.61561
2017    24      2       0.2856442       69.90193
2017    24      3       0.2760384       67.87366
2017    24      4       0.2588877       64.66719
2017    24      5       0.2713206       67.37191
2017    24      6       0.3414794       80.90132
2017    24      7       0.4383303       98.12985
2017    25      0       0.4257157       96.4093
2017    25      1       0.4183303       95.03181
2017    25      2       0.4212445       95.25681
2017    25      3       0.4896399       106.1848
2017    25      4       0.4184747       94.72569
2017    25      5       0.2998561       73.13426
2017    25      6       0.2508303       63.30978
2017    25      7       0.2310479       58.9819
2017    26      0       0.2265254       58.17552
2017    26      1       0.2582554       64.84787
2017    26      2       0.2538322       64.16241
2017    26      3       0.2547956       64.55239
2017    26      4       0.2458889       62.97203
2017    26      5       0.1886702       50.78504
2017    26      6       0.2286895       59.33046
2017    26      7       0.3024652       74.58104
2017    27      0       0.3012185       74.04095
2017    27      1       0.306294        74.49674
2017    27      2       0.3104919       74.9486
2017    27      3       0.2638849       65.46053
2017    27      4       0.2300876       58.49472
2017    27      5       0.1631354       44.43632
2017    27      6       0.1405248       39.48555
2017    27      7       0.1349377       38.2635
2017    28      0       0.1258179       36.24349
2017    28      1       0.1171662       34.37261
2017    28      2       0.09993329      30.25362
2017    28      3       0.0977031       29.57565
2017    28      4       0.09555839      28.94646
2017    28      5       0.1107406       32.44962
2017    28      6       0.1663626       44.95459
2017    28      7       0.1721737       46.35353
2017    29      0       0.1639073       45.05865
2017    29      1       0.1504742       42.17565
2017    29      2       0.1326831       38.13879
2017    29      3       0.1319756       37.90974
2017    29      4       0.1345801       38.31618
2017    29      5       0.1649643       45.00552
2017    29      6       0.1883614       50.25447
2017    29      7       0.1751819       47.62948
2017    30      0       0.1283972       37.10156
2017    30      1       0.1085133       32.24425
2017    30      2       0.111002        32.57114
2017    30      3       0.1259662       35.93074
2017    30      4       0.1264273       36.08336
2017    30      5       0.118716        34.23904
2017    30      6       0.1119284       32.78721
2017    30      7       0.1028409       30.68938
2017    31      0       0.1157758       33.90495
2017    31      1       0.1274493       36.74363
2017    31      2       0.1179553       34.36216
2017    31      3       0.1142873       33.44288
2017    31      4       0.1139712       33.42307
2017    31      5       0.1208161       35.13539
2017    31      6       0.1400391       39.5247
2017    31      7       0.147367        41.10081
2018    1       0       0.488011        104.8552
2018    1       1       0.4996072       106.8789
2018    1       2       0.4382858       97.14418
2018    1       3       0.4030907       91.17143
2018    1       4       0.3848424       87.88546
2018    1       5       0.3294479       77.90623
2018    1       6       0.2784105       67.95714
2018    1       7       0.2650059       65.10246
2018    2       0       0.2828809       68.71748
2018    2       1       0.3464459       80.91095
2018    2       2       0.3662519       84.87758
2018    2       3       0.3884891       88.84865
2018    2       4       0.3420304       80.59633
2018    2       5       0.3502333       81.78603
2018    2       6       0.3621775       83.50185
2018    2       7       0.380139        86.62651
2018    3       0       0.2948881       71.05463
2018    3       1       0.2001412       51.84418
2018    3       2       0.1444738       39.5832
2018    3       3       0.1437703       39.35464
2018    3       4       0.1590169       42.49795
2018    3       5       0.1517478       40.96377
2018    3       6       0.1756328       46.01492
2018    3       7       0.2127241       54.22401
2018    4       0       0.1791303       47.85806
2018    4       1       0.1571287       43.15216
2018    4       2       0.1601243       43.58091
2018    4       3       0.1726861       46.37796
2018    4       4       0.1780207       47.57701
2018    4       5       0.1966871       51.51346
2018    4       6       0.2899559       70.20499
2018    4       7       0.3351675       78.80076
2018    5       0       0.3197488       76.07164
2018    5       1       0.278892        68.41959
2018    5       2       0.2551181       63.39211
2018    5       3       0.2655541       65.3872
2018    5       4       0.272631        67.09663
2018    5       5       0.2794768       68.90876
2018    5       6       0.2990958       72.89269
2018    5       7       0.2901208       71.68579
2018    6       0       0.3101244       75.68577
2018    6       1       0.3234064       78.08616
2018    6       2       0.352562        83.92804
2018    6       3       0.3461796       82.63014
2018    6       4       0.3337256       80.48812
2018    6       5       0.3543649       84.27995
2018    6       6       0.3747789       87.72947
2018    6       7       0.4412769       99.03435
2018    7       0       0.4945031       107.5902
2018    7       1       0.6340303       127.9974
2018    7       2       0.863608        156.4522
2018    7       3       0.7841398       147.972
2018    7       4       0.7509571       143.4964
2018    7       5       0.6387881       129.1242
2018    7       6       0.7225737       139.6145
2018    7       7       0.6692332       132.0775
2018    8       0       0.6132075       124.5398
2018    8       1       0.591585        121.4291
2018    8       2       0.6258286       126.2388
2018    8       3       0.5353427       113.328
2018    8       4       0.3871619       89.46665
2018    8       5       0.2873509       70.93613
2018    8       6       0.2402284       61.32873
2018    8       7       0.2346617       59.97589
2018    9       0       0.2083505       54.57622
2018    9       1       0.211664        55.39235
2018    9       2       0.1721917       46.86904
2018    9       3       0.154163        42.75378
2018    9       4       0.1328545       37.85131
2018    9       5       0.1195576       34.66212
2018    9       6       0.1456125       40.8043
2018    9       7       0.1464736       40.75363
2018    10      0       0.1593671       43.7174
2018    10      1       0.1536625       42.57181
2018    10      2       0.1268175       36.57651
2018    10      3       0.1051114       31.13398
2018    10      4       0.09031719      27.0271
2018    10      5       0.0935149       27.6763
2018    10      6       0.1216071       34.28861
2018    10      7       0.1603901       42.93741
2018    11      0       0.1937229       50.09339
2018    11      1       0.2531007       62.62342
2018    11      2       0.3145417       73.85655
2018    11      3       0.3296664       77.028
2018    11      4       0.2710714       67.02205
2018    11      5       0.2402551       60.3642
2018    11      6       0.2509942       62.07809
2018    11      7       0.2774361       67.92593
2018    12      0       0.2752893       68.13382
2018    12      1       0.2559595       64.47876
2018    12      2       0.2745572       67.95577
2018    12      3       0.3093122       74.78035
2018    12      4       0.3281801       78.52621
2018    12      5       0.3353114       79.9809
2018    12      6       0.2894103       71.1794
2018    12      7       0.2832394       69.70209
2018    13      0       0.3669588       86.04995
2018    13      1       0.2844445       69.58681
2018    13      2       0.1468849       40.14813
2018    13      3       0.1407762       38.90513
2018    13      4       0.1346808       37.51152
2018    13      5       0.106498        31.23094
2018    13      6       0.09516748      28.36145
2018    13      7       0.08716526      26.47979
2018    14      0       0.09809965      29.14751
2018    14      1       0.1045953       30.84627
2018    14      2       0.1020778       30.26495
2018    14      3       0.100095        29.74826
2018    14      4       0.1006553       30.08533
2018    14      5       0.1032821       30.67383
2018    14      6       0.1093798       32.02592
2018    14      7       0.1120698       32.65169
2018    15      0       0.1172426       33.77384
2018    15      1       0.127691        36.1155
2018    15      2       0.136531        37.8416
2018    15      3       0.1245966       34.90546
2018    15      4       0.1563602       41.57756
2018    15      5       0.1802267       46.65081
2018    15      6       0.1951994       50.21331
2018    15      7       0.1952216       50.17538
2018    16      0       0.1986979       50.92604
2018    16      1       0.1940298       49.93425
2018    16      2       0.1997916       50.93506
2018    16      3       0.2548449       61.90627
2018    16      4       0.260205        63.67205
2018    16      5       0.3282373       77.69295
2018    16      6       0.4585212       101.0741
2018    16      7       0.5369394       113.8749
2018    17      0       0.4599917       101.5774
2018    17      1       0.4309448       96.25845
2018    17      2       0.4634919       100.9517
2018    17      3       0.6732453       131.5355
2018    17      4       0.6145226       124.7136
2018    17      5       0.555782        116.6089
2018    17      6       0.6685106       132.7959
2018    17      7       0.6574624       131.5416
2018    18      0       0.7052919       137.5407
2018    18      1       0.6980768       136.3061
2018    18      2       0.7273865       139.3347
2018    18      3       0.715501        137.3006
2018    18      4       0.6867681       133.4512
2018    18      5       0.4795221       103.93
2018    18      6       0.4348781       97.08573
2018    18      7       0.3935772       90.51907
2018    19      0       0.3393217       80.66539
2018    19      1       0.3194419       77.0698
2018    19      2       0.3451421       82.16017
2018    19      3       0.2969585       73.2938
2018    19      4       0.2309211       59.99554
2018    19      5       0.2251488       58.77223
2018    19      6       0.2477035       63.27353
2018    19      7       0.2637679       66.64122
2018    20      0       0.2499807       63.68058
2018    20      1       0.2741161       68.73712
2018    20      2       0.2858996       71.05619
2018    20      3       0.2453222       62.91789
2018    20      4       0.199871        53.33849
2018    20      5       0.1753132       47.91568
2018    20      6       0.1635122       45.35225
2018    20      7       0.1605674       44.67577
2018    21      0       0.1549969       43.45114
2018    21      1       0.1548075       43.2763
2018    21      2       0.1493139       41.69619
2018    21      3       0.1654206       45.37159
2018    21      4       0.1527654       42.27376
2018    21      5       0.1316617       37.12362
2018    21      6       0.1493935       40.86652
2018    21      7       0.1682917       45.3766
2018    22      0       0.2093491       54.16472
2018    22      1       0.2369337       59.36866
2018    22      2       0.3679693       85.49406
2018    22      3       0.2794591       69.87433
2018    22      4       0.2807151       70.10033
2018    22      5       0.2947978       72.52556
2018    22      6       0.3127827       76.27628
2018    22      7       0.2832722       70.47234
2018    23      0       0.2158221       56.67855
2018    23      1       0.2149923       56.53327
2018    23      2       0.19796         52.532
2018    23      3       0.170209        45.92753
2018    23      4       0.1667386       44.62127
2018    23      5       0.2197288       56.37642
2018    23      6       0.2846902       69.92168
2018    23      7       0.3523572       82.74718
2018    24      0       0.3303724       79.16323
2018    24      1       0.3471675       82.06336
2018    24      2       0.368789        86.02628
2018    24      3       0.4077432       92.93733
2018    24      4       0.365901        85.86444
2018    24      5       0.2843897       70.36042
2018    24      6       0.2572358       65.14654
2018    24      7       0.2647411       66.97074
2018    25      0       0.3068432       75.09126
2018    25      1       0.3625792       85.42597
2018    25      2       0.4076496       93.43597
2018    25      3       0.4219165       95.70918
2018    25      4       0.3828482       88.82782
2018    25      5       0.3629292       85.01016
2018    25      6       0.3480926       82.23467
2018    25      7       0.3319797       79.34818
2018    26      0       0.3260218       78.53305
2018    26      1       0.3752333       87.41305
2018    26      2       0.4637991       102.2341
2018    26      3       0.6220888       125.3941
2018    26      4       0.7367822       139.0422
2018    26      5       0.6063277       122.0182
2018    26      6       0.6108292       121.9974
2018    26      7       0.5991567       119.9717
2018    27      0       0.4703351       101.3463
2018    27      1       0.3274847       77.12421
2018    27      2       0.2514978       62.50229
2018    27      3       0.1969421       51.42613
2018    27      4       0.213688        55.51086
2018    27      5       0.2583512       64.22855
2018    27      6       0.2471823       61.30388
2018    27      7       0.3477373       79.44136
2018    28      0       0.357332        81.00858
2018    28      1       0.3232019       74.80736
2018    28      2       0.3635628       81.9657
2018    28      3       0.4763115       100.5961
2018    28      4       0.3288711       75.94547
2018    28      5       0.2237614       55.76867
2018    28      6       0.1896705       48.31283
2018    28      7       0.2083056       52.09318
2018    29      0       0.1903798       48.59496
2018    29      1       0.1644174       43.30919
2018    29      2       0.1464792       39.5183
2018    29      3       0.1468822       39.54216
2018    29      4       0.15138         40.47597
2018    29      5       0.1455264       39.18786
2018    29      6       0.1336519       36.79377
2018    29      7       0.1292682       35.96513
2018    30      0       0.1264435       35.46842
2018    30      1       0.1238568       35.00381
2018    30      2       0.113063        32.79281
2018    30      3       0.08117962      25.13022
2018    30      4       0.06886516      22.01056
2018    30      5       0.07906615      24.52407
2018    30      6       0.1164793       33.42425
2018    30      7       0.1895385       49.36971
2018    31      0       0.2746022       66.68548
2018    31      1       0.2495554       62.39535
2018    31      2       0.1900014       50.13865
2018    31      3       0.2094137       53.95193
2018    31      4       0.231454        58.65588
2018    31      5       0.2240732       56.91978
2018    31      6       0.3043861       72.55557
2018    31      7       0.3906568       87.88572
