####################################################################################################
# Month: 04Apr                                                                                     #
# Station: ORG                                                                                     #
# Frequency: 230 GHz                                                                               #
# Columns are: year    day     segment         tau     Tb (K)                                      #
####################################################################################################
2009    1       0       0.4197682       91.88808
2009    1       1       0.2255776       56.25654
2009    1       2       0.2068306       51.85934
2009    1       3       0.1452467       38.80756
2009    1       4       0.1505817       40.1529
2009    1       5       0.2254209       56.04389
2009    1       6       0.3415516       78.87764
2009    1       7       0.4797224       102.8193
2009    2       0       0.4980588       106.7806
2009    2       1       0.3679219       84.90339
2009    2       2       0.3958771       90.04592
2009    2       3       0.3968549       90.29014
2009    2       4       0.2296275       58.05053
2009    2       5       0.2454342       61.01714
2009    2       6       0.4861757       102.8076
2009    2       7       0.4821484       101.552
2009    3       0       0.4443979       94.92894
2009    3       1       0.3182969       73.64741
2009    3       2       0.3508988       79.34138
2009    3       3       0.4171465       89.87039
2009    3       4       0.2131918       53.06142
2009    3       5       0.1565649       41.27316
2009    3       6       0.2861702       66.67368
2009    3       7       0.2859341       66.26582
2009    4       0       0.2740497       64.44453
2009    4       1       0.1872138       47.67045
2009    4       2       0.1805376       46.57024
2009    4       3       0.1480001       39.77004
2009    4       4       0.1260491       34.92534
2009    4       5       0.1415154       38.42134
2009    4       6       0.14269         38.8965
2009    4       7       0.1051945       30.50805
2009    5       0       0.1014109       29.72165
2009    5       1       0.09680847      28.61531
2009    5       2       0.0957433       28.48741
2009    5       3       0.09384116      28.09563
2009    5       4       0.09544057      28.35118
2009    5       5       0.09226772      27.52545
2009    5       6       0.1005539       29.72431
2009    5       7       0.1130233       32.99495
2009    6       0       0.1119929       32.91212
2009    6       1       0.1012529       30.34867
2009    6       2       0.0921422       28.0667
2009    6       3       0.08952211      27.38619
2009    6       4       0.08659087      26.63692
2009    6       5       0.08294801      25.71543
2009    6       6       0.0921336       28.094
2009    6       7       0.1031247       30.70756
2009    7       0       0.1149091       33.56842
2009    7       1       0.09489484      28.80914
2009    7       2       0.09292276      28.21996
2009    7       3       0.1109235       32.28123
2009    7       4       0.138136        38.34581
2009    7       5       0.1519877       41.28887
2009    7       6       0.1585262       42.69603
2009    7       7       0.2063156       52.99931
2009    8       0       0.2534097       63.00922
2009    8       1       0.4106378       91.27613
2009    8       2       0.2988574       72.13528
2009    8       3       0.2961207       71.52355
2009    8       4       0.4163541       93.11569
2009    8       5       0.6071513       122.236
2009    8       6       0.6194493       124.0442
2009    8       7       0.5807603       118.2616
2009    9       0       0.5858429       118.6521
2009    9       1       0.4761764       102.4444
2009    9       2       0.6075523       121.9446
2009    9       3       0.5010647       106.1
2009    9       4       0.4214922       92.73474
2009    9       5       0.358739        81.8104
2009    9       6       0.5312188       109.7873
2009    9       7       0.4689986       100.2188
2009    10      0       0.6010617       119.3831
2009    10      1       0.4599066       99.10103
2009    10      2       0.5177518       108.2221
2009    10      3       0.4929009       104.3262
2009    10      4       0.3762713       85.17569
2009    10      5       0.3570749       81.59553
2009    10      6       0.6520822       126.9669
2009    10      7       0.5696112       115.2488
2009    11      0       0.5392379       111.2199
2009    11      1       0.4437649       96.46722
2009    11      2       0.3309185       77.24813
2009    11      3       0.249832        61.93386
2009    11      4       0.2291525       57.68885
2009    11      5       0.3308516       77.59769
2009    11      6       0.3834745       87.0878
2009    11      7       0.3684062       84.338
2009    12      0       0.2947472       70.87366
2009    12      1       0.2591638       63.85877
2009    12      2       0.2702113       65.90404
2009    12      3       0.2776359       67.49119
2009    12      4       0.3198594       75.79905
2009    12      5       0.2984021       71.53384
2009    12      6       0.3705833       85.30032
2009    12      7       0.4160409       93.14877
2009    13      0       0.636463        126.843
2009    13      1       0.5093321       108.9827
2009    13      2       0.4700937       102.8119
2009    13      3       0.6470052       128.6428
2009    13      4       0.3672766       85.2182
2009    13      5       0.2957888       72.17801
2009    13      6       0.3028107       73.50665
2009    13      7       0.281396        68.80986
2009    14      0       0.2894132       69.99117
2009    14      1       0.2437102       60.62088
2009    14      2       0.2610934       63.73895
2009    14      3       0.2233369       56.03457
2009    14      4       0.2722695       65.49209
2009    14      5       0.2679866       64.74452
2009    14      6       0.2641115       63.88388
2009    14      7       0.3720512       82.33656
2009    15      0       0.3103859       71.34878
2009    15      1       0.277969        65.23645
2009    15      2       0.2761154       65.00951
2009    15      3       0.4135672       89.60887
2009    15      4       0.4302333       92.67029
2009    15      5       0.4514098       96.38227
2009    15      6       0.4676155       99.29178
2009    15      7       0.4667031       99.97129
2009    16      0       0.4286387       93.2602
2009    16      1       0.3535434       80.74333
2009    16      2       0.2829873       68.12783
2009    16      3       0.2111472       54.09196
2009    16      4       0.1767181       46.94673
2009    16      5       0.1432595       39.6459
2009    16      6       0.1420383       39.50125
2009    16      7       0.1331206       37.30738
2009    17      0       0.1462768       40.16276
2009    17      1       0.1442755       39.65794
2009    17      2       0.1468509       40.34462
2009    17      3       0.1544319       42.07799
2009    17      4       0.186274        48.81023
2009    17      5       0.271416        66.33882
2009    17      6       0.3366579       78.94246
2009    17      7       0.3595864       83.29528
2009    18      0       0.4609046       100.8427
2009    18      1       0.6133696       124.0141
2009    18      2       0.5501585       115.5576
2009    18      3       0.341236        80.72891
2009    18      4       0.1941879       51.08226
2009    18      5       0.1075994       31.31025
2009    18      6       0.164477        44.42644
2009    18      7       0.1962609       51.26295
2009    19      0       0.236032        59.5773
2009    19      1       0.2604504       64.71531
2009    19      2       0.271052        67.17485
2009    19      3       0.2886179       70.69894
2009    19      4       0.3157568       75.85313
2009    19      5       0.3238082       77.3654
2009    19      6       0.3283215       78.27512
2009    19      7       0.3323028       79.34365
2009    20      0       0.3300212       79.1865
2009    20      1       0.3193225       77.21596
2009    20      2       0.3149905       76.41659
2009    20      3       0.3096834       75.43996
2009    20      4       0.3025662       74.22047
2009    20      5       0.2959814       72.98282
2009    20      6       0.2921023       72.20029
2009    20      7       0.3111587       76.0724
2009    21      0       0.3186592       77.61061
2009    21      1       0.3171346       77.28709
2009    21      2       0.3342061       80.87268
2009    21      3       0.2715031       68.28828
2009    21      4       0.2678837       67.52495
2009    21      5       0.2595026       65.826
2009    21      6       0.2580708       65.59043
2009    21      7       0.3001373       73.98634
2009    22      0       0.3805591       88.6517
2009    22      1       0.5358586       113.5842
2009    22      2       0.6541902       131.0751
2009    22      3       0.5643707       118.5242
2009    22      4       0.3220059       78.32137
2009    22      5       0.2911983       72.20146
2009    22      6       0.3060413       75.14928
2009    22      7       0.3120537       76.12846
2009    23      0       0.2826184       70.23505
2009    23      1       0.2227821       58.14796
2009    23      2       0.2955159       72.80817
2009    23      3       0.3587925       84.58741
2009    23      4       0.3484549       82.33774
2009    23      5       0.5056183       108.0079
2009    23      6       0.6484374       128.2568
2009    23      7       0.5915609       120.3562
2009    24      0       0.6642904       129.3518
2009    24      1       0.5013731       105.1519
2009    24      2       0.3776136       84.45826
2009    24      3       0.4629766       98.40392
2009    24      4       0.4870991       102.2973
2009    24      5       0.452691        97.09853
2009    24      6       0.4132433       91.06763
2009    24      7       0.3090565       72.75298
2009    25      0       0.2909716       69.11608
2009    25      1       0.1973738       50.54836
2009    25      2       0.1520949       40.98173
2009    25      3       0.1586822       42.50803
2009    25      4       0.1378417       37.95524
2009    25      5       0.1517793       40.92698
2009    25      6       0.2258517       56.32582
2009    25      7       0.2053037       52.55509
2009    26      0       0.2516801       61.40092
2009    26      1       0.3200284       73.91467
2009    26      2       0.2123523       53.53185
2009    26      3       0.190531        49.27544
2009    26      4       0.1696095       44.95269
2009    26      5       0.1716413       45.19356
2009    26      6       0.2610277       63.77315
2009    26      7       0.1613045       43.14601
2009    27      0       0.1387979       38.11699
2009    27      1       0.1387645       38.08956
2009    27      2       0.1470698       39.98811
2009    27      3       0.1697515       44.88826
2009    27      4       0.1852913       48.37327
2009    27      5       0.2386563       59.28669
2009    27      6       0.331575        76.96416
2009    27      7       0.4081157       90.23707
2009    28      0       0.4847783       103.3392
2009    28      1       0.5633157       115.5538
2009    28      2       0.4606227       99.87194
2009    28      3       0.5221689       108.6187
2009    28      4       0.4679027       99.6861
2009    28      5       0.4002378       88.56869
2009    28      6       0.431334        92.55793
2009    28      7       0.3434835       77.98819
2009    29      0       0.3956484       86.83811
2009    29      1       0.3058649       71.69592
2009    29      2       0.249268        61.11732
2009    29      3       0.2147487       54.29398
2009    29      4       0.1880576       48.82659
2009    29      5       0.218109        55.0348
2009    29      6       0.2794088       67.21145
2009    29      7       0.2601187       63.59134
2009    30      0       0.3216307       75.38507
2009    30      1       0.3994486       89.43384
2009    30      2       0.2692786       65.78125
2009    30      3       0.2356482       59.03284
2009    30      4       0.2586356       63.1528
2009    30      5       0.2804705       67.50668
2009    30      6       0.2785272       67.30838
2009    30      7       0.3368214       78.57918
2010    1       0       0.2075939       51.63669
2010    1       1       0.1810468       46.2475
2010    1       2       0.1540973       40.65662
2010    1       3       0.1426696       38.2155
2010    1       4       0.1379138       37.06449
2010    1       5       0.1409374       37.54016
2010    1       6       0.2959729       68.39227
2010    1       7       0.2201581       54.00086
2010    2       0       0.2393761       57.78242
2010    2       1       0.1672489       43.48375
2010    2       2       0.1472085       39.19972
2010    2       3       0.1532339       40.53816
2010    2       4       0.2101792       52.57458
2010    2       5       0.3494319       79.92663
2010    2       6       0.5749012       116.6838
2010    2       7       0.5885204       118.5885
2010    3       0       0.5899463       118.7553
2010    3       1       0.3011013       70.47612
2010    3       2       0.2719147       64.23764
2010    3       3       0.1796799       46.19444
2010    3       4       0.1814348       46.44704
2010    3       5       0.2052615       51.29747
2010    3       6       0.2056858       51.26977
2010    3       7       0.2180051       53.59501
2010    4       0       0.3160076       72.26336
2010    4       1       0.2814319       66.06407
2010    4       2       0.2213465       54.80522
2010    4       3       0.146416        39.25779
2010    4       4       0.1376951       37.11818
2010    4       5       0.1782012       45.66279
2010    4       6       0.2616457       62.39253
2010    4       7       0.488235        101.6318
2010    5       0       0.3616754       81.54901
2010    5       1       0.353873        80.28467
2010    5       2       0.3766501       84.0519
2010    5       3       0.4754711       100.3769
2010    5       4       0.4446479       95.17307
2010    5       5       0.3085579       71.0964
2010    5       6       0.3244149       73.69197
2010    5       7       0.2639948       62.48072
2010    6       0       0.2566401       61.12754
2010    6       1       0.2034257       51.00112
2010    6       2       0.2397305       58.42187
2010    6       3       0.2217416       54.88099
2010    6       4       0.25247         61.1773
2010    6       5       0.2218216       54.881
2010    6       6       0.3876612       85.55583
2010    6       7       0.4114357       89.65679
2010    7       0       0.3733588       83.76282
2010    7       1       0.2895423       69.01795
2010    7       2       0.288865        69.08825
2010    7       3       0.2893544       69.45914
2010    7       4       0.3104536       73.80975
2010    7       5       0.2890322       69.67453
2010    7       6       0.2889505       69.84985
2010    7       7       0.2766115       67.63631
2010    8       0       0.2650107       65.27936
2010    8       1       0.246383        61.55742
2010    8       2       0.2506229       62.43048
2010    8       3       0.2490843       62.22323
2010    8       4       0.296516        71.4002
2010    8       5       0.3693613       85.51969
2010    8       6       0.2567054       63.76417
2010    8       7       0.1532994       41.39818
2010    9       0       0.1251766       34.89665
2010    9       1       0.1377749       37.70554
2010    9       2       0.1679922       44.50375
2010    9       3       0.140731        38.44638
2010    9       4       0.08992197      26.72677
2010    9       5       0.06834988      21.50977
2010    9       6       0.08019663      24.51389
2010    9       7       0.09005951      26.8878
2010    10      0       0.09386692      27.73941
2010    10      1       0.09926083      28.94108
2010    10      2       0.09521407      28.04052
2010    10      3       0.07885571      24.10112
2010    10      4       0.0928413       27.41646
2010    10      5       0.2715574       65.34662
2010    10      6       0.4615991       99.65109
2010    10      7       0.4730133       101.7143
2010    11      0       0.3850614       86.99605
2010    11      1       0.4785603       102.0485
2010    11      2       0.4057729       90.57261
2010    11      3       0.3132393       73.41093
2010    11      4       0.3003621       70.78577
2010    11      5       0.3105517       72.81817
2010    11      6       0.3554611       80.8427
2010    11      7       0.3779466       84.95714
2010    12      0       0.3603303       82.32619
2010    12      1       0.4960319       104.5724
2010    12      2       0.4268271       93.5124
2010    12      3       0.3753008       84.79943
2010    12      4       0.2691162       65.31583
2010    12      5       0.2180071       54.98569
2010    12      6       0.4035272       87.91327
2010    12      7       0.3090255       71.99285
2010    13      0       0.2675008       64.43992
2010    13      1       0.2663673       64.30413
2010    13      2       0.2377181       58.7639
2010    13      3       0.2786224       66.88385
2010    13      4       0.2537681       61.75693
2010    13      5       0.2127298       53.50733
2010    13      6       0.395304        87.68378
2010    13      7       0.3261504       75.31694
2010    14      0       0.2913015       69.07803
2010    14      1       0.2299946       57.46267
2010    14      2       0.1959092       50.47468
2010    14      3       0.1886824       48.93196
2010    14      4       0.2054209       52.36877
2010    14      5       0.2321888       57.68173
2010    14      6       0.2872131       68.39059
2010    14      7       0.3049101       72.24617
2010    15      0       0.3655639       83.08059
2010    15      1       0.4089955       90.47139
2010    15      2       0.3727216       84.67743
2010    15      3       0.2504263       62.24343
2010    15      4       0.1457366       40.03737
2010    15      5       0.1226022       34.66426
2010    15      6       0.1644139       44.25078
2010    15      7       0.2145253       54.95326
2010    16      0       0.222547        56.82332
2010    16      1       0.2088766       53.99381
2010    16      2       0.2533179       62.65723
2010    16      3       0.2672678       65.75863
2010    16      4       0.2634083       65.07487
2010    16      5       0.2728403       66.93581
2010    16      6       0.3429346       80.28552
2010    16      7       0.4182312       93.71134
2010    17      0       0.4129802       92.37076
2010    17      1       0.3583962       83.19862
2010    17      2       0.2994838       72.44785
2010    17      3       0.2655605       65.64515
2010    17      4       0.2626586       64.77586
2010    17      5       0.2196701       56.48074
2010    17      6       0.2145383       55.65575
2010    17      7       0.2160962       55.98108
2010    18      0       0.2327511       59.40332
2010    18      1       0.2457906       61.76144
2010    18      2       0.2160812       55.78144
2010    18      3       0.1970862       51.84316
2010    18      4       0.1841036       49.08635
2010    18      5       0.153345        42.22595
2010    18      6       0.1592681       43.54141
2010    18      7       0.1698022       45.92638
2010    19      0       0.1822357       48.70283
2010    19      1       0.1845339       49.26703
2010    19      2       0.1783785       47.85561
2010    19      3       0.1597505       43.63752
2010    19      4       0.147205        40.85333
2010    19      5       0.158924        43.49474
2010    19      6       0.206122        53.91898
2010    19      7       0.2947246       72.1207
2010    20      0       0.3303083       78.91885
2010    20      1       0.4263245       95.57189
2010    20      2       0.5843232       120.605
2010    20      3       0.7277864       140.6046
2010    20      4       0.6260437       127.4806
2010    20      5       0.6556374       131.146
2010    20      6       0.6170953       126.5055
2010    20      7       0.6831462       135.2967
2010    21      0       0.7624403       145.223
2010    21      1       0.6075124       122.3934
2010    21      2       0.5879171       119.1557
2010    21      3       0.5547326       114.8889
2010    21      4       0.3498192       81.37027
2010    21      5       0.2816723       68.99805
2010    21      6       0.2903005       70.8481
2010    21      7       0.531815        110.7101
2010    22      0       0.5407516       112.7809
2010    22      1       0.7134076       137.2912
2010    22      2       0.7112426       136.7747
2010    22      3       0.724976        139.7415
2010    22      4       0.5331451       113.5544
2010    22      5       0.4420499       98.87118
2010    22      6       0.522963        111.6268
2010    22      7       0.6313665       127.2435
2010    23      0       0.6351905       127.6804
2010    23      1       0.2459036       61.721
2010    23      2       0.08528594      26.08672
2010    23      3       0.07555978      23.70021
2010    23      4       0.0826757       25.28446
2010    23      5       0.1058366       30.5219
2010    23      6       0.1471203       40.02578
2010    23      7       0.2118921       54.16463
2010    24      0       0.2475088       61.85215
2010    24      1       0.2400284       60.68027
2010    24      2       0.2222669       57.14787
2010    24      3       0.2289854       58.35974
2010    24      4       0.2396504       60.38249
2010    24      5       0.2578331       64.06897
2010    24      6       0.2549991       63.27278
2010    24      7       0.2640549       64.76571
2010    25      0       0.2820085       68.28774
2010    25      1       0.291802        70.02237
2010    25      2       0.3165936       74.71596
2010    25      3       0.3369129       78.47388
2010    25      4       0.3506349       81.27346
2010    25      5       0.3342849       78.31101
2010    25      6       0.3211723       75.8397
2010    25      7       0.2669448       65.57517
2010    26      0       0.2153274       55.28799
2010    26      1       0.1683446       45.3917
2010    26      2       0.1690781       45.64606
2010    26      3       0.1709424       46.12103
2010    26      4       0.1627359       44.49111
2010    26      5       0.1645636       44.92642
2010    26      6       0.2219401       57.14979
2010    26      7       0.2852622       69.58396
2010    27      0       0.4065934       91.13957
2010    27      1       0.4915164       104.5753
2010    27      2       0.4821526       103.0251
2010    27      3       0.511503        108.3426
2010    27      4       0.5623357       116.5618
2010    27      5       0.5818774       119.8898
2010    27      6       0.666125        131.6858
2010    27      7       0.5855139       119.1823
2010    28      0       0.4517435       98.56939
2010    28      1       0.4858432       103.0879
2010    28      2       0.3971982       87.87359
2010    28      3       0.3748311       83.15965
2010    28      4       0.3746728       83.61322
2010    28      5       0.3482563       78.23406
2010    28      6       0.2744611       64.89327
2010    28      7       0.2390211       58.07959
2010    29      0       0.2786229       65.92533
2010    29      1       0.2460445       59.54519
2010    29      2       0.2462091       59.75057
2010    29      3       0.3012805       70.28681
2010    29      4       0.3378531       77.30485
2010    29      5       0.2232897       55.27448
2010    29      6       0.3762766       83.68672
2010    29      7       0.37731         83.51495
2010    30      0       0.3718011       82.98052
2010    30      1       0.3312033       76.16242
2010    30      2       0.3022573       71.0438
2010    30      3       0.2786474       66.61186
2010    30      4       0.249901        61.15388
2010    30      5       0.2148917       54.30023
2010    30      6       0.2582955       63.06874
2010    30      7       0.3347199       77.40279
2011    1       0       0.1779318       48.39099
2011    1       1       0.1648839       45.30572
2011    1       2       0.1408338       39.25904
2011    1       3       0.1496355       40.62374
2011    1       4       0.1384365       38.34838
2011    1       5       0.1407784       38.96433
2011    1       6       0.1889168       49.53954
2011    1       7       0.3496651       82.29333
2011    2       0       0.4004594       91.71132
2011    2       1       0.4694421       103.221
2011    2       2       0.4450681       99.25903
2011    2       3       0.4048573       91.01241
2011    2       4       0.6376213       127.0161
2011    2       5       0.7697285       143.8263
2011    2       6       0.4993077       106.894
2011    2       7       0.2451983       60.72203
2011    3       0       0.1871182       48.48128
2011    3       1       0.1975947       50.46689
2011    3       2       0.1406326       38.32376
2011    3       3       0.1294764       35.77466
2011    3       4       0.1036003       29.77861
2011    3       5       0.1340093       36.60436
2011    3       6       0.1563043       41.50783
2011    3       7       0.1485451       39.82736
2011    4       0       0.1515111       40.4466
2011    4       1       0.1975604       50.28958
2011    4       2       0.2721599       65.77101
2011    4       3       0.3835046       86.75795
2011    4       4       0.5170034       109.5551
2011    4       5       0.5241967       111.1956
2011    4       6       0.5922012       120.997
2011    4       7       0.7208183       138.2606
2011    5       0       0.6681861       131.5729
2011    5       1       0.6810261       133.0538
2011    5       2       0.7265767       139.0486
2011    5       3       0.821005        150.7562
2011    5       4       0.8638446       155.5514
2011    5       5       0.6835633       133.8602
2011    5       6       0.6682273       131.3458
2011    5       7       0.4234152       94.00685
2011    6       0       0.1582239       42.526
2011    6       1       0.1200276       34.08463
2011    6       2       0.1238304       34.85021
2011    6       3       0.1111259       31.89077
2011    6       4       0.1346013       36.87494
2011    6       5       0.1286259       35.47555
2011    6       6       0.2178563       54.49597
2011    6       7       0.3995572       87.73445
2011    7       0       0.4392078       94.65989
2011    7       1       0.4430504       95.04676
2011    7       2       0.4520343       96.42739
2011    7       3       0.4386103       93.94184
2011    7       4       0.3794527       83.68917
2011    7       5       0.3791685       83.26401
2011    7       6       0.4332378       91.86611
2011    7       7       0.4115924       88.36116
2011    8       0       0.3550636       78.89131
2011    8       1       0.2656537       62.76376
2011    8       2       0.2861741       66.74659
2011    8       3       0.2448859       58.96925
2011    8       4       0.2232418       55.06217
2011    8       5       0.2339882       57.30112
2011    8       6       0.3793597       84.11024
2011    8       7       0.3912157       85.79132
2011    9       0       0.3563011       79.99085
2011    9       1       0.3884015       85.90332
2011    9       2       0.3252791       74.87699
2011    9       3       0.2245548       55.36538
2011    9       4       0.1838754       47.08949
2011    9       5       0.2035228       51.16047
2011    9       6       0.3423546       78.13833
2011    9       7       0.3451659       78.57386
2011    10      0       0.3471582       78.8334
2011    10      1       0.234169        57.8036
2011    10      2       0.2457483       60.1808
2011    10      3       0.3054421       72.15696
2011    10      4       0.2905348       69.60524
2011    10      5       0.3219799       75.55908
2011    10      6       0.3875444       87.54551
2011    10      7       0.5078001       107.4802
2011    11      0       0.512926        108.4556
2011    11      1       0.4162973       92.68803
2011    11      2       0.3300902       77.46736
2011    11      3       0.3462406       80.29138
2011    11      4       0.3640775       83.21401
2011    11      5       0.3808325       86.54727
2011    11      6       0.3111944       73.50822
2011    11      7       0.415703        92.19116
2011    12      0       0.4719556       101.0387
2011    12      1       0.4015389       89.72933
2011    12      2       0.3203639       75.3862
2011    12      3       0.2322448       58.42994
2011    12      4       0.2098504       53.8257
2011    12      5       0.1888946       49.4609
2011    12      6       0.2142282       54.67517
2011    12      7       0.2126941       54.26462
2011    13      0       0.2341661       58.69932
2011    13      1       0.2564435       62.91043
2011    13      2       0.2550527       62.50268
2011    13      3       0.3340285       77.57264
2011    13      4       0.3176798       74.54637
2011    13      5       0.2590511       63.10236
2011    13      6       0.4123835       89.94124
2011    13      7       0.397267        87.33044
2011    14      0       0.4469193       95.10097
2011    14      1       0.2537494       61.42767
2011    14      2       0.1450179       39.26072
2011    14      3       0.1054619       30.13649
2011    14      4       0.1391704       37.413
2011    14      5       0.168902        44.05181
2011    14      6       0.1745419       45.39332
2011    14      7       0.1959381       49.92826
2011    15      0       0.1958423       50.21852
2011    15      1       0.1911365       49.46154
2011    15      2       0.2048443       52.31631
2011    15      3       0.2828382       67.70033
2011    15      4       0.4760473       101.9595
2011    15      5       0.6138141       123.1097
2011    15      6       0.6928057       134.039
2011    15      7       0.6844007       134.2107
2011    16      0       0.7808251       146.9258
2011    16      1       0.5741632       119.7337
2011    16      2       0.5023128       108.2298
2011    16      3       0.5272306       112.6225
2011    16      4       0.4583801       101.3123
2011    16      5       0.5649935       117.8543
2011    16      6       0.7479893       142.9976
2011    16      7       0.7840078       146.9286
2011    17      0       0.768825        145.4674
2011    17      1       0.5855351       120.7273
2011    17      2       0.6883828       135.4756
2011    17      3       0.8407038       154.8073
2011    17      4       0.6227033       126.3507
2011    17      5       0.4072839       92.19986
2011    17      6       0.4752087       103.0219
2011    17      7       0.7457753       141.1615
2011    18      0       0.9230321       161.8737
2011    18      1       0.9114687       160.9205
2011    18      2       0.8170796       150.0118
2011    18      3       0.7809514       145.1791
2011    18      4       0.6843937       132.3833
2011    18      5       0.5915659       119.0134
2011    18      6       0.5525191       114.1604
2011    18      7       0.5473727       113.0309
2011    19      0       0.4596167       99.24829
2011    19      1       0.2092501       53.32501
2011    19      2       0.1541973       41.42865
2011    19      3       0.1443122       39.3754
2011    19      4       0.1268145       35.31955
2011    19      5       0.104027        30.0103
2011    19      6       0.1126045       32.16851
2011    19      7       0.1512191       40.77047
2011    20      0       0.1837351       47.82907
2011    20      1       0.1828168       47.60361
2011    20      2       0.196257        50.29433
2011    20      3       0.28732         68.18232
2011    20      4       0.4171882       91.52268
2011    20      5       0.4128545       91.32053
2011    20      6       0.43842         96.14605
2011    20      7       0.593016        120.749
2011    21      0       0.4675761       101.2902
2011    21      1       0.4769123       102.5255
2011    21      2       0.4287539       94.96478
2011    21      3       0.5749667       117.8615
2011    21      4       0.3531434       80.97898
2011    21      5       0.4103009       90.15354
2011    21      6       0.3746968       84.33358
2011    21      7       0.2496038       61.2481
2011    22      0       0.1563815       41.8221
2011    22      1       0.1440093       39.08419
2011    22      2       0.1313887       36.30067
2011    22      3       0.1229832       34.44115
2011    22      4       0.1061636       30.58759
2011    22      5       0.08082438      24.59048
2011    22      6       0.097616        28.61504
2011    22      7       0.1185559       33.40136
2011    23      0       0.1416067       38.57519
2011    23      1       0.1438563       39.09968
2011    23      2       0.1488254       40.24987
2011    23      3       0.1443186       39.24016
2011    23      4       0.1342679       36.9252
2011    23      5       0.1279451       35.58922
2011    23      6       0.1369428       37.62626
2011    23      7       0.1639515       43.49425
2011    24      0       0.2095716       52.92431
2011    24      1       0.2273276       56.52925
2011    24      2       0.2545614       62.01355
2011    24      3       0.2900589       69.13237
2011    24      4       0.4195832       92.4776
2011    24      5       0.537363        111.6462
2011    24      6       0.472235        101.6812
2011    24      7       0.4843198       103.3583
2011    25      0       0.4819411       102.9552
2011    25      1       0.4291931       94.4194
2011    25      2       0.2437556       60.8016
2011    25      3       0.2210016       56.16317
2011    25      4       0.4698522       101.3354
2011    25      5       0.405424        91.72813
2011    25      6       0.5199978       108.8166
2011    25      7       0.4362497       94.92698
2011    26      0       0.357188        80.90762
2011    26      1       0.2916905       69.15631
2011    26      2       0.2772293       66.42711
2011    26      3       0.1870632       48.44191
2011    26      4       0.1887559       48.66053
2011    26      5       0.2217713       55.42997
2011    26      6       0.3063691       71.57716
2011    26      7       0.3096454       72.24619
2011    27      0       0.2818249       67.12016
2011    27      1       0.2025849       51.55722
2011    27      2       0.1590438       42.46914
2011    27      3       0.1585269       42.30619
2011    27      4       0.1704175       44.9926
2011    27      5       0.1768566       46.70224
2011    27      6       0.1602248       43.40962
2011    27      7       0.1869623       49.30101
2011    28      0       0.2274623       58.04162
2011    28      1       0.2671768       66.06791
2011    28      2       0.3079342       74.07298
2011    28      3       0.1414861       39.05041
2011    28      4       0.181319        47.94162
2011    28      5       0.2751175       67.0872
2011    28      6       0.5562318       114.0876
2011    28      7       0.6608683       127.8619
2011    29      0       0.5851936       117.2503
2011    29      1       0.3514636       79.55617
2011    29      2       0.391977        86.58439
2011    29      3       0.4077219       88.22185
2011    29      4       0.2671014       63.45297
2011    29      5       0.24332         58.74439
2011    29      6       0.3441366       76.74246
2011    29      7       0.2281485       55.70391
2011    30      0       0.1916607       48.46622
2011    30      1       0.124288        34.44577
2011    30      2       0.1520558       40.53049
2011    30      3       0.2130802       53.4304
2011    30      4       0.2372683       58.47759
2011    30      5       0.2828369       67.24716
2011    30      6       0.3790918       84.56849
2011    30      7       0.3152188       72.99959
2012    1       0       0.5195672       109.5398
2012    1       1       0.2705438       65.39685
2012    1       2       0.1523761       41.17454
2012    1       3       0.2427149       59.9096
2012    1       4       0.3883947       86.451
2012    1       5       0.2426596       59.25038
2012    1       6       0.2030282       51.44282
2012    1       7       0.1740047       45.09799
2012    2       0       0.2603405       62.57002
2012    2       1       0.2874359       68.08769
2012    2       2       0.2958118       69.8073
2012    2       3       0.4785398       102.0295
2012    2       4       0.219631        55.09299
2012    2       5       0.1927815       49.60956
2012    2       6       0.2257318       56.66817
2012    2       7       0.2586644       63.67616
2012    3       0       0.2434218       60.70937
2012    3       1       0.2183403       55.63311
2012    3       2       0.2139583       55.03125
2012    3       3       0.2359404       59.39275
2012    3       4       0.2794243       68.03025
2012    3       5       0.2914572       70.4622
2012    3       6       0.3297456       77.70335
2012    3       7       0.3357322       78.33097
2012    4       0       0.2815828       68.96205
2012    4       1       0.3400949       80.04996
2012    4       2       0.4127189       91.81468
2012    4       3       0.4637093       99.62234
2012    4       4       0.4595787       99.78508
2012    4       5       0.3691854       83.1659
2012    4       6       0.2608938       62.75075
2012    4       7       0.2203471       54.66412
2012    5       0       0.2404916       58.49161
2012    5       1       0.2828166       66.4874
2012    5       2       0.3701581       82.07961
2012    5       3       0.4458974       93.76999
2012    5       4       0.2936452       68.09183
2012    5       5       0.2748963       64.80319
2012    5       6       0.2456383       59.18235
2012    5       7       0.2297608       55.85109
2012    6       0       0.2315436       56.12336
2012    6       1       0.1619253       41.96984
2012    6       2       0.1381683       36.90596
2012    6       3       0.1482392       39.10898
2012    6       4       0.1204026       33.04064
2012    6       5       0.192827        48.59672
2012    6       6       0.1574199       41.16586
2012    6       7       0.2474188       59.10632
2012    7       0       0.1672938       43.46021
2012    7       1       0.1203778       33.5261
2012    7       2       0.1363335       36.89832
2012    7       3       0.178128        45.88117
2012    7       4       0.1986273       50.21267
2012    7       5       0.2423564       58.92129
2012    7       6       0.1873207       48.09827
2012    7       7       0.2404566       59.16841
2012    8       0       0.2254802       55.99763
2012    8       1       0.2400321       58.79139
2012    8       2       0.112958        32.24878
2012    8       3       0.0920165       27.49141
2012    8       4       0.09488341      28.20519
2012    8       5       0.0942756       28.09478
2012    8       6       0.09921747      29.09639
2012    8       7       0.1154846       33.01447
2012    9       0       0.1174857       33.62129
2012    9       1       0.1073874       31.13768
2012    9       2       0.1055171       30.38302
2012    9       3       0.1325684       36.6472
2012    9       4       0.1438616       39.12742
2012    9       5       0.1756262       46.05354
2012    9       6       0.1981066       51.13048
2012    9       7       0.1783205       47.28989
2012    10      0       0.1541689       42.31168
2012    10      1       0.2010885       52.00545
2012    10      2       0.2516739       62.09334
2012    10      3       0.2382397       59.92612
2012    10      4       0.1928978       50.44186
2012    10      5       0.1696252       45.63219
2012    10      6       0.1840904       48.90346
2012    10      7       0.1827528       48.46086
2012    11      0       0.272449        66.41973
2012    11      1       0.2921712       70.35893
2012    11      2       0.3197193       75.53917
2012    11      3       0.3705996       84.88046
2012    11      4       0.4016911       89.93102
2012    11      5       0.4174906       92.77249
2012    11      6       0.375645        85.63052
2012    11      7       0.43181         95.23416
2012    12      0       0.5079379       106.2946
2012    12      1       0.372039        83.78846
2012    12      2       0.2793645       66.79102
2012    12      3       0.3120991       72.82494
2012    12      4       0.227631        56.889
2012    12      5       0.3214355       74.52792
2012    12      6       0.5169568       106.5977
2012    12      7       0.3320718       76.60802
2012    13      0       0.2948553       69.72602
2012    13      1       0.2490031       60.77966
2012    13      2       0.1600152       42.39178
2012    13      3       0.1597107       42.14004
2012    13      4       0.2514708       61.17422
2012    13      5       0.2416354       59.23377
2012    13      6       0.2677988       64.05004
2012    13      7       0.3702151       83.26327
2012    14      0       0.4208708       92.24407
2012    14      1       0.4944969       104.2655
2012    14      2       0.4824349       102.9376
2012    14      3       0.3132021       74.32997
2012    14      4       0.4103746       91.42976
2012    14      5       0.5098792       106.6376
2012    14      6       0.4992802       105.4424
2012    14      7       0.473604        101.0349
2012    15      0       0.4402551       95.79567
2012    15      1       0.3154493       74.40688
2012    15      2       0.1716405       45.44827
2012    15      3       0.1363158       37.49086
2012    15      4       0.1805736       46.5151
2012    15      5       0.2633004       62.78436
2012    15      6       0.2858971       67.91237
2012    15      7       0.2660767       64.73948
2012    16      0       0.2657667       64.88717
2012    16      1       0.2666743       65.14665
2012    16      2       0.3123379       74.0116
2012    16      3       0.3824103       87.11848
2012    16      4       0.4962357       106.3984
2012    16      5       0.5977933       121.3959
2012    16      6       0.5736527       118.4419
2012    16      7       0.7004087       134.7473
2012    17      0       0.6705077       130.9345
2012    17      1       0.4972118       106.5961
2012    17      2       0.4326989       96.31051
2012    17      3       0.3669109       85.27395
2012    17      4       0.2915993       70.93689
2012    17      5       0.1690478       45.17239
2012    17      6       0.2597072       64.4595
2012    17      7       0.4701391       101.413
2012    18      0       0.6577115       128.8215
2012    18      1       0.647108        127.7333
2012    18      2       0.6125877       123.0152
2012    18      3       0.6479424       127.7646
2012    18      4       0.4312388       95.19667
2012    18      5       0.345121        80.24233
2012    18      6       0.4829872       103.3618
2012    18      7       0.527095        110.2089
2012    19      0       0.7183332       136.6724
2012    19      1       0.6201052       124.6089
2012    19      2       0.5447968       114.1777
2012    19      3       0.546539        114.741
2012    19      4       0.5444142       114.6978
2012    19      5       0.5554813       116.1018
2012    19      6       0.7639947       144.9847
2012    19      7       0.8244353       152.2494
2012    20      0       0.916113        162.9332
2012    20      1       0.8498264       156.1141
2012    20      2       0.5523784       116.5137
2012    20      3       0.2501575       63.16624
2012    20      4       0.2367409       60.78119
2012    20      5       0.3448021       82.62477
2012    20      6       0.4789546       106.6143
2012    20      7       0.6216485       127.9725
2012    21      0       0.536504        115.3008
2012    21      1       0.5203889       113.4023
2012    21      2       0.4434262       100.5352
2012    21      3       0.3944629       92.05749
2012    21      4       0.3875617       90.76838
2012    21      5       0.3764972       88.68609
2012    21      6       0.3618887       86.01548
2012    21      7       0.385899        90.6195
2012    22      0       0.4229956       97.23665
2012    22      1       0.4756961       106.3244
2012    22      2       0.3990089       93.0293
2012    22      3       0.3645375       86.82415
2012    22      4       0.42519         97.65269
2012    22      5       0.4298248       98.68656
2012    22      6       0.4014218       93.92423
2012    22      7       0.4173346       97.10586
2012    23      0       0.4552675       103.7258
2012    23      1       0.4357094       100.1941
2012    23      2       0.4299683       98.74261
2012    23      3       0.4347684       99.31875
2012    23      4       0.4211862       97.01312
2012    23      5       0.4166249       96.09098
2012    23      6       0.4416908       100.5086
2012    23      7       0.4199742       96.90149
2012    24      0       0.3961222       92.55773
2012    24      1       0.6117789       125.7062
2012    24      2       0.5864797       122.7719
2012    24      3       0.6444573       130.6179
2012    24      4       0.555709        117.6662
2012    24      5       0.590461        122.7532
2012    24      6       0.6350536       128.9589
2012    24      7       0.4919418       108.1847
2012    25      0       0.4798336       106.0774
2012    25      1       0.4003037       92.02047
2012    25      2       0.4091816       93.58155
2012    25      3       0.3557984       84.02314
2012    25      4       0.3245459       77.85382
2012    25      5       0.3430804       81.19286
2012    25      6       0.4110529       93.5268
2012    25      7       0.7212522       138.4271
2012    26      0       0.930964        164.644
2012    26      1       0.7703589       147.1677
2012    26      2       0.8091167       150.2373
2012    26      3       0.7774833       146.8011
2012    26      4       0.9567347       167.5005
2012    26      5       0.8616579       155.218
2012    26      6       0.9020733       158.3014
2012    26      7       0.5510477       113.6058
2012    27      0       0.4468321       96.64001
2012    27      1       0.2537548       62.27962
2012    27      2       0.2340728       58.14618
2012    27      3       0.2395592       59.151
2012    27      4       0.14944         40.22808
2012    27      5       0.1079639       30.7231
2012    27      6       0.1806039       46.91956
2012    27      7       0.3028942       71.56868
2012    28      0       0.4597815       98.59445
2012    28      1       0.3516636       81.36081
2012    28      2       0.34569         80.49387
2012    28      3       0.3277667       77.20568
2012    28      4       0.3048851       72.85667
2012    28      5       0.298854        71.75613
2012    28      6       0.2851862       69.21688
2012    28      7       0.2948986       71.31333
2012    29      0       0.2967625       71.94557
2012    29      1       0.2880451       70.3806
2012    29      2       0.2813382       69.11975
2012    29      3       0.2701235       66.95143
2012    29      4       0.2465551       62.31538
2012    29      5       0.2219162       57.28475
2012    29      6       0.2135826       55.68025
2012    29      7       0.2204122       56.94764
2012    30      0       0.2310546       59.24796
2012    30      1       0.2638339       65.73259
2012    30      2       0.3601335       83.4462
2012    30      3       0.3950858       89.97886
2012    30      4       0.46087         101.4049
2012    30      5       0.7243843       139.0619
2012    30      6       0.5717583       119.9508
2012    30      7       0.7889657       147.8903
2013    1       0       0.5588534       116.0899
2013    1       1       0.6266316       125.5506
2013    1       2       0.6692434       130.8573
2013    1       3       0.5483144       114.1656
2013    1       4       0.3633747       83.65213
2013    1       5       0.3236249       76.25836
2013    1       6       0.4550073       99.60383
2013    1       7       0.6461146       127.0425
2013    2       0       0.7080312       135.5309
2013    2       1       0.5315521       111.5857
2013    2       2       0.4378818       97.18747
2013    2       3       0.3945893       89.82376
2013    2       4       0.397979        90.40701
2013    2       5       0.3576452       83.21958
2013    2       6       0.3326433       78.76692
2013    2       7       0.4172124       93.94541
2013    3       0       0.4434623       98.24249
2013    3       1       0.4014354       91.16477
2013    3       2       0.3752033       86.6056
2013    3       3       0.3500101       82.28266
2013    3       4       0.3694454       85.77773
2013    3       5       0.2986429       72.73722
2013    3       6       0.3197982       76.74383
2013    3       7       0.3500201       82.48121
2013    4       0       0.3993361       91.05826
2013    4       1       0.4121497       93.17243
2013    4       2       0.473871        103.0602
2013    4       3       0.46256         101.4374
2013    4       4       0.4052801       91.74568
2013    4       5       0.4783953       103.0258
2013    4       6       0.6376426       126.3521
2013    4       7       0.6795483       134.0997
2013    5       0       0.5518668       115.2788
2013    5       1       0.4198386       93.91762
2013    5       2       0.2621447       65.00061
2013    5       3       0.3956324       89.58186
2013    5       4       0.264974        65.15568
2013    5       5       0.2775843       67.72882
2013    5       6       0.29251         70.65633
2013    5       7       0.2451315       61.23542
2013    6       0       0.2841824       68.85442
2013    6       1       0.5612625       114.9943
2013    6       2       0.5126172       108.3461
2013    6       3       0.5157282       109.687
2013    6       4       0.4424437       97.34829
2013    6       5       0.4606407       99.87574
2013    6       6       0.7205088       136.6695
2013    6       7       0.4947123       105.3787
2013    7       0       0.4712326       101.6065
2013    7       1       0.5082857       107.2945
2013    7       2       0.5911673       119.4462
2013    7       3       0.5643023       116.9427
2013    7       4       0.2910564       70.90977
2013    7       5       0.2109606       54.2727
2013    7       6       0.4375389       96.52928
2013    7       7       0.44939         97.68851
2013    8       0       0.5364798       110.7955
2013    8       1       0.5351407       111.0003
2013    8       2       0.4172998       91.80632
2013    8       3       0.4175744       90.86861
2013    8       4       0.3306362       75.77194
2013    8       5       0.2693383       64.20042
2013    8       6       0.2681805       64.4438
2013    8       7       0.2995509       70.5183
2013    9       0       0.2794332       66.54476
2013    9       1       0.2642845       63.76188
2013    9       2       0.2194034       54.92692
2013    9       3       0.1263312       35.17394
2013    9       4       0.1018491       29.53331
2013    9       5       0.1402551       38.42299
2013    9       6       0.1293306       35.78067
2013    9       7       0.1416573       38.72727
2013    10      0       0.1767836       46.62915
2013    10      1       0.2421871       60.43182
2013    10      2       0.3341652       78.59806
2013    10      3       0.3815667       87.56698
2013    10      4       0.3105802       74.74017
2013    10      5       0.4093881       93.27724
2013    10      6       0.5119789       110.621
2013    10      7       0.5632367       117.5283
2013    11      0       0.6355267       126.7153
2013    11      1       0.5442287       112.8641
2013    11      2       0.4320195       96.27093
2013    11      3       0.07144132      22.74084
2013    11      4       0.04619718      16.20271
2013    11      5       0.04723138      16.51347
2013    11      6       0.06161263      19.94874
2013    11      7       0.1244913       34.93022
2013    12      0       0.1705761       45.02991
2013    12      1       0.1623288       43.22346
2013    12      2       0.1482314       40.26355
2013    12      3       0.1274474       35.74808
2013    12      4       0.1199987       33.9544
2013    12      5       0.1825357       47.00776
2013    12      6       0.2052543       52.30543
2013    12      7       0.2552946       62.63511
2013    13      0       0.3029036       71.59613
2013    13      1       0.4394486       96.141
2013    13      2       0.4970686       106.8521
2013    13      3       0.5782358       119.4073
2013    13      4       0.5025211       107.7608
2013    13      5       0.3875143       87.86629
2013    13      6       0.2064167       52.48439
2013    13      7       0.1419761       38.52596
2013    14      0       0.1410242       38.30678
2013    14      1       0.1354465       37.02154
2013    14      2       0.137791        37.47457
2013    14      3       0.157621        41.76834
2013    14      4       0.1527369       40.64083
2013    14      5       0.189723        48.53616
2013    14      6       0.2828803       66.97134
2013    14      7       0.3587677       80.94076
2013    15      0       0.4056826       88.94754
2013    15      1       0.3355339       76.61964
2013    15      2       0.2184165       54.34402
2013    15      3       0.1877804       48.13972
2013    15      4       0.216632        54.08036
2013    15      5       0.4127095       88.99823
2013    15      6       0.3750289       82.53867
2013    15      7       0.3229224       73.36766
2013    16      0       0.2945065       68.31332
2013    16      1       0.2651039       63.09481
2013    16      2       0.1803944       46.23754
2013    16      3       0.1403603       37.73886
2013    16      4       0.2463891       59.71225
2013    16      5       0.3623892       80.63262
2013    16      6       0.3786071       83.03634
2013    16      7       0.4262402       90.97838
2013    17      0       0.2998198       69.16781
2013    17      1       0.1953929       49.18347
2013    17      2       0.1386215       37.31839
2013    17      3       0.1211326       33.44918
2013    17      4       0.121128        33.44549
2013    17      5       0.1264614       34.77171
2013    17      6       0.1205615       33.53142
2013    17      7       0.1280121       35.14101
2013    18      0       0.1424184       38.36065
2013    18      1       0.1574752       41.75057
2013    18      2       0.1683663       44.26313
2013    18      3       0.1791816       46.75131
2013    18      4       0.2245207       56.07567
2013    18      5       0.2754803       66.39781
2013    18      6       0.2870277       68.96136
2013    18      7       0.2906153       69.97379
2013    19      0       0.31273         74.41148
2013    19      1       0.3586234       83.02427
2013    19      2       0.4322705       95.56619
2013    19      3       0.4163141       93.06228
2013    19      4       0.4522591       98.67734
2013    19      5       0.5947009       120.011
2013    19      6       0.6554399       128.5568
2013    19      7       0.5563162       114.6132
2013    20      0       0.5378373       111.3309
2013    20      1       0.3514035       81.60656
2013    20      2       0.1988041       51.70768
2013    20      3       0.1305434       36.59698
2013    20      4       0.1115832       32.06987
2013    20      5       0.1133841       32.30493
2013    20      6       0.1469472       40.38823
2013    20      7       0.1695433       45.33197
2013    21      0       0.207683        53.45263
2013    21      1       0.2314304       58.34091
2013    21      2       0.2432439       60.89131
2013    21      3       0.2572151       63.69
2013    21      4       0.2562465       63.71512
2013    21      5       0.2743748       67.0353
2013    21      6       0.2896681       70.1657
2013    21      7       0.298387        71.94881
2013    22      0       0.3591424       83.34752
2013    22      1       0.4255987       95.5359
2013    22      2       0.3106982       75.02447
2013    22      3       0.1771415       47.29961
2013    22      4       0.1277043       36.03443
2013    22      5       0.137131        38.31508
2013    22      6       0.1200482       34.26101
2013    22      7       0.09205359      27.51748
2013    23      0       0.09500204      28.1822
2013    23      1       0.0787711       24.33511
2013    23      2       0.07280501      22.89643
2013    23      3       0.06692826      21.50153
2013    23      4       0.05394084      18.0581
2013    23      5       0.06114732      19.59871
2013    23      6       0.1164334       32.52196
2013    23      7       0.2230465       55.06283
2013    24      0       0.2199529       54.82292
2013    24      1       0.2000659       50.99573
2013    24      2       0.1756403       45.96466
2013    24      3       0.1582725       42.31633
2013    24      4       0.1003144       29.61552
2013    24      5       0.08515062      26.00076
2013    24      6       0.087742        26.60875
2013    24      7       0.09977808      29.52644
2013    25      0       0.10819         31.6448
2013    25      1       0.1012975       30.09561
2013    25      2       0.09426411      28.38192
2013    25      3       0.09060837      27.36718
2013    25      4       0.09246828      27.65144
2013    25      5       0.1089936       31.21038
2013    25      6       0.1744651       45.5987
2013    25      7       0.2158244       54.96566
2013    26      0       0.2296575       58.39714
2013    26      1       0.288077        70.51729
2013    26      2       0.2983644       72.70397
2013    26      3       0.3055057       74.11659
2013    26      4       0.3024327       73.60488
2013    26      5       0.2701366       67.15995
2013    26      6       0.2569456       64.54238
2013    26      7       0.245465        62.50927
2013    27      0       0.2385904       61.28224
2013    27      1       0.2710053       67.75318
2013    27      2       0.3241239       78.00924
2013    27      3       0.3247004       78.17772
2013    27      4       0.2900428       71.25345
2013    27      5       0.2439441       61.89193
2013    27      6       0.2650277       65.96231
2013    27      7       0.3163901       76.15131
2013    28      0       0.3449331       81.7432
2013    28      1       0.358926        84.37939
2013    28      2       0.404886        92.7559
2013    28      3       0.3625027       85.038
2013    28      4       0.376536        86.1763
2013    28      5       0.2563935       63.36507
2013    28      6       0.4072896       92.4331
2013    28      7       0.379722        88.01703
2013    29      0       0.3036976       74.09612
2013    29      1       0.3077847       74.52978
2013    29      2       0.3455894       81.86223
2013    29      3       0.4271536       96.66316
2013    29      4       0.5628873       118.9459
2013    29      5       0.5752051       120.0644
2013    29      6       0.540296        114.5498
2013    29      7       0.5314981       113.1796
2013    30      0       0.4589389       101.5515
2013    30      1       0.3271372       77.55572
2013    30      2       0.2332214       58.73074
2013    30      3       0.1970603       51.08564
2013    30      4       0.1665279       44.44475
2013    30      5       0.05955692      19.67094
2013    30      6       0.07897771      24.31778
2013    30      7       0.08096272      24.72868
2014    1       0       0.4614207       98.3205
2014    1       1       0.3853214       85.61926
2014    1       2       0.3752218       84.0352
2014    1       3       0.4686465       99.47035
2014    1       4       0.4236688       92.15341
2014    1       5       0.3028618       70.69059
2014    1       6       0.3086779       71.68487
2014    1       7       0.3824365       84.29573
2014    2       0       0.3258685       74.55104
2014    2       1       0.3081122       71.3319
2014    2       2       0.3009856       70.07267
2014    2       3       0.3696359       82.5498
2014    2       4       0.4520536       96.31393
2014    2       5       0.3956541       87.35525
2014    2       6       0.4444047       95.78433
2014    2       7       0.4183759       92.15546
2014    3       0       0.3166027       74.01936
2014    3       1       0.1596164       42.66809
2014    3       2       0.1533495       41.0918
2014    3       3       0.1461076       39.39674
2014    3       4       0.1393951       37.90423
2014    3       5       0.133514        36.57877
2014    3       6       0.1626636       43.00582
2014    3       7       0.2116307       53.19997
2014    4       0       0.2436214       59.51419
2014    4       1       0.2598032       62.67772
2014    4       2       0.3223021       74.43574
2014    4       3       0.4391391       94.853
2014    4       4       0.3330935       76.51744
2014    4       5       0.2777422       66.11036
2014    4       6       0.4510427       96.19466
2014    4       7       0.4217129       91.82091
2014    5       0       0.4408189       95.01924
2014    5       1       0.419839        91.8303
2014    5       2       0.3679108       83.24756
2014    5       3       0.3157939       73.8121
2014    5       4       0.2644528       64.01315
2014    5       5       0.235807        58.3428
2014    5       6       0.3764928       84.87473
2014    5       7       0.3946966       88.19303
2014    6       0       0.4066952       90.24003
2014    6       1       0.4249172       93.24742
2014    6       2       0.424266        93.91789
2014    6       3       0.3697263       84.52235
2014    6       4       0.4454781       98.12899
2014    6       5       0.4826758       104.1878
2014    6       6       0.57143         118.3292
2014    6       7       0.3630426       84.40295
2014    7       0       0.3401813       80.09606
2014    7       1       0.3200051       76.33261
2014    7       2       0.3078217       74.06083
2014    7       3       0.3012744       72.76959
2014    7       4       0.283605        69.45419
2014    7       5       0.2399321       60.85667
2014    7       6       0.2305383       59.13883
2014    7       7       0.2423765       61.5097
2014    8       0       0.2362881       60.48803
2014    8       1       0.2186103       56.88469
2014    8       2       0.2250933       58.29434
2014    8       3       0.22946         59.06693
2014    8       4       0.212018        55.31244
2014    8       5       0.1993488       52.42219
2014    8       6       0.2084749       54.41546
2014    8       7       0.2512945       63.59239
2014    9       0       0.2955671       72.43848
2014    9       1       0.3321508       79.26068
2014    9       2       0.3795259       88.19433
2014    9       3       0.310597        75.11732
2014    9       4       0.2082605       53.74355
2014    9       5       0.1935458       50.65123
2014    9       6       0.2840181       69.47896
2014    9       7       0.2824399       69.26863
2014    10      0       0.3043617       73.38699
2014    10      1       0.3369585       79.85384
2014    10      2       0.3433165       81.40317
2014    10      3       0.2253597       58.23563
2014    10      4       0.2177401       56.39721
2014    10      5       0.1745          46.73355
2014    10      6       0.2303836       58.9665
2014    10      7       0.3174384       76.19429
2014    11      0       0.3278224       78.53128
2014    11      1       0.3572862       84.62073
2014    11      2       0.3813849       89.03431
2014    11      3       0.3075781       74.73464
2014    11      4       0.2952357       72.29101
2014    11      5       0.2899945       71.17237
2014    11      6       0.2951775       72.11282
2014    11      7       0.3300606       78.91811
2014    12      0       0.3888413       89.65971
2014    12      1       0.4151897       94.13241
2014    12      2       0.4773462       104.2033
2014    12      3       0.5048323       109.1847
2014    12      4       0.4011541       91.45189
2014    12      5       0.3297505       78.59485
2014    12      6       0.219649        57.15847
2014    12      7       0.2481399       62.95046
2014    13      0       0.1705128       46.15792
2014    13      1       0.1298926       36.83921
2014    13      2       0.1681231       45.29518
2014    13      3       0.1255078       35.47768
2014    13      4       0.1393605       38.50135
2014    13      5       0.1206783       34.31202
2014    13      6       0.09521737      28.35208
2014    13      7       0.0898924       27.11982
2014    14      0       0.09762402      28.97019
2014    14      1       0.09992927      29.40206
2014    14      2       0.102528        29.9052
2014    14      3       0.1035571       30.09508
2014    14      4       0.1060446       30.4991
2014    14      5       0.1146579       32.51886
2014    14      6       0.1657803       44.33044
2014    14      7       0.2280276       57.50185
2014    15      0       0.2523395       62.41906
2014    15      1       0.1987256       51.59862
2014    15      2       0.298191        71.9947
2014    15      3       0.3438778       81.30769
2014    15      4       0.3522426       83.04945
2014    15      5       0.2115977       53.29405
2014    15      6       0.304011        72.7509
2014    15      7       0.3065164       73.22615
2014    16      0       0.3193379       74.85805
2014    16      1       0.3904083       87.14382
2014    16      2       0.530748        110.1685
2014    16      3       0.4627602       100.1387
2014    16      4       0.450668        98.25338
2014    16      5       0.3702684       84.74693
2014    16      6       0.3866806       87.86492
2014    16      7       0.4254566       94.73209
2014    17      0       0.433061        96.29499
2014    17      1       0.4260883       95.27462
2014    17      2       0.451208        99.81857
2014    17      3       0.4839936       105.2523
2014    17      4       0.4855425       105.8217
2014    17      5       0.4548691       101.1919
2014    17      6       0.4381442       98.82118
2014    17      7       0.4635865       103.4275
2014    18      0       0.6351176       129.1734
2014    18      1       0.8763857       159.8834
2014    18      2       0.6391242       128.9036
2014    18      3       0.6807709       132.548
2014    18      4       0.3875606       87.32888
2014    18      5       0.05165915      17.77003
2014    18      6       0.1113046       32.22475
2014    18      7       0.157498        42.50229
2014    19      0       0.2082945       53.31988
2014    19      1       0.1906486       49.44818
2014    19      2       0.2295555       57.51448
2014    19      3       0.2672002       65.24084
2014    19      4       0.2524711       62.49359
2014    19      5       0.2180295       55.54094
2014    19      6       0.2096007       54.18386
2014    19      7       0.2472995       62.45205
2014    20      0       0.3687231       85.94761
2014    20      1       0.3156072       75.86101
2014    20      2       0.2968985       72.22321
2014    20      3       0.1743358       46.22384
2014    20      4       0.1270531       35.23175
2014    20      5       0.1388882       38.04889
2014    20      6       0.1944082       50.67136
2014    20      7       0.2245413       56.98594
2014    21      0       0.2253112       57.44674
2014    21      1       0.2260843       57.52327
2014    21      2       0.2469726       61.73183
2014    21      3       0.2539844       63.13152
2014    21      4       0.2381417       59.92405
2014    21      5       0.2550811       62.98675
2014    21      6       0.3989852       89.59695
2014    21      7       0.5683626       116.3719
2014    22      0       0.5151854       109.027
2014    22      1       0.334921        79.37335
2014    22      2       0.3716237       85.52961
2014    22      3       0.47463         102.5751
2014    22      4       0.5320332       110.666
2014    22      5       0.5517228       113.2677
2014    22      6       0.5760667       115.9705
2014    22      7       0.5840623       116.0145
2014    23      0       0.3202707       73.6796
2014    23      1       0.2303929       56.7615
2014    23      2       0.2405811       58.78793
2014    23      3       0.2776147       66.00966
2014    23      4       0.2464017       60.20383
2014    23      5       0.2539123       61.97889
2014    23      6       0.3142236       73.8085
2014    23      7       0.3519055       80.6085
2014    24      0       0.4454168       96.54107
2014    24      1       0.4472682       97.7378
2014    24      2       0.433136        95.72308
2014    24      3       0.5327994       111.1572
2014    24      4       0.6329843       125.4813
2014    24      5       0.2832949       68.51902
2014    24      6       0.4161833       92.36768
2014    24      7       0.589185        118.3899
2014    25      0       0.6198506       122.9126
2014    25      1       0.4802149       102.5354
2014    25      2       0.4463636       97.1468
2014    25      3       0.6210404       123.1803
2014    25      4       0.5649483       115.1102
2014    25      5       0.5074052       106.6641
2014    25      6       0.5802541       117.3674
2014    25      7       0.5581023       113.457
2014    26      0       0.59182         118.2192
2014    26      1       0.461666        98.94024
2014    26      2       0.3959892       88.10008
2014    26      3       0.3786252       85.08894
2014    26      4       0.2557953       62.26337
2014    26      5       0.1870135       48.31983
2014    26      6       0.2338698       58.07809
2014    26      7       0.2427546       59.54358
2014    27      0       0.2121033       53.27321
2014    27      1       0.2185776       54.89391
2014    27      2       0.2372791       58.91603
2014    27      3       0.2378376       59.21289
2014    27      4       0.3241749       76.03452
2014    27      5       0.3090164       73.09858
2014    27      6       0.467123        99.03621
2014    27      7       0.3504636       79.64127
2014    28      0       0.2948386       69.37196
2014    28      1       0.3092774       72.06279
2014    28      2       0.2340951       57.9144
2014    28      3       0.1810689       46.96009
2014    28      4       0.1610038       42.54576
2014    28      5       0.1715055       44.81216
2014    28      6       0.1920201       49.19528
2014    28      7       0.2018449       51.3766
2014    29      0       0.2172247       54.73928
2014    29      1       0.2171004       54.94222
2014    29      2       0.238823        59.63303
2014    29      3       0.2740493       66.79939
2014    29      4       0.2471859       61.63588
2014    29      5       0.2367935       59.53013
2014    29      6       0.2376277       59.66798
2014    29      7       0.2267099       57.45305
2014    30      0       0.2099054       54.02055
2014    30      1       0.1721959       45.98358
2014    30      2       0.1233346       34.80265
2014    30      3       0.1147519       32.8258
2014    30      4       0.1030164       30.17434
2014    30      5       0.09178681      27.52446
2014    30      6       0.1158261       33.50291
2014    30      7       0.1346475       38.0173
2015    1       0       0.3851852       87.15615
2015    1       1       0.2476721       60.9005
2015    1       2       0.1320676       36.38189
2015    1       3       0.1045716       30.04337
2015    1       4       0.09249967      27.19321
2015    1       5       0.1866849       48.30643
2015    1       6       0.1808163       46.67611
2015    1       7       0.1956503       49.53237
2015    2       0       0.2323782       56.83919
2015    2       1       0.2179802       54.00876
2015    2       2       0.177261        45.59341
2015    2       3       0.1499511       39.81173
2015    2       4       0.1332636       36.14608
2015    2       5       0.148456        39.65228
2015    2       6       0.2503724       60.20078
2015    2       7       0.2090478       52.35935
2015    3       0       0.1647641       43.3811
2015    3       1       0.1250718       34.77578
2015    3       2       0.1090033       31.14785
2015    3       3       0.1185509       33.1875
2015    3       4       0.1285883       35.44335
2015    3       5       0.1117917       31.82925
2015    3       6       0.1078016       30.84313
2015    3       7       0.1247523       34.5604
2015    4       0       0.1594112       42.15113
2015    4       1       0.2495962       60.56212
2015    4       2       0.4097053       90.02686
2015    4       3       0.3692873       83.11042
2015    4       4       0.3634927       82.00547
2015    4       5       0.3919244       86.7076
2015    4       6       0.4246183       92.36807
2015    4       7       0.4129251       90.82619
2015    5       0       0.4476036       96.51734
2015    5       1       0.4866607       102.8644
2015    5       2       0.4500227       96.79213
2015    5       3       0.4364669       94.79857
2015    5       4       0.5217453       108.6306
2015    5       5       0.3486298       79.41403
2015    5       6       0.437383        93.81299
2015    5       7       0.4087847       89.07974
2015    6       0       0.4595101       97.28837
2015    6       1       0.28551         67.75228
2015    6       2       0.275784        65.81027
2015    6       3       0.2107557       52.96747
2015    6       4       0.1732031       44.93622
2015    6       5       0.1837689       47.06902
2015    6       6       0.1995305       50.43571
2015    6       7       0.2270655       56.22438
2015    7       0       0.2156254       53.89155
2015    7       1       0.2146965       53.6615
2015    7       2       0.2612792       62.93498
2015    7       3       0.2823608       66.8085
2015    7       4       0.3291845       75.61099
2015    7       5       0.2781903       66.50204
2015    7       6       0.4107123       89.53734
2015    7       7       0.4011398       88.25292
2015    8       0       0.5117787       106.5208
2015    8       1       0.4618065       98.70376
2015    8       2       0.4598056       98.33496
2015    8       3       0.4777624       101.0908
2015    8       4       0.4881967       102.4905
2015    8       5       0.4961602       103.8231
2015    8       6       0.522036        108.3328
2015    8       7       0.4087259       90.65777
2015    9       0       0.3800933       85.50206
2015    9       1       0.2839226       68.22219
2015    9       2       0.2208647       55.80029
2015    9       3       0.1819393       47.51045
2015    9       4       0.1739065       45.58775
2015    9       5       0.1637992       43.36945
2015    9       6       0.2045544       52.05672
2015    9       7       0.2135017       53.94704
2015    10      0       0.2146806       54.32122
2015    10      1       0.2049607       52.3818
2015    10      2       0.2125178       54.01075
2015    10      3       0.2177985       55.18375
2015    10      4       0.2143045       54.44327
2015    10      5       0.2188564       55.33226
2015    10      6       0.22123         55.93108
2015    10      7       0.225399        57.00595
2015    11      0       0.2407511       60.25314
2015    11      1       0.2573508       63.72578
2015    11      2       0.2567686       63.53557
2015    11      3       0.191562        49.62776
2015    11      4       0.2841095       68.14215
2015    11      5       0.4208588       92.06983
2015    11      6       0.5775383       117.0204
2015    11      7       0.6364482       125.8983
2015    12      0       0.5680004       116.5514
2015    12      1       0.1711563       45.89605
2015    12      2       0.1237343       34.80653
2015    12      3       0.1490469       40.13608
2015    12      4       0.1621232       43.11771
2015    12      5       0.1968343       50.55925
2015    12      6       0.2413612       59.94881
2015    12      7       0.2587165       63.50485
2015    13      0       0.2360534       59.0987
2015    13      1       0.2260571       57.20195
2015    13      2       0.2546879       63.51182
2015    13      3       0.233496        59.2976
2015    13      4       0.1983895       51.77255
2015    13      5       0.1667954       44.62199
2015    13      6       0.1556272       42.22409
2015    13      7       0.1899121       49.90432
2015    14      0       0.2481266       62.18878
2015    14      1       0.2693642       66.70614
2015    14      2       0.2738793       67.16238
2015    14      3       0.4321524       95.68428
2015    14      4       0.3847018       86.53684
2015    14      5       0.3364022       76.26618
2015    14      6       0.2320908       56.31753
2015    14      7       0.2092165       51.92369
2015    15      0       0.2097937       52.04968
2015    15      1       0.1685501       43.72358
2015    15      2       0.1541437       40.8143
2015    15      3       0.1364737       37.09347
2015    15      4       0.1320234       36.08956
2015    15      5       0.1674926       44.00406
2015    15      6       0.1192671       33.50488
2015    15      7       0.09543479      28.08187
2015    16      0       0.09947665      29.18605
2015    16      1       0.1002857       29.54483
2015    16      2       0.1090591       31.66367
2015    16      3       0.08906654      26.88833
2015    16      4       0.07948156      24.57248
2015    16      5       0.08627447      26.17704
2015    16      6       0.09771514      28.92349
2015    16      7       0.1244543       35.33701
2015    17      0       0.1383945       38.56419
2015    17      1       0.1146153       33.17339
2015    17      2       0.09719934      28.98607
2015    17      3       0.1109775       32.28199
2015    17      4       0.133313        37.36259
2015    17      5       0.1560611       42.42902
2015    17      6       0.1687503       45.42462
2015    17      7       0.1868042       49.57284
2015    18      0       0.2207139       56.81203
2015    18      1       0.2130637       55.10379
2015    18      2       0.2293787       58.53654
2015    18      3       0.2358809       59.91142
2015    18      4       0.2361828       59.63745
2015    18      5       0.2364357       59.66692
2015    18      6       0.2041499       53.23689
2015    18      7       0.1784544       47.80336
2015    19      0       0.1299166       36.94116
2015    19      1       0.08350626      25.83588
2015    19      2       0.09770607      29.19477
2015    19      3       0.11446         32.86881
2015    19      4       0.1235144       34.87065
2015    19      5       0.1289389       36.1379
2015    19      6       0.1518358       41.34114
2015    19      7       0.1802249       47.48978
2015    20      0       0.1903337       49.71436
2015    20      1       0.1756553       46.74357
2015    20      2       0.1683483       45.2972
2015    20      3       0.1819316       48.35444
2015    20      4       0.2015518       52.49906
2015    20      5       0.224535        57.20615
2015    20      6       0.2228338       56.85565
2015    20      7       0.2254683       57.51899
2015    21      0       0.2146709       55.46023
2015    21      1       0.1846958       49.32348
2015    21      2       0.1733552       46.97853
2015    21      3       0.1600098       44.02092
2015    21      4       0.1553554       42.9001
2015    21      5       0.1539699       42.52115
2015    21      6       0.1881664       50.12287
2015    21      7       0.2386669       60.84217
2015    22      0       0.3058338       73.91751
2015    22      1       0.3645455       85.04246
2015    22      2       0.4395567       98.61111
2015    22      3       0.4369859       98.54441
2015    22      4       0.4382735       98.44076
2015    22      5       0.4752939       104.0748
2015    22      6       0.5374964       114.1519
2015    22      7       0.6179702       125.0848
2015    23      0       0.6759703       133.2007
2015    23      1       0.4075135       92.06082
2015    23      2       0.193935        50.79396
2015    23      3       0.1274582       36.24374
2015    23      4       0.1470556       40.41935
2015    23      5       0.2002678       51.83379
2015    23      6       0.2458439       61.26624
2015    23      7       0.2819267       68.60325
2015    24      0       0.3144604       75.02423
2015    24      1       0.4995214       106.7427
2015    24      2       0.6366048       126.5589
2015    24      3       0.6640756       130.1422
2015    24      4       0.7260244       138.0511
2015    24      5       0.65957         129.0119
2015    24      6       0.3457954       79.91852
2015    24      7       0.320606        74.65312
2015    25      0       0.4166667       90.98396
2015    25      1       0.3773663       84.77065
2015    25      2       0.3789659       84.88122
2015    25      3       0.3960491       87.84391
2015    25      4       0.4804131       101.6457
2015    25      5       0.5219714       108.1226
2015    25      6       0.5849963       117.4924
2015    25      7       0.4961927       104.4414
2015    26      0       0.4362385       94.49807
2015    26      1       0.3281847       75.83565
2015    26      2       0.260532        63.18938
2015    26      3       0.2355304       58.34212
2015    26      4       0.2245371       56.17246
2015    26      5       0.2612342       63.74432
2015    26      6       0.3109182       73.58661
2015    26      7       0.3342691       78.27681
2015    27      0       0.3607596       83.32428
2015    27      1       0.3867302       88.01093
2015    27      2       0.4325987       96.28944
2015    27      3       0.4577379       100.8162
2015    27      4       0.4593896       101.4552
2015    27      5       0.4023545       91.70017
2015    27      6       0.3224621       77.37024
2015    27      7       0.2827974       69.74235
2015    28      0       0.260738        65.56329
2015    28      1       0.2296053       59.48383
2015    28      2       0.2232846       58.04096
2015    28      3       0.216385        56.54963
2015    28      4       0.2045096       53.89389
2015    28      5       0.1904379       50.95174
2015    28      6       0.1786936       48.49187
2015    28      7       0.1864298       50.2667
2015    29      0       0.193162        51.7521
2015    29      1       0.1987877       53.0103
2015    29      2       0.4732599       105.439
2015    29      3       0.7588933       146.6198
2015    29      4       0.6261468       128.4199
2015    29      5       0.4878924       107.63
2015    29      6       0.6502215       130.163
2015    29      7       0.5386164       114.2574
2015    30      0       0.6646554       132.0466
2015    30      1       0.7816615       147.1648
2015    30      2       0.5442092       114.5935
2015    30      3       0.2660907       66.25464
2015    30      4       0.07189004      22.95816
2015    30      5       0.05005109      17.34624
2015    30      6       0.05735755      19.22645
2015    30      7       0.0918724       27.9741
2016    1       0       0.3624212       84.30372
2016    1       1       0.3520973       82.53498
2016    1       2       0.3537909       82.98786
2016    1       3       0.3618556       84.52516
2016    1       4       0.3447491       81.30747
2016    1       5       0.2988421       72.70232
2016    1       6       0.286577        70.54647
2016    1       7       0.3118718       75.38404
2016    2       0       0.3112796       75.42929
2016    2       1       0.2881723       71.00886
2016    2       2       0.2730195       68.06149
2016    2       3       0.2723158       67.90478
2016    2       4       0.2668688       66.70271
2016    2       5       0.261438        65.55308
2016    2       6       0.2713797       67.64362
2016    2       7       0.3197313       77.1068
2016    3       0       0.4200357       95.12586
2016    3       1       0.4976752       108.153
2016    3       2       0.5498912       116.1697
2016    3       3       0.520817        111.8151
2016    3       4       0.4573088       101.4962
2016    3       5       0.462317        102.1953
2016    3       6       0.5576962       116.8311
2016    3       7       0.5148503       110.468
2016    4       0       0.440547        98.57789
2016    4       1       0.322347        77.49964
2016    4       2       0.3684548       85.63245
2016    4       3       0.4856925       105.8126
2016    4       4       0.2503915       62.06853
2016    4       5       0.2630055       65.30549
2016    4       6       0.4360552       96.66195
2016    4       7       0.2542999       62.86947
2016    5       0       0.2513897       60.80063
2016    5       1       0.2024244       51.86458
2016    5       2       0.1685512       45.18164
2016    5       3       0.2073829       53.24883
2016    5       4       0.2520306       62.23741
2016    5       5       0.3074721       73.22076
2016    5       6       0.3529177       82.18371
2016    5       7       0.3541034       82.90034
2016    6       0       0.3401181       80.57675
2016    6       1       0.3175999       76.58165
2016    6       2       0.311249        75.32402
2016    6       3       0.2745215       68.02066
2016    6       4       0.2437177       61.65238
2016    6       5       0.2240583       57.49429
2016    6       6       0.2414658       61.124
2016    6       7       0.2486145       62.92769
2016    7       0       0.246517        62.58467
2016    7       1       0.228186        58.48072
2016    7       2       0.19745         51.76747
2016    7       3       0.1789972       47.6117
2016    7       4       0.1768193       47.11099
2016    7       5       0.1803962       47.98369
2016    7       6       0.1739779       46.65906
2016    7       7       0.2036394       53.40171
2016    8       0       0.2270948       58.52176
2016    8       1       0.2336663       59.83649
2016    8       2       0.2377153       60.53662
2016    8       3       0.2143781       55.48378
2016    8       4       0.1991375       52.12307
2016    8       5       0.2039861       53.19967
2016    8       6       0.265474        66.22549
2016    8       7       0.3496602       82.55549
2016    9       0       0.3936874       90.36504
2016    9       1       0.3866962       89.19673
2016    9       2       0.3901754       89.93008
2016    9       3       0.4069411       92.83188
2016    9       4       0.4127754       93.68711
2016    9       5       0.4090677       92.77066
2016    9       6       0.4421486       98.67848
2016    9       7       0.5403894       114.4926
2016    10      0       0.66142         131.2551
2016    10      1       0.6557715       131.1679
2016    10      2       0.6127277       124.5112
2016    10      3       0.5800834       119.9297
2016    10      4       0.5425147       114.6769
2016    10      5       0.5091106       109.3901
2016    10      6       0.4788884       104.0307
2016    10      7       0.4833326       104.3063
2016    11      0       0.4308321       96.09243
2016    11      1       0.4071344       92.204
2016    11      2       0.3864949       88.75382
2016    11      3       0.3328042       79.08432
2016    11      4       0.3014405       73.06072
2016    11      5       0.2913176       71.05938
2016    11      6       0.3387386       80.06123
2016    11      7       0.4070017       92.2918
2016    12      0       0.4497542       99.55303
2016    12      1       0.4087916       92.86513
2016    12      2       0.4102391       93.27367
2016    12      3       0.4549996       100.7753
2016    12      4       0.5243285       111.8779
2016    12      5       0.6864569       135.2221
2016    12      6       0.7611609       143.6056
2016    12      7       0.7509029       141.6728
2016    13      0       0.7316094       139.5571
2016    13      1       0.7699262       144.3843
2016    13      2       0.6567057       129.6806
2016    13      3       0.5862067       118.8124
2016    13      4       0.416776        92.69653
2016    13      5       0.4257799       94.39655
2016    13      6       0.5025481       107.2248
2016    13      7       0.5259762       110.992
2016    14      0       0.5425649       112.692
2016    14      1       0.4611078       100.5344
2016    14      2       0.4892871       104.6538
2016    14      3       0.3438634       79.45341
2016    14      4       0.3810214       84.78129
2016    14      5       0.2236982       55.84566
2016    14      6       0.2605715       62.95609
2016    14      7       0.3111102       72.21712
2016    15      0       0.3637907       81.53541
2016    15      1       0.3110996       72.26335
2016    15      2       0.4242894       91.57993
2016    15      3       0.3678237       82.59799
2016    15      4       0.3596895       81.5586
2016    15      5       0.3827238       85.47899
2016    15      6       0.405035        89.97247
2016    15      7       0.2744796       66.66044
2016    16      0       0.1905134       49.66559
2016    16      1       0.1667075       44.64564
2016    16      2       0.1552328       42.24165
2016    16      3       0.1206125       34.02987
2016    16      4       0.1081957       31.17043
2016    16      5       0.1051548       30.50161
2016    16      6       0.1320563       36.8729
2016    16      7       0.1690089       45.18061
2016    17      0       0.1883173       49.40461
2016    17      1       0.1772723       46.96416
2016    17      2       0.161033        43.29344
2016    17      3       0.1546661       41.83841
2016    17      4       0.1612739       43.36729
2016    17      5       0.1751324       46.49187
2016    17      6       0.2178218       56.11004
2016    17      7       0.2141227       55.55576
2016    18      0       0.1955945       51.73057
2016    18      1       0.1688019       45.91373
2016    18      2       0.1605344       43.98946
2016    18      3       0.1663889       45.1879
2016    18      4       0.154676        42.71109
2016    18      5       0.1328349       37.8501
2016    18      6       0.1388483       39.24078
2016    18      7       0.1622991       44.64512
2016    19      0       0.1752465       47.69885
2016    19      1       0.1572216       43.72576
2016    19      2       0.1396083       39.72726
2016    19      3       0.1390183       39.58259
2016    19      4       0.1407241       39.98685
2016    19      5       0.1345671       38.5476
2016    19      6       0.1412317       40.10418
2016    19      7       0.1586193       44.14428
2016    20      0       0.1685309       46.50185
2016    20      1       0.1552853       43.62143
2016    20      2       0.1493073       42.21944
2016    20      3       0.1565641       43.78157
2016    20      4       0.1483906       41.8701
2016    20      5       0.1454449       41.11347
2016    20      6       0.2044196       54.16233
2016    20      7       0.260775        65.70021
2016    21      0       0.278927        69.28472
2016    21      1       0.2670397       66.54797
2016    21      2       0.3693005       86.22727
2016    21      3       0.5387904       114.7281
2016    21      4       0.6053477       124.9002
2016    21      5       0.4698966       104.3335
2016    21      6       0.512557        111.4707
2016    21      7       0.6166302       127.1068
2016    22      0       0.4886955       107.6674
2016    22      1       0.4640465       103.4574
2016    22      2       0.7149149       137.7458
2016    22      3       0.3960053       90.15114
2016    22      4       0.3414007       80.64774
2016    22      5       0.4653866       102.2447
2016    22      6       0.5292449       111.2966
2016    22      7       0.6678486       129.5398
2016    23      0       0.5516453       113.6691
2016    23      1       0.5409712       112.344
2016    23      2       0.3680488       84.22158
2016    23      3       0.3630519       83.44554
2016    23      4       0.380845        86.97821
2016    23      5       0.3275925       77.3235
2016    23      6       0.3154575       75.25857
2016    23      7       0.2327804       58.99076
2016    24      0       0.2175175       55.83805
2016    24      1       0.2693859       66.18235
2016    24      2       0.4205003       93.77554
2016    24      3       0.6157197       123.4552
2016    24      4       0.6454274       127.4433
2016    24      5       0.5968856       120.0666
2016    24      6       0.7456259       139.4218
2016    24      7       0.6079951       120.9975
2016    25      0       0.5447919       111.8736
2016    25      1       0.3786125       85.3516
2016    25      2       0.4062218       90.11873
2016    25      3       0.4448776       96.7142
2016    25      4       0.4200863       92.31313
2016    25      5       0.4994441       104.5043
2016    25      6       0.4915343       103.9364
2016    25      7       0.4826648       102.8628
2016    26      0       0.3616744       82.89542
2016    26      1       0.3058168       72.85566
2016    26      2       0.2863383       69.26306
2016    26      3       0.2570182       63.70999
2016    26      4       0.2148146       55.06358
2016    26      5       0.2028942       52.53781
2016    26      6       0.206616        53.44245
2016    26      7       0.2288712       57.85103
2016    27      0       0.2200251       56.10491
2016    27      1       0.2343099       58.72594
2016    27      2       0.2977053       70.4786
2016    27      3       0.4262293       93.05716
2016    27      4       0.5054379       105.4523
2016    27      5       0.5418916       110.9896
2016    27      6       0.5956996       119.0626
2016    27      7       0.4897002       103.73
2016    28      0       0.5800135       117.3703
2016    28      1       0.4548392       98.29611
2016    28      2       0.4499844       97.54447
2016    28      3       0.3722599       84.80604
2016    28      4       0.3497172       80.82348
2016    28      5       0.3461778       80.20207
2016    28      6       0.5552755       114.3755
2016    28      7       0.6901503       133.198
2016    29      0       0.6088844       122.2126
2016    29      1       0.51777         109.2322
2016    29      2       0.4564579       99.78413
2016    29      3       0.425221        94.73441
2016    29      4       0.3745325       85.79553
2016    29      5       0.327216        76.68737
2016    29      6       0.6404882       125.8641
2016    29      7       0.6412738       124.9504
2016    30      0       0.5265877       109.1898
2016    30      1       0.473156        101.1648
2016    30      2       0.4856593       103.3494
2016    30      3       0.393017        88.4664
2016    30      4       0.3578803       82.43134
2016    30      5       0.3553517       82.06677
2016    30      6       0.3612225       83.458
2016    30      7       0.384057        87.6109
2017    1       0       0.1939437       51.07119
2017    1       1       0.1814104       48.34099
2017    1       2       0.1491703       41.03195
2017    1       3       0.147306        40.44815
2017    1       4       0.1580528       43.04922
2017    1       5       0.2575738       64.3489
2017    1       6       0.3833876       88.2418
2017    1       7       0.416852        94.31372
2017    2       0       0.5152574       110.2048
2017    2       1       0.7144388       138.5905
2017    2       2       0.8190148       151.5525
2017    2       3       0.787607        147.4069
2017    2       4       0.5190289       110.4638
2017    2       5       0.1519046       41.13891
2017    2       6       0.05724364      19.03325
2017    2       7       0.09531079      28.29247
2017    3       0       0.1043228       30.33454
2017    3       1       0.09692356      28.57153
2017    3       2       0.1090319       31.25059
2017    3       3       0.1094536       31.14702
2017    3       4       0.09450548      27.57476
2017    3       5       0.06219421      19.93738
2017    3       6       0.08378476      25.4372
2017    3       7       0.1154818       32.72942
2017    4       0       0.1193483       33.60933
2017    4       1       0.1072168       30.73487
2017    4       2       0.1147935       32.36428
2017    4       3       0.1309105       35.88073
2017    4       4       0.187726        47.9186
2017    4       5       0.2764533       65.81072
2017    4       6       0.3732162       84.27743
2017    4       7       0.3545843       81.55969
2017    5       0       0.3997958       89.81286
2017    5       1       0.4204271       93.60462
2017    5       2       0.499038        106.6727
2017    5       3       0.5867237       119.8293
2017    5       4       0.5616503       115.7871
2017    5       5       0.4493001       98.06338
2017    5       6       0.4479539       98.41145
2017    5       7       0.4425652       98.09517
2017    6       0       0.5539555       115.0163
2017    6       1       0.5735869       118.1513
2017    6       2       0.5341112       111.8554
2017    6       3       0.459496        99.0789
2017    6       4       0.4663036       100.1103
2017    6       5       0.4993437       105.6644
2017    6       6       0.5371799       111.6613
2017    6       7       0.6709485       131.3318
2017    7       0       0.6137324       124.6871
2017    7       1       0.4402032       98.16341
2017    7       2       0.6760066       132.492
2017    7       3       0.4727344       103.6964
2017    7       4       0.6115272       123.3586
2017    7       5       0.453092        98.44001
2017    7       6       0.3989813       89.70555
2017    7       7       0.3526438       81.25088
2017    8       0       0.2987974       71.4307
2017    8       1       0.2738897       66.63184
2017    8       2       0.3112469       73.35138
2017    8       3       0.2877379       69.0466
2017    8       4       0.3904794       87.43658
2017    8       5       0.4273804       92.68432
2017    8       6       0.2832623       66.34951
2017    8       7       0.2677175       63.23957
2017    9       0       0.1935554       48.74835
2017    9       1       0.1830749       46.68951
2017    9       2       0.155508        41.12486
2017    9       3       0.1534289       40.75093
2017    9       4       0.1420777       38.16405
2017    9       5       0.1595144       41.87781
2017    9       6       0.1755269       45.49228
2017    9       7       0.1849472       47.52878
2017    10      0       0.2101895       52.8186
2017    10      1       0.2032076       51.50438
2017    10      2       0.1715366       45.03705
2017    10      3       0.2384481       57.9316
2017    10      4       0.2686946       64.58044
2017    10      5       0.188294        48.59499
2017    10      6       0.1483558       39.87754
2017    10      7       0.1385034       37.71951
2017    11      0       0.1767447       46.1237
2017    11      1       0.2165669       54.52147
2017    11      2       0.2428614       59.92979
2017    11      3       0.3145824       73.3537
2017    11      4       0.4838792       102.3297
2017    11      5       0.5110799       106.8585
2017    11      6       0.5322428       110.1471
2017    11      7       0.5769614       118.1955
2017    12      0       0.6216126       124.5589
2017    12      1       0.4823599       104.114
2017    12      2       0.3468302       80.80931
2017    12      3       0.3708835       85.07357
2017    12      4       0.3005763       72.19095
2017    12      5       0.3576508       82.91795
2017    12      6       0.5409168       113.6432
2017    12      7       0.5090027       108.7017
2017    13      0       0.564607        117.4199
2017    13      1       0.5353906       113.53
2017    13      2       0.4808959       104.5981
2017    13      3       0.6128193       123.0361
2017    13      4       0.5842347       118.0033
2017    13      5       0.5433583       111.9966
2017    13      6       0.4256811       93.12904
2017    13      7       0.3448521       78.86262
2017    14      0       0.3585828       81.03018
2017    14      1       0.2987139       70.313
2017    14      2       0.3337449       76.29428
2017    14      3       0.2503288       60.93859
2017    14      4       0.3356909       77.10685
2017    14      5       0.3733958       83.77887
2017    14      6       0.4035334       88.18158
2017    14      7       0.3058765       71.15138
2017    15      0       0.2586738       62.31074
2017    15      1       0.1890068       48.45313
2017    15      2       0.1582881       42.04376
2017    15      3       0.1526545       40.82979
2017    15      4       0.1586761       42.08131
2017    15      5       0.1869367       47.98656
2017    15      6       0.2339165       57.8711
2017    15      7       0.2778899       66.78772
2017    16      0       0.2753788       66.75479
2017    16      1       0.2076144       53.39403
2017    16      2       0.1680231       44.95194
2017    16      3       0.1810761       47.66294
2017    16      4       0.3053142       72.41192
2017    16      5       0.3615976       82.30881
2017    16      6       0.3047374       71.72986
2017    16      7       0.285207        69.04584
2017    17      0       0.4302822       94.28619
2017    17      1       0.6455          127.0476
2017    17      2       0.3033504       73.08868
2017    17      3       0.3792709       87.15125
2017    17      4       0.2576986       63.87009
2017    17      5       0.1982457       51.38377
2017    17      6       0.4948293       105.0924
2017    17      7       0.6881306       133.1277
2017    18      0       0.679586        133.3342
2017    18      1       0.7953436       148.7125
2017    18      2       0.5672542       117.8651
2017    18      3       0.4957658       106.4577
2017    18      4       0.391983        88.89287
2017    18      5       0.4291407       94.76306
2017    18      6       0.5782524       118.0759
2017    18      7       0.4884516       104.3246
2017    19      0       0.2676047       65.52935
2017    19      1       0.2384403       59.5675
2017    19      2       0.2211463       56.05636
2017    19      3       0.2302809       57.83617
2017    19      4       0.2488657       61.37396
2017    19      5       0.1960551       50.58077
2017    19      6       0.1810087       47.45004
2017    19      7       0.1929815       50.02947
2017    20      0       0.2393639       59.40102
2017    20      1       0.3294655       76.53545
2017    20      2       0.396447        87.74062
2017    20      3       0.3478945       79.4515
2017    20      4       0.4541835       97.95846
2017    20      5       0.4373573       95.05481
2017    20      6       0.3867574       85.7302
2017    20      7       0.3321939       76.67311
2017    21      0       0.2943327       69.9977
2017    21      1       0.198516        51.06684
2017    21      2       0.1973895       50.77535
2017    21      3       0.2068904       52.81813
2017    21      4       0.2117197       53.9631
2017    21      5       0.2124239       54.25857
2017    21      6       0.2465253       61.38208
2017    21      7       0.2772195       67.65551
2017    22      0       0.3066179       73.51733
2017    22      1       0.3272895       77.64125
2017    22      2       0.3456469       81.50457
2017    22      3       0.3216187       77.52787
2017    22      4       0.2566794       65.15098
2017    22      5       0.2211885       57.58186
2017    22      6       0.229712        58.61612
2017    22      7       0.2966817       71.87518
2017    23      0       0.4326225       95.84276
2017    23      1       0.4733007       102.9933
2017    23      2       0.461318        100.6536
2017    23      3       0.3475368       80.52104
2017    23      4       0.3002495       71.7962
2017    23      5       0.3180469       74.58267
2017    23      6       0.3465879       80.28524
2017    23      7       0.4000884       90.43622
2017    24      0       0.4332355       95.84488
2017    24      1       0.5117117       107.8843
2017    24      2       0.5126581       108.0038
2017    24      3       0.6660505       129.4557
2017    24      4       0.6534411       127.7751
2017    24      5       0.6744422       130.3974
2017    24      6       0.4789939       102.0691
2017    24      7       0.5608617       113.721
2017    25      0       0.6320882       123.7114
2017    25      1       0.5895576       118.7285
2017    25      2       0.5617228       113.6748
2017    25      3       0.4547486       98.05156
2017    25      4       0.3371939       78.04678
2017    25      5       0.2995478       71.7447
2017    25      6       0.1947813       50.76315
2017    25      7       0.2588521       63.04102
2017    26      0       0.4008193       89.79355
2017    26      1       0.5341447       112.3125
2017    26      2       0.4470789       98.90831
2017    26      3       0.438484        96.55554
2017    26      4       0.6605149       129.3831
2017    26      5       0.6832211       132.1745
2017    26      6       0.7818334       146.0851
2017    26      7       0.7505268       142.18
2017    27      0       0.6491676       128.4187
2017    27      1       0.4020554       90.4126
2017    27      2       0.2897221       69.83229
2017    27      3       0.219973        55.74441
2017    27      4       0.2045409       52.47744
2017    27      5       0.2658319       64.67751
2017    27      6       0.2084966       52.81188
2017    27      7       0.2514642       61.5186
2017    28      0       0.3299819       75.92368
2017    28      1       0.3232328       74.71429
2017    28      2       0.3902232       87.05151
2017    28      3       0.3768815       84.66263
2017    28      4       0.3550952       81.10793
2017    28      5       0.3202806       74.37814
2017    28      6       0.3544824       80.27193
2017    28      7       0.4261586       92.51508
2017    29      0       0.3539632       80.79
2017    29      1       0.2213607       55.93343
2017    29      2       0.1893866       49.39423
2017    29      3       0.1606667       43.07358
2017    29      4       0.1316597       36.49398
2017    29      5       0.1360867       37.47821
2017    29      6       0.1779258       46.82121
2017    29      7       0.2598995       63.9268
2017    30      0       0.3951684       88.87271
2017    30      1       0.3543932       81.98804
2017    30      2       0.3560672       82.64933
2017    30      3       0.4273914       94.65143
2017    30      4       0.4467889       98.05936
2017    30      5       0.3229304       76.82776
2017    30      6       0.5235381       111.1084
2017    30      7       0.6123191       124.2985
2018    1       0       0.4264531       95.14657
2018    1       1       0.3880192       88.7834
2018    1       2       0.3243498       77.75879
2018    1       3       0.2895338       70.76805
2018    1       4       0.2559524       64.00557
2018    1       5       0.2537201       63.25925
2018    1       6       0.2992864       72.12852
2018    1       7       0.3938398       89.2033
2018    2       0       0.4193056       93.85327
2018    2       1       0.4291154       95.93395
2018    2       2       0.4583855       100.3728
2018    2       3       0.5154076       108.9418
2018    2       4       0.6691595       130.4866
2018    2       5       0.4468838       97.5148
2018    2       6       0.122454        34.35163
2018    2       7       0.0969731       28.43501
2018    3       0       0.1063714       30.70661
2018    3       1       0.09687088      28.54093
2018    3       2       0.08539402      25.78703
2018    3       3       0.0968377       28.45616
2018    3       4       0.1050239       30.25674
2018    3       5       0.1109292       31.51813
2018    3       6       0.137292        37.25147
2018    3       7       0.1894954       48.67843
2018    4       0       0.2227113       55.67064
2018    4       1       0.2739234       66.63687
2018    4       2       0.4216485       93.76063
2018    4       3       0.5843334       119.4221
2018    4       4       0.6566068       129.157
2018    4       5       0.6720435       131.1296
2018    4       6       0.7079498       136.2941
2018    4       7       0.7497578       142.1975
2018    5       0       0.6390828       127.8465
2018    5       1       0.5346663       112.8416
2018    5       2       0.576816        119.0578
2018    5       3       0.6961682       134.5744
2018    5       4       0.7079506       136.3426
2018    5       5       0.4923637       105.8693
2018    5       6       0.5756158       117.8215
2018    5       7       0.6548524       129.7368
2018    6       0       0.6266052       126.3179
2018    6       1       0.7915143       146.9272
2018    6       2       0.8736885       156.4708
2018    6       3       0.7090126       137.4809
2018    6       4       0.6795587       133.5704
2018    6       5       0.6758811       132.7083
2018    6       6       0.7323851       141.0243
2018    6       7       0.7811905       147.0534
2018    7       0       0.8245671       152.4551
2018    7       1       0.8367277       154.6078
2018    7       2       0.9807305       171.3
2018    7       3       0.9970636       171.9825
2018    7       4       0.9421241       166.064
2018    7       5       0.9009823       163.2695
2018    7       6       0.577461        121.3718
2018    7       7       0.3563051       83.4976
2018    8       0       0.3844795       87.07762
2018    8       1       0.2676731       65.83271
2018    8       2       0.306309        72.76501
2018    8       3       0.4463972       97.51629
2018    8       4       0.2843132       69.25447
2018    8       5       0.2120552       54.43925
2018    8       6       0.1830224       48.33878
2018    8       7       0.2181663       55.34211
2018    9       0       0.2492439       61.71083
2018    9       1       0.2131883       54.49625
2018    9       2       0.202525        52.22158
2018    9       3       0.2195548       55.62554
2018    9       4       0.2298983       57.76396
2018    9       5       0.1995393       51.6456
2018    9       6       0.1891245       50.11697
2018    9       7       0.1918707       50.94823
2018    10      0       0.1789795       48.32616
2018    10      1       0.1537599       43.04252
2018    10      2       0.1982977       52.48841
2018    10      3       0.4200102       94.20014
2018    10      4       0.584723        120.1374
2018    10      5       0.5933204       121.9696
2018    10      6       0.3828838       87.80789
2018    10      7       0.5772979       118.0318
2018    11      0       0.6088792       123.187
2018    11      1       0.4825762       105.2205
2018    11      2       0.4287553       96.57897
2018    11      3       0.298627        72.58616
2018    11      4       0.2760301       66.96674
2018    11      5       0.3948469       87.8363
2018    11      6       0.4646289       99.415
2018    11      7       0.3756089       85.50451
2018    12      0       0.4094278       91.37414
2018    12      1       0.2493998       62.13137
2018    12      2       0.3578032       82.02526
2018    12      3       0.4827088       101.549
2018    12      4       0.25005         60.35412
2018    12      5       0.2746108       64.63771
2018    12      6       0.173725        44.92879
2018    12      7       0.2889309       67.35306
2018    13      0       0.4012468       86.92353
2018    13      1       0.2821259       66.39615
2018    13      2       0.2187576       54.26021
2018    13      3       0.1579374       41.63567
2018    13      4       0.1597066       42.02826
2018    13      5       0.2354217       58.32547
2018    13      6       0.2860655       68.5241
2018    13      7       0.3543523       81.36204
2018    14      0       0.4214077       93.34224
2018    14      1       0.4114923       91.697
2018    14      2       0.3558289       82.11822
2018    14      3       0.3270533       76.80577
2018    14      4       0.4213563       92.99837
2018    14      5       0.4120884       91.57198
2018    14      6       0.4042999       90.09078
2018    14      7       0.3986673       89.39762
2018    15      0       0.4274953       94.68882
2018    15      1       0.4891403       104.8547
2018    15      2       0.4058167       91.15601
2018    15      3       0.3040213       72.5516
2018    15      4       0.3579682       82.66901
2018    15      5       0.2844284       69.15646
2018    15      6       0.2707094       66.44855
2018    15      7       0.3072114       73.52104
2018    16      0       0.3865266       87.85052
2018    16      1       0.3295194       77.69414
2018    16      2       0.3638998       83.31815
2018    16      3       0.3853329       86.4199
2018    16      4       0.3049499       71.25888
2018    16      5       0.3700799       82.77518
2018    16      6       0.249699        60.26836
2018    16      7       0.2306753       56.37268
2018    17      0       0.2270079       55.78286
2018    17      1       0.1944499       49.24749
2018    17      2       0.1869562       47.99641
2018    17      3       0.2008233       50.88975
2018    17      4       0.1337145       36.31911
2018    17      5       0.1889347       48.24497
2018    17      6       0.2204212       54.81467
2018    17      7       0.1635745       43.05329
2018    18      0       0.1728283       44.95221
2018    18      1       0.1781494       46.10049
2018    18      2       0.1783967       46.10586
2018    18      3       0.2137174       53.0961
2018    18      4       0.2568367       61.44322
2018    18      5       0.3025884       70.18376
2018    18      6       0.3217237       73.84808
2018    18      7       0.3367623       76.64379
2018    19      0       0.3554623       80.3948
2018    19      1       0.3882845       86.31492
2018    19      2       0.3986496       88.25065
2018    19      3       0.4331203       94.08237
2018    19      4       0.3753269       84.64421
2018    19      5       0.4416406       95.46802
2018    19      6       0.4708242       100.3017
2018    19      7       0.4492615       97.25017
2018    20      0       0.3995359       89.41751
2018    20      1       0.3742194       85.55539
2018    20      2       0.267596        66.07054
2018    20      3       0.1968417       51.7672
2018    20      4       0.1525563       41.86642
2018    20      5       0.1160838       33.30908
2018    20      6       0.1608228       43.51773
2018    20      7       0.2151773       55.35202
2018    21      0       0.27054         66.9771
2018    21      1       0.300323        73.02671
2018    21      2       0.3412267       80.89907
2018    21      3       0.3730816       86.62897
2018    21      4       0.3904321       89.55293
2018    21      5       0.317265        76.59764
2018    21      6       0.2891474       71.46167
2018    21      7       0.2893306       71.42231
2018    22      0       0.3291477       79.12524
2018    22      1       0.4113498       94.04024
2018    22      2       0.3777579       87.97853
2018    22      3       0.3451472       82.03051
2018    22      4       0.323409        77.9426
2018    22      5       0.3042555       74.24701
2018    22      6       0.3306065       78.90672
2018    22      7       0.3500497       82.1702
2018    23      0       0.3235769       77.32302
2018    23      1       0.3062161       73.54818
2018    23      2       0.1990454       52.09474
2018    23      3       0.1264296       36.02186
2018    23      4       0.1129114       32.67163
2018    23      5       0.08336286      25.49525
2018    23      6       0.1058778       30.86294
2018    23      7       0.1144205       32.92152
2018    24      0       0.1133838       32.92494
2018    24      1       0.09346833      28.30887
2018    24      2       0.0769699       24.29218
2018    24      3       0.06207834      20.58244
2018    24      4       0.0509332       17.65176
2018    24      5       0.05068447      17.56139
2018    24      6       0.097724        29.42235
2018    24      7       0.124952        35.81135
2018    25      0       0.1438229       40.16954
2018    25      1       0.1430112       39.76844
2018    25      2       0.1451327       39.9505
2018    25      3       0.1391374       38.84823
2018    25      4       0.135354        37.7835
2018    25      5       0.1884295       49.25229
2018    25      6       0.212897        54.86988
2018    25      7       0.2219126       57.2211
2018    26      0       0.2281114       59.02446
2018    26      1       0.2171354       57.04388
2018    26      2       0.2216607       58.1218
2018    26      3       0.2301166       59.93736
2018    26      4       0.2261459       59.06052
2018    26      5       0.2139233       56.4803
2018    26      6       0.1826676       49.59752
2018    26      7       0.2034934       54.12958
2018    27      0       0.2163929       56.56492
2018    27      1       0.2111697       55.12332
2018    27      2       0.2888772       70.8011
2018    27      3       0.4124829       93.97502
2018    27      4       0.4523303       101.6403
2018    27      5       0.3974628       91.2263
2018    27      6       0.3861306       90.2072
2018    27      7       0.4179261       95.61638
2018    28      0       0.2412569       61.42919
2018    28      1       0.3032703       72.81471
2018    28      2       0.2734276       67.00027
2018    28      3       0.2015251       52.20091
2018    28      4       0.171065        45.3747
2018    28      5       0.1781041       46.72107
2018    28      6       0.2472745       60.94217
2018    28      7       0.3492822       79.71202
2018    29      0       0.4743492       100.7506
2018    29      1       0.4719361       100.5217
2018    29      2       0.409917        90.75143
2018    29      3       0.4115999       91.15583
2018    29      4       0.4339881       94.63839
2018    29      5       0.4647777       98.80933
2018    29      6       0.4115722       90.25861
2018    29      7       0.4238398       92.22206
2018    30      0       0.4371978       94.78056
2018    30      1       0.3427706       78.57015
2018    30      2       0.2876548       68.70026
2018    30      3       0.2844049       68.18749
2018    30      4       0.2534837       62.17225
2018    30      5       0.2855719       68.2357
2018    30      6       0.3692141       83.02862
2018    30      7       0.4021315       88.42172
