####################################################################################################
# Month: 04Apr                                                                                     #
# Station: JELM                                                                                    #
# Frequency: 230 GHz                                                                               #
# Columns are: year    day     segment         tau     Tb (K)                                      #
####################################################################################################
2009    1       0       0.2917026       68.09579
2009    1       1       0.2162315       53.51964
2009    1       2       0.2347565       57.24527
2009    1       3       0.2984016       69.24475
2009    1       4       0.3402743       76.72058
2009    1       5       0.1986697       49.77597
2009    1       6       0.1732006       44.55768
2009    1       7       0.226122        55.17906
2009    2       0       0.2293473       55.91921
2009    2       1       0.1851962       47.01183
2009    2       2       0.1374622       36.88968
2009    2       3       0.1281086       34.78913
2009    2       4       0.1270926       34.65423
2009    2       5       0.1584255       41.69357
2009    2       6       0.2181815       54.59874
2009    2       7       0.2626453       63.82563
2009    3       0       0.2433015       59.60488
2009    3       1       0.2213909       55.45393
2009    3       2       0.3292387       75.67401
2009    3       3       0.3154916       73.66809
2009    3       4       0.2494121       61.75043
2009    3       5       0.2672765       64.31388
2009    3       6       0.3252743       75.51245
2009    3       7       0.4360203       94.05006
2009    4       0       0.4412721       95.66633
2009    4       1       0.3717688       84.20155
2009    4       2       0.4361445       94.51489
2009    4       3       0.4242843       92.35012
2009    4       4       0.4068091       88.72709
2009    4       5       0.3428041       77.12073
2009    4       6       0.3247153       73.61878
2009    4       7       0.3199291       72.63302
2009    5       0       0.2599479       61.50564
2009    5       1       0.2202247       53.83065
2009    5       2       0.2011349       49.99403
2009    5       3       0.1602364       41.62719
2009    5       4       0.1415961       37.61931
2009    5       5       0.1635912       42.19866
2009    5       6       0.1927065       48.43561
2009    5       7       0.2077866       51.40649
2009    6       0       0.1489265       39.40894
2009    6       1       0.06969701      21.6933
2009    6       2       0.05315085      17.76881
2009    6       3       0.04321786      15.32908
2009    6       4       0.0351845       13.30617
2009    6       5       0.03827725      14.08247
2009    6       6       0.04933868      16.85975
2009    6       7       0.06116453      19.82922
2009    7       0       0.06258239      20.19132
2009    7       1       0.05632582      18.68586
2009    7       2       0.04982331      17.11302
2009    7       3       0.04395504      15.64578
2009    7       4       0.04508865      15.92765
2009    7       5       0.04794774      16.64082
2009    7       6       0.05091217      17.41152
2009    7       7       0.0622612       20.19781
2009    8       0       0.08014229      24.53948
2009    8       1       0.09044344      27.0601
2009    8       2       0.09751698      28.69063
2009    8       3       0.1067405       30.98932
2009    8       4       0.1518755       41.29822
2009    8       5       0.2149294       54.82605
2009    8       6       0.1925675       50.25557
2009    8       7       0.2246635       57.16316
2009    9       0       0.3054992       71.91444
2009    9       1       0.2170985       54.55922
2009    9       2       0.1514812       40.77158
2009    9       3       0.1432338       38.87347
2009    9       4       0.1345367       36.77916
2009    9       5       0.2182764       54.45675
2009    9       6       0.3037509       71.13882
2009    9       7       0.3152198       73.423
2009    10      0       0.3596263       81.3448
2009    10      1       0.3547095       80.5935
2009    10      2       0.2897286       69.07176
2009    10      3       0.2122243       53.99307
2009    10      4       0.1694348       44.73512
2009    10      5       0.1852222       47.87109
2009    10      6       0.2544536       62.0438
2009    10      7       0.3892382       86.91202
2009    11      0       0.3556784       81.27193
2009    11      1       0.2767477       66.87451
2009    11      2       0.2665639       65.04455
2009    11      3       0.2132067       54.38977
2009    11      4       0.4380462       95.31506
2009    11      5       0.2624408       64.46807
2009    11      6       0.3519128       80.8774
2009    11      7       0.3868925       87.18488
2009    12      0       0.3442017       80.18567
2009    12      1       0.4253177       94.37053
2009    12      2       0.4949029       105.1897
2009    12      3       0.4436871       97.10958
2009    12      4       0.3939122       88.66792
2009    12      5       0.3826264       86.40869
2009    12      6       0.5500047       112.8819
2009    12      7       0.5404661       111.5486
2009    13      0       0.4818786       102.9922
2009    13      1       0.3076412       72.98542
2009    13      2       0.1485475       40.68457
2009    13      3       0.1309962       36.70703
2009    13      4       0.1551933       42.1595
2009    13      5       0.1688269       45.03947
2009    13      6       0.1918146       49.77262
2009    13      7       0.2739352       66.30063
2009    14      0       0.2712326       66.25216
2009    14      1       0.2278506       57.80013
2009    14      2       0.2468936       61.46464
2009    14      3       0.2748616       66.81812
2009    14      4       0.2790272       67.46296
2009    14      5       0.3014447       71.76967
2009    14      6       0.3854568       86.87718
2009    14      7       0.4750392       101.852
2009    15      0       0.4034185       90.49114
2009    15      1       0.2954777       71.14626
2009    15      2       0.2778015       67.42997
2009    15      3       0.4016725       89.85726
2009    15      4       0.2692661       66.26265
2009    15      5       0.2862796       69.20999
2009    15      6       0.4156652       91.8964
2009    15      7       0.4181685       92.68761
2009    16      0       0.3922097       88.63788
2009    16      1       0.2552167       63.7409
2009    16      2       0.4241495       93.73917
2009    16      3       0.4470235       97.62217
2009    16      4       0.352477        81.47933
2009    16      5       0.3944618       88.56871
2009    16      6       0.4376863       95.58973
2009    16      7       0.4144905       91.97729
2009    17      0       0.4910943       104.3986
2009    17      1       0.3812514       86.42957
2009    17      2       0.3571299       82.52624
2009    17      3       0.2277926       57.48364
2009    17      4       0.2863749       68.72183
2009    17      5       0.3072807       72.83449
2009    17      6       0.2961869       71.0449
2009    17      7       0.4142138       92.10514
2009    18      0       0.4197301       92.59585
2009    18      1       0.3299209       77.01061
2009    18      2       0.2420148       60.03174
2009    18      3       0.3060444       72.198
2009    18      4       0.2929288       69.77269
2009    18      5       0.3418273       79.14484
2009    18      6       0.3919834       88.02395
2009    18      7       0.5028595       105.7383
2009    19      0       0.5091179       106.6742
2009    19      1       0.3710917       84.48419
2009    19      2       0.1597765       43.01046
2009    19      3       0.1506213       40.7217
2009    19      4       0.1831245       47.65863
2009    19      5       0.1743029       45.82949
2009    19      6       0.2406858       59.84408
2009    19      7       0.302087        72.01906
2009    20      0       0.2763787       67.2212
2009    20      1       0.2943036       70.74879
2009    20      2       0.3017481       72.0655
2009    20      3       0.2874891       69.37934
2009    20      4       0.2729822       66.67278
2009    20      5       0.2523669       62.5178
2009    20      6       0.3032946       72.67496
2009    20      7       0.3439848       80.46108
2009    21      0       0.3583557       83.14569
2009    21      1       0.3459297       81.18495
2009    21      2       0.3097864       74.58015
2009    21      3       0.2734927       67.53776
2009    21      4       0.2616146       65.16559
2009    21      5       0.2564879       64.07751
2009    21      6       0.3034975       73.43681
2009    21      7       0.3872629       88.79782
2009    22      0       0.4123978       93.09397
2009    22      1       0.3874392       88.70618
2009    22      2       0.4104523       92.59321
2009    22      3       0.3488276       81.93358
2009    22      4       0.3328006       78.75983
2009    22      5       0.3345635       78.72536
2009    22      6       0.3713804       85.23972
2009    22      7       0.3556987       82.62346
2009    23      0       0.2980335       72.43394
2009    23      1       0.2295835       58.79803
2009    23      2       0.2593692       64.59619
2009    23      3       0.2902009       70.59757
2009    23      4       0.2709047       66.87171
2009    23      5       0.2182485       55.85943
2009    23      6       0.3027969       73.20184
2009    23      7       0.3255293       77.4951
2009    24      0       0.2859609       70.05179
2009    24      1       0.2308792       58.78424
2009    24      2       0.2504512       62.61098
2009    24      3       0.4540518       100.1709
2009    24      4       0.3457631       81.57547
2009    24      5       0.3555967       82.95858
2009    24      6       0.4796795       103.5787
2009    24      7       0.4514203       99.48978
2009    25      0       0.3954703       89.88716
2009    25      1       0.4131413       92.66526
2009    25      2       0.4575387       100.7222
2009    25      3       0.4430202       98.28655
2009    25      4       0.4563376       100.1398
2009    25      5       0.5082168       107.9639
2009    25      6       0.5805145       117.6535
2009    25      7       0.5487238       113.2028
2009    26      0       0.3927958       88.90244
2009    26      1       0.5418197       112.4095
2009    26      2       0.4581705       99.81607
2009    26      3       0.2472772       61.38449
2009    26      4       0.2999567       71.16363
2009    26      5       0.2924353       69.53961
2009    26      6       0.3817717       85.44805
2009    26      7       0.3879997       85.75149
2009    27      0       0.3685284       82.77517
2009    27      1       0.3958476       87.57415
2009    27      2       0.3826992       85.21537
2009    27      3       0.3315198       76.16892
2009    27      4       0.3875916       85.91953
2009    27      5       0.2599553       62.75092
2009    27      6       0.2114261       53.2819
2009    27      7       0.1943213       49.95542
2009    28      0       0.1689823       44.72378
2009    28      1       0.1379101       37.97216
2009    28      2       0.1598522       43.01854
2009    28      3       0.1932021       50.33455
2009    28      4       0.1979365       51.38661
2009    28      5       0.1690441       45.34397
2009    28      6       0.2206742       56.30062
2009    28      7       0.2849569       69.37395
2009    29      0       0.2871915       70.21194
2009    29      1       0.252681        63.32511
2009    29      2       0.2085529       54.08709
2009    29      3       0.204748        53.27585
2009    29      4       0.1375869       38.44056
2009    29      5       0.1305047       36.82887
2009    29      6       0.1881467       49.76969
2009    29      7       0.2354962       59.62853
2009    30      0       0.2452762       61.60303
2009    30      1       0.2099148       54.17031
2009    30      2       0.2183536       55.85485
2009    30      3       0.217727        55.69395
2009    30      4       0.2093196       53.72809
2009    30      5       0.1868333       49.02041
2009    30      6       0.2659253       65.15515
2009    30      7       0.329363        77.38411
2010    1       0       0.496159        105.2172
2010    1       1       0.5242763       109.953
2010    1       2       0.5098796       107.7113
2010    1       3       0.4139703       91.6901
2010    1       4       0.3287037       76.39249
2010    1       5       0.3413324       78.66627
2010    1       6       0.4373603       94.47157
2010    1       7       0.4000657       88.14393
2010    2       0       0.2609207       62.4401
2010    2       1       0.172298        44.56051
2010    2       2       0.1857927       47.07822
2010    2       3       0.1374709       36.88516
2010    2       4       0.1507954       39.74708
2010    2       5       0.1955759       48.83646
2010    2       6       0.2659859       62.6457
2010    2       7       0.2285376       55.77559
2010    3       0       0.1953092       49.30422
2010    3       1       0.1095356       30.84817
2010    3       2       0.1827855       46.8368
2010    3       3       0.1870452       48.27939
2010    3       4       0.2208952       54.95207
2010    3       5       0.1941945       49.46435
2010    3       6       0.2864423       67.13662
2010    3       7       0.2354805       57.3942
2010    4       0       0.1624226       42.39514
2010    4       1       0.1528649       40.33057
2010    4       2       0.1699905       44.10547
2010    4       3       0.4193623       91.2969
2010    4       4       0.4077553       89.63116
2010    4       5       0.2585709       62.86713
2010    4       6       0.2292988       56.71871
2010    4       7       0.2748839       65.7702
2010    5       0       0.2235561       55.50236
2010    5       1       0.2658408       64.15943
2010    5       2       0.3516717       80.10566
2010    5       3       0.2893541       68.72038
2010    5       4       0.2849102       68.00839
2010    5       5       0.2701679       65.21874
2010    5       6       0.4003105       88.70819
2010    5       7       0.3842185       86.20372
2010    6       0       0.3480683       79.96295
2010    6       1       0.3623803       82.26557
2010    6       2       0.3413399       78.76303
2010    6       3       0.4268576       92.30285
2010    6       4       0.1852229       47.55669
2010    6       5       0.1730432       44.73612
2010    6       6       0.2363491       57.41143
2010    6       7       0.277779        65.22073
2010    7       0       0.3138273       72.23483
2010    7       1       0.2956262       68.69573
2010    7       2       0.3838722       84.53634
2010    7       3       0.3816298       84.11233
2010    7       4       0.22422         55.12107
2010    7       5       0.2571495       61.82902
2010    7       6       0.3511741       79.04095
2010    7       7       0.3096281       71.50674
2010    8       0       0.3154452       73.22722
2010    8       1       0.1099388       31.22568
2010    8       2       0.09355926      27.52634
2010    8       3       0.092138        27.33111
2010    8       4       0.0918386       27.36795
2010    8       5       0.09685656      28.54036
2010    8       6       0.1043876       30.34917
2010    8       7       0.1109114       31.8783
2010    9       0       0.1128969       32.34065
2010    9       1       0.1013429       29.82579
2010    9       2       0.09249393      27.86136
2010    9       3       0.1026495       30.14456
2010    9       4       0.132837        36.94168
2010    9       5       0.1479821       40.21578
2010    9       6       0.1727548       45.5484
2010    9       7       0.196245        50.62507
2010    10      0       0.2530571       61.94552
2010    10      1       0.2655426       64.44404
2010    10      2       0.2371941       59.05604
2010    10      3       0.2376855       59.06628
2010    10      4       0.2334199       58.12736
2010    10      5       0.2044692       52.23473
2010    10      6       0.224301        56.36017
2010    10      7       0.2470222       61.06491
2010    11      0       0.3395767       78.37869
2010    11      1       0.3252155       76.12396
2010    11      2       0.2363336       59.16656
2010    11      3       0.1872874       49.08592
2010    11      4       0.1633115       43.85444
2010    11      5       0.1541301       41.5833
2010    11      6       0.1562074       42.22608
2010    11      7       0.2144035       54.83124
2010    12      0       0.2243957       57.00089
2010    12      1       0.1995657       51.6596
2010    12      2       0.1835745       48.25216
2010    12      3       0.1376608       38.01633
2010    12      4       0.1802191       47.69594
2010    12      5       0.2212862       56.63196
2010    12      6       0.2139386       55.19812
2010    12      7       0.368532        84.61759
2010    13      0       0.4675032       100.962
2010    13      1       0.4049711       91.3557
2010    13      2       0.3393094       79.8293
2010    13      3       0.2029467       52.66397
2010    13      4       0.2281126       57.62748
2010    13      5       0.2236803       56.17512
2010    13      6       0.2533479       61.44029
2010    13      7       0.2716525       64.76447
2010    14      0       0.2286883       56.52434
2010    14      1       0.11994         33.60592
2010    14      2       0.1142456       32.4671
2010    14      3       0.1249608       34.94162
2010    14      4       0.1191038       33.61516
2010    14      5       0.100495        29.33865
2010    14      6       0.1396847       38.35312
2010    14      7       0.1728549       45.95105
2010    15      0       0.1821745       48.03501
2010    15      1       0.1541923       42.02143
2010    15      2       0.1559769       42.4358
2010    15      3       0.1657565       44.51153
2010    15      4       0.1714531       45.65324
2010    15      5       0.1610275       43.33987
2010    15      6       0.1900692       49.66289
2010    15      7       0.2500156       62.17284
2010    16      0       0.3091968       73.75725
2010    16      1       0.2819939       68.65605
2010    16      2       0.2300046       58.33671
2010    16      3       0.2009189       52.27621
2010    16      4       0.1956427       51.16516
2010    16      5       0.2159716       55.46795
2010    16      6       0.3714478       85.42817
2010    16      7       0.483934        104.3024
2010    17      0       0.46048         100.5145
2010    17      1       0.3353857       79.05719
2010    17      2       0.2738294       67.12659
2010    17      3       0.2988431       71.5664
2010    17      4       0.3695521       84.20561
2010    17      5       0.4477015       97.30377
2010    17      6       0.5027079       105.9499
2010    17      7       0.3877127       87.34954
2010    18      0       0.3113197       74.01231
2010    18      1       0.2850156       69.17477
2010    18      2       0.2578733       63.64226
2010    18      3       0.2448521       61.08231
2010    18      4       0.1813137       47.99487
2010    18      5       0.1540743       41.95143
2010    18      6       0.18382         48.51693
2010    18      7       0.2281494       57.8633
2010    19      0       0.2529815       62.85785
2010    19      1       0.2573053       63.39188
2010    19      2       0.3786167       85.25417
2010    19      3       0.354019        81.25658
2010    19      4       0.1998182       51.84689
2010    19      5       0.1853319       48.58574
2010    19      6       0.2410688       60.1676
2010    19      7       0.3243035       76.08294
2010    20      0       0.3415416       79.56112
2010    20      1       0.3249253       76.48876
2010    20      2       0.3064311       73.32983
2010    20      3       0.2768882       67.77865
2010    20      4       0.2938016       70.71486
2010    20      5       0.2897448       70.01882
2010    20      6       0.3147488       75.10705
2010    20      7       0.4745617       102.5455
2010    21      0       0.5889662       119.6679
2010    21      1       0.5350229       112.9803
2010    21      2       0.504749        108.3221
2010    21      3       0.4156513       93.52477
2010    21      4       0.3397761       80.3412
2010    21      5       0.3769679       87.07649
2010    21      6       0.5041475       108.7371
2010    21      7       0.53098         112.3484
2010    22      0       0.7052672       136.6071
2010    22      1       0.6050381       124.9687
2010    22      2       0.484016        105.3151
2010    22      3       0.6407459       128.1425
2010    22      4       0.4243152       95.99216
2010    22      5       0.4970309       106.6409
2010    22      6       0.4740964       102.3037
2010    22      7       0.3834999       87.37656
2010    23      0       0.4392511       96.04769
2010    23      1       0.4158712       91.64922
2010    23      2       0.348691        79.56581
2010    23      3       0.2584232       63.53037
2010    23      4       0.2770397       67.12926
2010    23      5       0.322599        75.67925
2010    23      6       0.461083        99.7262
2010    23      7       0.5689602       115.9643
2010    24      0       0.4777892       102.3818
2010    24      1       0.4890979       103.6571
2010    24      2       0.4596754       98.80781
2010    24      3       0.4395295       95.36708
2010    24      4       0.370884        83.59211
2010    24      5       0.1727684       45.16178
2010    24      6       0.06488147      20.70515
2010    24      7       0.1083734       31.35422
2010    25      0       0.1494942       40.86998
2010    25      1       0.1810922       47.61635
2010    25      2       0.217294        55.14437
2010    25      3       0.2149249       54.57593
2010    25      4       0.2957702       70.47764
2010    25      5       0.2843055       68.17355
2010    25      6       0.3858751       86.67779
2010    25      7       0.4519303       97.24912
2010    26      0       0.50192         104.9212
2010    26      1       0.4065989       89.47886
2010    26      2       0.2945364       69.25895
2010    26      3       0.2276005       56.11029
2010    26      4       0.1711516       44.42887
2010    26      5       0.1941023       49.11391
2010    26      6       0.3247167       74.51754
2010    26      7       0.3233282       74.68703
2010    27      0       0.358822        81.524
2010    27      1       0.2758042       66.48505
2010    27      2       0.2579388       63.28549
2010    27      3       0.2158435       54.8511
2010    27      4       0.1475518       40.2605
2010    27      5       0.1237921       34.76631
2010    27      6       0.2021342       52.26768
2010    27      7       0.2531437       62.96802
2010    28      0       0.2454051       61.07789
2010    28      1       0.2151337       55.35974
2010    28      2       0.2612051       65.19172
2010    28      3       0.2939187       71.52535
2010    28      4       0.3031268       73.19918
2010    28      5       0.2671361       66.09612
2010    28      6       0.4114526       91.93214
2010    28      7       0.486888        104.5796
2010    29      0       0.6145164       123.5059
2010    29      1       0.5206409       108.793
2010    29      2       0.3903162       87.63262
2010    29      3       0.339803        78.71421
2010    29      4       0.3640871       82.52599
2010    29      5       0.3036278       70.65786
2010    29      6       0.2521019       60.56095
2010    29      7       0.251577        60.30232
2010    30      0       0.1593653       41.83846
2010    30      1       0.1628994       42.54227
2010    30      2       0.1880989       47.94285
2010    30      3       0.1982639       49.92698
2010    30      4       0.2553217       61.30801
2010    30      5       0.3038128       70.37605
2010    30      6       0.3272018       74.36123
2010    30      7       0.3407773       76.78398
2011    1       0       0.2950029       70.51007
2011    1       1       0.2887328       69.29716
2011    1       2       0.3208016       75.40493
2011    1       3       0.3461963       80.02275
2011    1       4       0.3513471       81.10707
2011    1       5       0.301631        72.06773
2011    1       6       0.3077759       73.34793
2011    1       7       0.29046         70.48186
2011    2       0       0.2155455       55.58296
2011    2       1       0.1922603       50.57341
2011    2       2       0.178653        47.28343
2011    2       3       0.1847889       48.36582
2011    2       4       0.2962561       71.37356
2011    2       5       0.2522038       63.00211
2011    2       6       0.1880136       49.86615
2011    2       7       0.2283845       58.54803
2011    3       0       0.2678472       66.80125
2011    3       1       0.2995142       72.92673
2011    3       2       0.4231796       95.38493
2011    3       3       0.462799        101.6794
2011    3       4       0.4754149       103.1171
2011    3       5       0.5390707       111.5742
2011    3       6       0.4838817       101.4576
2011    3       7       0.3185995       73.08242
2011    4       0       0.2260669       55.19246
2011    4       1       0.1610762       41.79862
2011    4       2       0.1590374       41.47788
2011    4       3       0.1191128       32.73818
2011    4       4       0.1023269       28.95698
2011    4       5       0.1094232       30.63276
2011    4       6       0.2139142       53.06936
2011    4       7       0.2339699       57.52348
2011    5       0       0.2440491       59.94926
2011    5       1       0.2832179       67.89242
2011    5       2       0.2985856       70.89197
2011    5       3       0.2932881       70.09579
2011    5       4       0.3220274       75.75554
2011    5       5       0.3386685       79.26019
2011    5       6       0.3229796       76.40672
2011    5       7       0.3120418       74.36341
2011    6       0       0.3733389       85.74202
2011    6       1       0.4978392       106.5278
2011    6       2       0.5073662       107.8058
2011    6       3       0.429272        94.84304
2011    6       4       0.4235363       93.15629
2011    6       5       0.3944503       87.56755
2011    6       6       0.347709        79.4918
2011    6       7       0.3355069       77.74987
2011    7       0       0.2526955       62.19942
2011    7       1       0.1152156       32.70558
2011    7       2       0.09241102      27.26399
2011    7       3       0.1021836       29.39982
2011    7       4       0.1231021       34.18696
2011    7       5       0.1380678       37.65768
2011    7       6       0.1579281       42.32301
2011    7       7       0.2062597       52.82412
2011    8       0       0.2569262       62.82708
2011    8       1       0.2587132       63.0724
2011    8       2       0.4281073       93.83964
2011    8       3       0.2962111       70.61505
2011    8       4       0.2020822       51.68824
2011    8       5       0.2423295       59.95489
2011    8       6       0.2715846       65.73701
2011    8       7       0.264705        64.38884
2011    9       0       0.2316763       57.99891
2011    9       1       0.229647        57.82835
2011    9       2       0.2353146       58.97995
2011    9       3       0.2529763       62.57738
2011    9       4       0.2711683       66.26516
2011    9       5       0.3038186       72.32686
2011    9       6       0.3981804       89.08288
2011    9       7       0.4188719       92.69423
2011    10      0       0.4306318       94.55418
2011    10      1       0.4783264       101.9515
2011    10      2       0.3253979       74.67331
2011    10      3       0.1651647       43.16484
2011    10      4       0.1843866       47.32928
2011    10      5       0.2389288       58.35006
2011    10      6       0.3664739       81.91707
2011    10      7       0.3724254       82.87707
2011    11      0       0.3734135       83.20211
2011    11      1       0.1925989       49.18355
2011    11      2       0.1493844       40.08535
2011    11      3       0.1116104       31.86343
2011    11      4       0.09571635      28.28281
2011    11      5       0.08340666      25.38743
2011    11      6       0.09709764      28.70087
2011    11      7       0.1276632       35.82547
2011    12      0       0.17136         45.63221
2011    12      1       0.2050031       52.4179
2011    12      2       0.2024629       51.53282
2011    12      3       0.1760918       46.10683
2011    12      4       0.1543209       41.40062
2011    12      5       0.1567131       41.87021
2011    12      6       0.1865553       48.15351
2011    12      7       0.2758701       65.84966
2011    13      0       0.2897894       68.88414
2011    13      1       0.3770178       84.4232
2011    13      2       0.3369595       77.4954
2011    13      3       0.2602923       63.22944
2011    13      4       0.2545331       62.42817
2011    13      5       0.2213276       56.12129
2011    13      6       0.2061163       53.03294
2011    13      7       0.2423513       60.46289
2011    14      0       0.3271296       76.41944
2011    14      1       0.4117689       91.09372
2011    14      2       0.2990997       71.60261
2011    14      3       0.290516        69.79976
2011    14      4       0.5147256       107.1107
2011    14      5       0.3730867       84.00076
2011    14      6       0.374587        84.23608
2011    14      7       0.3629357       82.20848
2011    15      0       0.3534818       80.18149
2011    15      1       0.2368595       58.40027
2011    15      2       0.1830315       47.4369
2011    15      3       0.1239545       34.45853
2011    15      4       0.1262092       34.84285
2011    15      5       0.124903        34.4273
2011    15      6       0.1342338       36.56541
2011    15      7       0.1351915       36.83057
2011    16      0       0.1408319       38.19782
2011    16      1       0.1579783       41.81955
2011    16      2       0.2182112       54.66072
2011    16      3       0.2872044       68.70233
2011    16      4       0.2985305       71.03887
2011    16      5       0.2850876       68.38804
2011    16      6       0.3545175       81.13999
2011    16      7       0.4120076       91.01635
2011    17      0       0.3437794       79.67881
2011    17      1       0.2901526       69.99927
2011    17      2       0.2351776       59.11709
2011    17      3       0.266301        64.81742
2011    17      4       0.2839826       68.56788
2011    17      5       0.3502656       81.45505
2011    17      6       0.481138        103.2305
2011    17      7       0.4993714       105.6954
2011    18      0       0.4224154       93.46043
2011    18      1       0.3274825       76.83811
2011    18      2       0.3668406       83.88165
2011    18      3       0.502765        106.9166
2011    18      4       0.5771117       118.093
2011    18      5       0.645401        127.7088
2011    18      6       0.6415419       127.1335
2011    18      7       0.6011243       121.6869
2011    19      0       0.5217674       110.5213
2011    19      1       0.4967077       105.8147
2011    19      2       0.2174762       55.28149
2011    19      3       0.2041218       52.06978
2011    19      4       0.2587988       63.05193
2011    19      5       0.4105205       90.63435
2011    19      6       0.3891733       86.43971
2011    19      7       0.3242352       74.81066
2011    20      0       0.2612796       63.1035
2011    20      1       0.1682845       44.05509
2011    20      2       0.1376472       37.39829
2011    20      3       0.1400763       37.85196
2011    20      4       0.1413981       38.02039
2011    20      5       0.1430477       38.15197
2011    20      6       0.2482389       60.0165
2011    20      7       0.4518083       97.62015
2011    21      0       0.4820665       102.7381
2011    21      1       0.4465978       97.49787
2011    21      2       0.5378693       111.8946
2011    21      3       0.5152526       108.6307
2011    21      4       0.4497639       97.19678
2011    21      5       0.2221346       56.12896
2011    21      6       0.2182158       55.52198
2011    21      7       0.3588944       82.08251
2011    22      0       0.3883687       87.9327
2011    22      1       0.5043386       105.7272
2011    22      2       0.3053728       71.94727
2011    22      3       0.07349372      22.77572
2011    22      4       0.05098505      17.34859
2011    22      5       0.05647161      18.67705
2011    22      6       0.1059775       30.35778
2011    22      7       0.1374231       37.38624
2011    23      0       0.1133156       32.07722
2011    23      1       0.1045603       29.98733
2011    23      2       0.133483        36.29738
2011    23      3       0.2121713       52.89912
2011    23      4       0.2948757       68.87063
2011    23      5       0.2530302       61.21589
2011    23      6       0.3594712       81.15074
2011    23      7       0.4869454       102.3477
2011    24      0       0.4986605       104.332
2011    24      1       0.449872        96.64093
2011    24      2       0.4018361       88.88086
2011    24      3       0.3288877       76.36732
2011    24      4       0.2714138       65.53018
2011    24      5       0.2620485       63.80776
2011    24      6       0.3931301       87.86384
2011    24      7       0.5070688       105.9844
2011    25      0       0.512636        107.1236
2011    25      1       0.5267651       109.1823
2011    25      2       0.3813231       86.01557
2011    25      3       0.2947639       70.26672
2011    25      4       0.282596        67.37373
2011    25      5       0.2178518       54.4981
2011    25      6       0.4329992       93.78454
2011    25      7       0.4107685       89.77156
2011    26      0       0.4304449       93.43477
2011    26      1       0.4514141       97.04809
2011    26      2       0.2655003       64.4387
2011    26      3       0.1906895       49.15803
2011    26      4       0.1967588       50.29037
2011    26      5       0.2850541       67.73242
2011    26      6       0.3497091       79.07408
2011    26      7       0.2936928       68.99644
2011    27      0       0.3267226       74.68332
2011    27      1       0.2779337       65.72078
2011    27      2       0.2901561       68.12274
2011    27      3       0.289962        68.49086
2011    27      4       0.2068132       52.00138
2011    27      5       0.2578683       62.16525
2011    27      6       0.3011406       70.26984
2011    27      7       0.308477        71.52789
2011    28      0       0.24095         58.84289
2011    28      1       0.1302576       35.87544
2011    28      2       0.09343647      27.57423
2011    28      3       0.06725039      21.29961
2011    28      4       0.06383156      20.58624
2011    28      5       0.05939396      19.50224
2011    28      6       0.07193502      22.67082
2011    28      7       0.1275831       35.9102
2011    29      0       0.1974467       50.87818
2011    29      1       0.2307175       57.54478
2011    29      2       0.2629474       64.18511
2011    29      3       0.2765301       67.55839
2011    29      4       0.4121499       92.26157
2011    29      5       0.5144677       107.7072
2011    29      6       0.3991568       88.39821
2011    29      7       0.3498656       79.56726
2011    30      0       0.3559449       80.20284
2011    30      1       0.2410153       58.26379
2011    30      2       0.1463597       38.54127
2011    30      3       0.1781639       45.05589
2011    30      4       0.1064337       30.03517
2011    30      5       0.238799        57.65703
2011    30      6       0.2273274       55.25565
2011    30      7       0.2045934       50.76886
2012    1       0       0.2440582       62.51075
2012    1       1       0.1993984       53.07406
2012    1       2       0.1680712       46.13691
2012    1       3       0.1820409       49.12264
2012    1       4       0.1138382       33.28886
2012    1       5       0.1277906       36.56734
2012    1       6       0.184827        49.59202
2012    1       7       0.249005        63.11298
2012    2       0       0.2872884       70.59597
2012    2       1       0.3691111       85.2598
2012    2       2       0.4184023       93.46319
2012    2       3       0.4288172       95.38425
2012    2       4       0.3824557       87.27929
2012    2       5       0.323835        76.35493
2012    2       6       0.3334961       78.02097
2012    2       7       0.3396669       79.17264
2012    3       0       0.3240397       76.31526
2012    3       1       0.2380379       59.66693
2012    3       2       0.2338236       58.94526
2012    3       3       0.2746297       66.88759
2012    3       4       0.2745754       66.99921
2012    3       5       0.3385665       78.56346
2012    3       6       0.3355006       77.98048
2012    3       7       0.2959783       70.96386
2012    4       0       0.2925168       70.35694
2012    4       1       0.221381        56.43996
2012    4       2       0.2238254       56.85564
2012    4       3       0.2434473       60.69664
2012    4       4       0.2206464       56.07124
2012    4       5       0.1877932       49.35329
2012    4       6       0.1844289       48.82664
2012    4       7       0.2296175       58.25463
2012    5       0       0.2906518       69.92194
2012    5       1       0.2257863       57.66925
2012    5       2       0.1369338       38.64392
2012    5       3       0.1050242       31.04952
2012    5       4       0.1002563       29.80376
2012    5       5       0.08117017      25.08164
2012    5       6       0.1236199       35.01027
2012    5       7       0.2003878       51.33662
2012    6       0       0.2584821       62.91579
2012    6       1       0.2926716       69.61012
2012    6       2       0.288132        69.45543
2012    6       3       0.1745275       46.7722
2012    6       4       0.1040873       30.82075
2012    6       5       0.07518087      23.67527
2012    6       6       0.1036538       30.29566
2012    6       7       0.1076229       31.04275
2012    7       0       0.1277305       35.51334
2012    7       1       0.09407486      27.71633
2012    7       2       0.07674164      23.57707
2012    7       3       0.03874401      14.24686
2012    7       4       0.03642253      13.59696
2012    7       5       0.05453696      18.09307
2012    7       6       0.09260918      27.2692
2012    7       7       0.1074291       30.8095
2012    8       0       0.09970056      29.11198
2012    8       1       0.09801894      28.60481
2012    8       2       0.1046404       29.98968
2012    8       3       0.08353055      25.28135
2012    8       4       0.0690905       21.92392
2012    8       5       0.06624424      21.23766
2012    8       6       0.07620914      23.79365
2012    8       7       0.08705136      26.50215
2012    9       0       0.08859856      26.88917
2012    9       1       0.07881303      24.4875
2012    9       2       0.0798492       24.72608
2012    9       3       0.08097146      25.00192
2012    9       4       0.08721595      26.43236
2012    9       5       0.1057112       30.89344
2012    9       6       0.1319012       37.08326
2012    9       7       0.1749902       46.55683
2012    10      0       0.1870256       49.15808
2012    10      1       0.181024        47.92056
2012    10      2       0.173013        46.34109
2012    10      3       0.162015        44.10785
2012    10      4       0.1396435       39.08341
2012    10      5       0.1328332       37.47688
2012    10      6       0.1799805       47.92229
2012    10      7       0.2567711       63.4657
2012    11      0       0.3109939       73.87835
2012    11      1       0.3038351       72.90003
2012    11      2       0.2687924       66.58085
2012    11      3       0.2737925       67.60121
2012    11      4       0.3193918       76.37496
2012    11      5       0.3477936       81.05904
2012    11      6       0.437147        96.6046
2012    11      7       0.6062059       122.8395
2012    12      0       0.5118376       109.1664
2012    12      1       0.2535109       63.88951
2012    12      2       0.5624423       116.1767
2012    12      3       0.1082745       31.52553
2012    12      4       0.1234112       34.60824
2012    12      5       0.1585118       42.33796
2012    12      6       0.3455511       79.20762
2012    12      7       0.3706639       83.17007
2012    13      0       0.3290498       75.77826
2012    13      1       0.273182        65.36168
2012    13      2       0.2178215       54.57921
2012    13      3       0.2133528       53.62592
2012    13      4       0.2217509       55.128
2012    13      5       0.187721        48.23108
2012    13      6       0.134322        36.93454
2012    13      7       0.176188        45.75531
2012    14      0       0.2470274       60.12134
2012    14      1       0.362091        81.25341
2012    14      2       0.3666952       82.29871
2012    14      3       0.2817195       67.33212
2012    14      4       0.1607239       42.73232
2012    14      5       0.1457144       39.4372
2012    14      6       0.2325071       57.36574
2012    14      7       0.3360512       77.05126
2012    15      0       0.3412613       78.0847
2012    15      1       0.2843014       67.27786
2012    15      2       0.2465839       60.31046
2012    15      3       0.2233136       55.83493
2012    15      4       0.2701933       65.03227
2012    15      5       0.4077433       89.33299
2012    15      6       0.381046        84.42407
2012    15      7       0.3156608       73.0608
2012    16      0       0.3469309       78.5454
2012    16      1       0.2387536       58.22604
2012    16      2       0.2315312       56.90086
2012    16      3       0.1947362       49.41592
2012    16      4       0.1773825       45.86156
2012    16      5       0.227336        56.14104
2012    16      6       0.2585355       62.78351
2012    16      7       0.2496692       61.42582
2012    17      0       0.1737425       45.85485
2012    17      1       0.1599847       42.87345
2012    17      2       0.1820159       47.55337
2012    17      3       0.2275173       56.98009
2012    17      4       0.2343894       58.53216
2012    17      5       0.2290153       57.38514
2012    17      6       0.256255        62.75784
2012    17      7       0.3170122       74.45598
2012    18      0       0.2840935       68.49174
2012    18      1       0.2476405       61.76908
2012    18      2       0.2467404       61.65407
2012    18      3       0.2258382       57.43641
2012    18      4       0.2869422       69.12103
2012    18      5       0.2702132       65.40627
2012    18      6       0.3809628       86.43091
2012    18      7       0.5533775       113.8474
2012    19      0       0.4386816       96.44617
2012    19      1       0.47568         102.5486
2012    19      2       0.4523279       98.80719
2012    19      3       0.2813325       67.95476
2012    19      4       0.1991829       51.04313
2012    19      5       0.1880446       48.53382
2012    19      6       0.3147931       73.64701
2012    19      7       0.4790172       100.9325
2012    20      0       0.4362507       94.60663
2012    20      1       0.3306269       76.84573
2012    20      2       0.2921675       69.82112
2012    20      3       0.2555908       62.49156
2012    20      4       0.2170725       54.84088
2012    20      5       0.2308339       57.84769
2012    20      6       0.2924198       70.44958
2012    20      7       0.3915768       89.23411
2012    21      0       0.4351689       97.31393
2012    21      1       0.2941791       72.01185
2012    21      2       0.2077224       54.15697
2012    21      3       0.2014316       52.56998
2012    21      4       0.2434107       61.51477
2012    21      5       0.1854654       49.00442
2012    21      6       0.231175        58.97878
2012    21      7       0.2648418       66.08119
2012    22      0       0.3277222       78.23771
2012    22      1       0.3172794       76.26405
2012    22      2       0.3109862       74.9895
2012    22      3       0.2744396       67.98039
2012    22      4       0.2138954       55.45118
2012    22      5       0.1672877       45.16862
2012    22      6       0.2191621       56.37087
2012    22      7       0.2681625       66.43583
2012    23      0       0.2921443       71.22742
2012    23      1       0.2578293       64.56809
2012    23      2       0.2332492       59.62687
2012    23      3       0.225992        58.16698
2012    23      4       0.25808         64.72614
2012    23      5       0.2918752       71.43533
2012    23      6       0.3211214       77.19342
2012    23      7       0.3763069       87.23322
2012    24      0       0.3902934       89.69209
2012    24      1       0.3302652       78.92153
2012    24      2       0.325389        77.8753
2012    24      3       0.3288073       78.65452
2012    24      4       0.2356758       60.70459
2012    24      5       0.2602031       65.11555
2012    24      6       0.3426429       81.32158
2012    24      7       0.3824619       88.9381
2012    25      0       0.3795706       88.31331
2012    25      1       0.2241268       57.90492
2012    25      2       0.2782548       68.61662
2012    25      3       0.3613629       84.76749
2012    25      4       0.3626812       84.89272
2012    25      5       0.3364808       79.36031
2012    25      6       0.3948863       90.04261
2012    25      7       0.533062        112.4949
2012    26      0       0.5650421       117.0559
2012    26      1       0.5130337       108.9751
2012    26      2       0.5346747       112.5833
2012    26      3       0.4868334       105.975
2012    26      4       0.4259731       96.11063
2012    26      5       0.4274001       96.1712
2012    26      6       0.6749589       132.954
2012    26      7       0.7845897       147.5321
2012    27      0       0.6426384       128.8335
2012    27      1       0.5628425       116.7975
2012    27      2       0.392513        89.41608
2012    27      3       0.4859985       104.9206
2012    27      4       0.4346437       96.38939
2012    27      5       0.1972529       51.41167
2012    27      6       0.1518027       41.50267
2012    27      7       0.2079502       53.42172
2012    28      0       0.1926836       49.77127
2012    28      1       0.149156        39.96523
2012    28      2       0.1123961       31.7108
2012    28      3       0.1035426       29.65758
2012    28      4       0.1022628       29.38504
2012    28      5       0.1135504       32.00315
2012    28      6       0.1718748       44.86721
2012    28      7       0.1882856       48.4473
2012    29      0       0.1973834       50.32221
2012    29      1       0.1886354       48.42625
2012    29      2       0.1839094       47.52645
2012    29      3       0.1698068       44.56306
2012    29      4       0.1814956       46.97743
2012    29      5       0.1958883       49.93581
2012    29      6       0.2554008       62.00407
2012    29      7       0.2619383       63.663
2012    30      0       0.2428785       60.09013
2012    30      1       0.2261022       56.63402
2012    30      2       0.1926025       49.90035
2012    30      3       0.1530078       41.65613
2012    30      4       0.1459218       40.17108
2012    30      5       0.1255606       35.40454
2012    30      6       0.1627327       43.71303
2012    30      7       0.2088542       53.82997
2013    1       0       0.1447408       39.62394
2013    1       1       0.1375329       38.02236
2013    1       2       0.1490905       40.57461
2013    1       3       0.1393971       38.47326
2013    1       4       0.1411317       38.77632
2013    1       5       0.1756793       46.09864
2013    1       6       0.2805551       67.05168
2013    1       7       0.4299123       93.61125
2013    2       0       0.4600346       98.65352
2013    2       1       0.2963959       70.34307
2013    2       2       0.2523268       61.92747
2013    2       3       0.2480631       60.97477
2013    2       4       0.2913407       69.0334
2013    2       5       0.2605404       63.17753
2013    2       6       0.3813168       84.86602
2013    2       7       0.4158941       90.86772
2013    3       0       0.4722499       100.1955
2013    3       1       0.317326        73.90943
2013    3       2       0.2404158       59.20122
2013    3       3       0.1841143       47.75819
2013    3       4       0.1098678       31.47891
2013    3       5       0.09679032      28.48769
2013    3       6       0.1402282       38.4636
2013    3       7       0.1828289       47.80138
2013    4       0       0.3059091       71.90154
2013    4       1       0.2968469       70.368
2013    4       2       0.2423777       60.02827
2013    4       3       0.2106513       53.87941
2013    4       4       0.1737812       46.09668
2013    4       5       0.1581645       42.56818
2013    4       6       0.2223671       56.18734
2013    4       7       0.2497928       61.94567
2013    5       0       0.2344528       59.00668
2013    5       1       0.2238544       56.52759
2013    5       2       0.2281428       57.34834
2013    5       3       0.2804158       67.79682
2013    5       4       0.2516795       62.0336
2013    5       5       0.375219        84.99145
2013    5       6       0.4940702       105.0664
2013    5       7       0.4841653       103.6185
2013    6       0       0.4606038       99.65702
2013    6       1       0.1854493       48.79537
2013    6       2       0.1300926       36.33315
2013    6       3       0.1044091       30.40211
2013    6       4       0.0943079       27.98321
2013    6       5       0.1286815       35.55063
2013    6       6       0.2332527       57.58249
2013    6       7       0.380116        85.03828
2013    7       0       0.3984852       88.37401
2013    7       1       0.3764874       84.90044
2013    7       2       0.4909061       103.6936
2013    7       3       0.261336        63.53129
2013    7       4       0.2258839       56.848
2013    7       5       0.2359238       58.78919
2013    7       6       0.4510335       97.02602
2013    7       7       0.3249323       76.21712
2013    8       0       0.4052006       90.28773
2013    8       1       0.2953982       70.64352
2013    8       2       0.2006168       51.75544
2013    8       3       0.2095307       53.43097
2013    8       4       0.2055156       52.61728
2013    8       5       0.2480186       61.32503
2013    8       6       0.3712273       83.90144
2013    8       7       0.4305506       94.31118
2013    9       0       0.5154623       108.211
2013    9       1       0.5393732       111.8848
2013    9       2       0.3546234       81.5926
2013    9       3       0.3266762       75.90624
2013    9       4       0.1825672       47.57115
2013    9       5       0.230369        57.27156
2013    9       6       0.2959738       69.95212
2013    9       7       0.3092308       71.59515
2013    10      0       0.3673382       81.57315
2013    10      1       0.3116258       71.39377
2013    10      2       0.22861         55.86473
2013    10      3       0.1791518       46.16667
2013    10      4       0.1955625       49.44555
2013    10      5       0.2270925       55.82447
2013    10      6       0.2172688       54.17006
2013    10      7       0.2499287       60.67701
2013    11      0       0.1731544       45.20531
2013    11      1       0.08380873      25.2978
2013    11      2       0.2169388       54.56541
2013    11      3       0.3678342       82.92298
2013    11      4       0.3662717       83.10417
2013    11      5       0.3877625       87.06504
2013    11      6       0.3418422       78.83198
2013    11      7       0.3289239       76.51868
2013    12      0       0.2345063       58.53208
2013    12      1       0.1694776       44.6452
2013    12      2       0.2083377       52.67769
2013    12      3       0.2180582       54.45135
2013    12      4       0.2461832       59.73875
2013    12      5       0.2064153       52.12976
2013    12      6       0.2915483       69.00068
2013    12      7       0.2321966       57.68052
2013    13      0       0.1648704       43.64812
2013    13      1       0.1203577       33.78077
2013    13      2       0.1440172       39.17321
2013    13      3       0.1380156       37.83917
2013    13      4       0.1322044       36.36279
2013    13      5       0.2169762       54.571
2013    13      6       0.244829        60.2802
2013    13      7       0.2972582       70.50558
2013    14      0       0.374627        85.03657
2013    14      1       0.487594        103.4153
2013    14      2       0.1676033       44.0122
2013    14      3       0.06444841      20.51118
2013    14      4       0.08808739      26.05547
2013    14      5       0.1920997       48.0346
2013    14      6       0.149007        38.9752
2013    14      7       0.1378122       36.75936
2013    15      0       0.1194783       32.88261
2013    15      1       0.1636387       42.41093
2013    15      2       0.2183773       53.95732
2013    15      3       0.3646085       81.47752
2013    15      4       0.432081        93.09591
2013    15      5       0.4250562       92.17569
2013    15      6       0.4013627       88.31326
2013    15      7       0.3555552       80.35493
2013    16      0       0.4188292       91.09525
2013    16      1       0.4449046       95.4894
2013    16      2       0.4692941       99.8948
2013    16      3       0.4156385       91.83052
2013    16      4       0.3858236       86.9314
2013    16      5       0.384516        86.00072
2013    16      6       0.413651        91.49064
2013    16      7       0.4678428       100.3925
2013    17      0       0.5014946       105.2506
2013    17      1       0.4751247       100.6983
2013    17      2       0.41145         90.70504
2013    17      3       0.3335045       77.13686
2013    17      4       0.3047689       71.46768
2013    17      5       0.3191785       73.66296
2013    17      6       0.3870581       85.40609
2013    17      7       0.3262521       74.02412
2013    18      0       0.2471397       58.97673
2013    18      1       0.1862738       46.83642
2013    18      2       0.1837244       46.03951
2013    18      3       0.1477361       38.46671
2013    18      4       0.117772        31.97763
2013    18      5       0.1265701       34.01433
2013    18      6       0.1641419       42.22979
2013    18      7       0.165899        42.87214
2013    19      0       0.1396174       37.27661
2013    19      1       0.1233938       33.72859
2013    19      2       0.1505011       39.92441
2013    19      3       0.1415528       38.06872
2013    19      4       0.147308        39.37512
2013    19      5       0.1698575       44.088
2013    19      6       0.2288917       56.47353
2013    19      7       0.2761358       65.92984
2013    20      0       0.2624247       63.40725
2013    20      1       0.2761864       66.08411
2013    20      2       0.2863335       67.86924
2013    20      3       0.302546        71.13251
2013    20      4       0.3245449       75.30217
2013    20      5       0.2876087       68.28829
2013    20      6       0.386337        86.12492
2013    20      7       0.4277958       92.88714
2013    21      0       0.4987333       103.99
2013    21      1       0.294111        69.62042
2013    21      2       0.2772253       66.53701
2013    21      3       0.2072563       52.66865
2013    21      4       0.1781356       46.57814
2013    21      5       0.1616202       43.05436
2013    21      6       0.2787719       67.14081
2013    21      7       0.2885889       68.54475
2013    22      0       0.2796506       66.39742
2013    22      1       0.2507875       61.19727
2013    22      2       0.3428744       78.49502
2013    22      3       0.429016        93.15349
2013    22      4       0.298605        70.31291
2013    22      5       0.286694        68.25171
2013    22      6       0.3595457       81.26337
2013    22      7       0.358618        81.03063
2013    23      0       0.375416        83.50792
2013    23      1       0.3111773       71.67478
2013    23      2       0.2208493       54.60597
2013    23      3       0.2169336       53.90862
2013    23      4       0.2359832       57.42164
2013    23      5       0.206675        51.31888
2013    23      6       0.1577431       41.2374
2013    23      7       0.1750274       44.84395
2013    24      0       0.136893        36.76167
2013    24      1       0.09638621      27.68143
2013    24      2       0.1005575       28.5601
2013    24      3       0.1238087       33.65484
2013    24      4       0.1441598       38.0965
2013    24      5       0.1163048       32.14448
2013    24      6       0.1430243       38.21844
2013    24      7       0.1213799       33.87609
2013    25      0       0.1112252       31.65486
2013    25      1       0.07369347      22.96023
2013    25      2       0.05816277      19.14989
2013    25      3       0.04752472      16.49914
2013    25      4       0.04000772      14.59352
2013    25      5       0.04016862      14.54785
2013    25      6       0.1096776       31.16067
2013    25      7       0.1724291       45.25962
2013    26      0       0.1714476       45.13917
2013    26      1       0.1286916       35.71261
2013    26      2       0.121258        34.04032
2013    26      3       0.1122934       32.08789
2013    26      4       0.1152669       32.73611
2013    26      5       0.1310338       36.26537
2013    26      6       0.1617614       43.1579
2013    26      7       0.1946896       50.2581
2013    27      0       0.2244711       56.49265
2013    27      1       0.2099625       53.68908
2013    27      2       0.1627837       43.80698
2013    27      3       0.1508447       41.2035
2013    27      4       0.1451321       40.04023
2013    27      5       0.1285438       36.34219
2013    27      6       0.149262        41.08324
2013    27      7       0.1853321       48.95058
2013    28      0       0.1866033       49.48221
2013    28      1       0.1613912       43.95528
2013    28      2       0.2133508       55.28692
2013    28      3       0.2447267       61.71105
2013    28      4       0.2637755       65.29658
2013    28      5       0.2669066       65.80097
2013    28      6       0.2864201       69.65043
2013    28      7       0.3441082       80.67608
2013    29      0       0.4334811       96.06638
2013    29      1       0.5841441       118.9491
2013    29      2       0.3900309       88.48541
2013    29      3       0.3381293       79.8512
2013    29      4       0.2445327       62.10141
2013    29      5       0.1344703       37.3816
2013    29      6       0.2440605       61.50302
2013    29      7       0.2852588       70.30385
2013    30      0       0.3247111       77.68271
2013    30      1       0.417825        94.10681
2013    30      2       0.4187609       94.28517
2013    30      3       0.5051621       108.5224
2013    30      4       0.4908538       106.1961
2013    30      5       0.4546862       100.2391
2013    30      6       0.6233805       125.224
2013    30      7       0.6819798       132.9657
2014    1       0       0.1885427       48.19183
2014    1       1       0.1655984       42.99683
2014    1       2       0.2587444       61.79036
2014    1       3       0.3672224       81.82464
2014    1       4       0.3134469       72.67929
2014    1       5       0.2426195       59.31647
2014    1       6       0.2287514       56.84534
2014    1       7       0.2904882       68.67508
2014    2       0       0.3076013       71.59623
2014    2       1       0.2872483       67.92851
2014    2       2       0.3252704       74.94954
2014    2       3       0.236734        58.30227
2014    2       4       0.1720813       44.97468
2014    2       5       0.1390618       37.71729
2014    2       6       0.1979481       49.93895
2014    2       7       0.2430174       59.17268
2014    3       0       0.2631502       63.1503
2014    3       1       0.2432229       59.15773
2014    3       2       0.2507243       60.47743
2014    3       3       0.3032209       70.14295
2014    3       4       0.2519635       60.32519
2014    3       5       0.1870729       47.51804
2014    3       6       0.2945368       68.62043
2014    3       7       0.2869473       66.97715
2014    4       0       0.283422        66.67767
2014    4       1       0.1839904       47.02075
2014    4       2       0.1563704       41.24472
2014    4       3       0.1403851       37.88133
2014    4       4       0.1474167       39.37852
2014    4       5       0.1376656       37.23742
2014    4       6       0.1985975       50.18637
2014    4       7       0.3131149       72.24394
2014    5       0       0.3075112       70.87414
2014    5       1       0.2180626       54.18247
2014    5       2       0.2115109       52.93461
2014    5       3       0.2412865       58.85381
2014    5       4       0.267032        63.92041
2014    5       5       0.2981172       69.73839
2014    5       6       0.3343198       76.53654
2014    5       7       0.3394863       77.76904
2014    6       0       0.3944771       87.17343
2014    6       1       0.3945385       87.15532
2014    6       2       0.3018203       70.64808
2014    6       3       0.2207135       54.9581
2014    6       4       0.163157        43.04859
2014    6       5       0.2082975       52.32898
2014    6       6       0.3111213       71.93252
2014    6       7       0.322666        73.98795
2014    7       0       0.2176853       54.13178
2014    7       1       0.3035103       70.8603
2014    7       2       0.2459277       59.75481
2014    7       3       0.3629834       80.16799
2014    7       4       0.2833153       66.74295
2014    7       5       0.2493593       60.20067
2014    7       6       0.2374134       58.09951
2014    7       7       0.2537863       61.44214
2014    8       0       0.2568395       62.39365
2014    8       1       0.2263042       56.66875
2014    8       2       0.2207832       55.68609
2014    8       3       0.2096133       53.46708
2014    8       4       0.2146493       54.54041
2014    8       5       0.1797512       47.28439
2014    8       6       0.1776397       46.96236
2014    8       7       0.2043966       52.83638
2014    9       0       0.1983655       51.76553
2014    9       1       0.1651464       44.65571
2014    9       2       0.1561253       42.52333
2014    9       3       0.1940363       50.79453
2014    9       4       0.140497        38.81677
2014    9       5       0.2003612       52.05619
2014    9       6       0.2696157       66.18364
2014    9       7       0.3263874       77.02419
2014    10      0       0.3662086       84.29668
2014    10      1       0.357271        82.62181
2014    10      2       0.3067199       73.23117
2014    10      3       0.3084835       73.24776
2014    10      4       0.3486953       80.60803
2014    10      5       0.1579281       42.75804
2014    10      6       0.2096445       53.71064
2014    10      7       0.3194776       75.17538
2014    11      0       0.2921207       70.27974
2014    11      1       0.2297103       57.76986
2014    11      2       0.2048022       52.66974
2014    11      3       0.1807459       47.57777
2014    11      4       0.1950545       50.4967
2014    11      5       0.2093342       53.87535
2014    11      6       0.2084931       54.1804
2014    11      7       0.2300967       58.90719
2014    12      0       0.2392077       60.75862
2014    12      1       0.268363        66.40653
2014    12      2       0.2988451       72.25684
2014    12      3       0.2724046       66.40628
2014    12      4       0.2402006       60.23895
2014    12      5       0.2488242       61.90074
2014    12      6       0.4282702       94.42538
2014    12      7       0.3654992       83.84016
2014    13      0       0.3716944       85.24519
2014    13      1       0.5271336       110.7603
2014    13      2       0.5314205       111.3247
2014    13      3       0.4898733       103.7901
2014    13      4       0.3760267       84.78339
2014    13      5       0.4482017       96.67342
2014    13      6       0.4303995       93.34522
2014    13      7       0.410375        89.22725
2014    14      0       0.3554818       79.24586
2014    14      1       0.2648639       62.33129
2014    14      2       0.2056725       50.7041
2014    14      3       0.1527736       39.85532
2014    14      4       0.07950909      23.81113
2014    14      5       0.05761305      18.51382
2014    14      6       0.09094554      26.34894
2014    14      7       0.1218402       33.49341
2014    15      0       0.130692        35.68569
2014    15      1       0.1312761       35.87774
2014    15      2       0.1645026       43.38174
2014    15      3       0.16421         43.43164
2014    15      4       0.149285        40.24324
2014    15      5       0.1585487       42.14053
2014    15      6       0.2418533       59.25925
2014    15      7       0.2267976       56.9264
2014    16      0       0.2039887       52.11128
2014    16      1       0.3256513       75.96062
2014    16      2       0.3980038       88.17359
2014    16      3       0.2637394       63.85332
2014    16      4       0.3422179       78.71078
2014    16      5       0.2605319       63.07908
2014    16      6       0.2929265       68.97223
2014    16      7       0.3120669       72.57237
2014    17      0       0.274004        65.64987
2014    17      1       0.2309829       57.13224
2014    17      2       0.2235112       55.49122
2014    17      3       0.1996406       50.58803
2014    17      4       0.1855873       47.88604
2014    17      5       0.1689085       44.46894
2014    17      6       0.2197571       55.32303
2014    17      7       0.2548978       62.83092
2014    18      0       0.2680743       65.67238
2014    18      1       0.2508746       62.3892
2014    18      2       0.2558759       63.86442
2014    18      3       0.2361921       60.29919
2014    18      4       0.2443719       61.95799
2014    18      5       0.2680185       66.60604
2014    18      6       0.2812529       69.33835
2014    18      7       0.4069574       91.97175
2014    19      0       0.3303312       78.30141
2014    19      1       0.2740425       67.01092
2014    19      2       0.2582309       63.88892
2014    19      3       0.3493919       80.96295
2014    19      4       0.4286223       94.6482
2014    19      5       0.5342277       111.0593
2014    19      6       0.5598458       115.4104
2014    19      7       0.6350964       126.114
2014    20      0       0.6192416       124.1489
2014    20      1       0.4163165       92.90204
2014    20      2       0.3471543       80.85306
2014    20      3       0.3202599       76.18194
2014    20      4       0.305999        73.49386
2014    20      5       0.2873933       69.75983
2014    20      6       0.4233481       93.59713
2014    20      7       0.6190911       122.6773
2014    21      0       0.4605496       99.70926
2014    21      1       0.3381756       79.58379
2014    21      2       0.3192564       76.07408
2014    21      3       0.3324825       78.34027
2014    21      4       0.3199541       75.95456
2014    21      5       0.2717748       66.93327
2014    21      6       0.4093623       91.64037
2014    21      7       0.5227621       109.8955
2014    22      0       0.3803239       87.02224
2014    22      1       0.2395985       60.44697
2014    22      2       0.247174        61.88772
2014    22      3       0.3251462       77.45483
2014    22      4       0.4714073       103.0561
2014    22      5       0.4495122       99.79668
2014    22      6       0.4970803       107.0268
2014    22      7       0.6741894       132.0706
2014    23      0       0.4745606       103.3278
2014    23      1       0.3607388       84.42447
2014    23      2       0.6137914       124.4772
2014    23      3       0.3973367       90.27972
2014    23      4       0.3312451       78.214
2014    23      5       0.2356189       59.32083
2014    23      6       0.2398482       59.67864
2014    23      7       0.3219237       75.01741
2014    24      0       0.250955        60.91676
2014    24      1       0.1310488       35.84929
2014    24      2       0.08519394      25.63344
2014    24      3       0.08519943      25.48685
2014    24      4       0.08588372      25.71305
2014    24      5       0.1035213       29.73289
2014    24      6       0.1747488       45.70851
2014    24      7       0.2448991       60.32695
2014    25      0       0.2437839       60.54706
2014    25      1       0.2379223       59.2853
2014    25      2       0.2614565       63.96271
2014    25      3       0.2500764       61.81696
2014    25      4       0.2312665       57.95996
2014    25      5       0.2717516       65.52834
2014    25      6       0.312341        73.24182
2014    25      7       0.3278019       76.76468
2014    26      0       0.3252607       76.29782
2014    26      1       0.3085301       72.86045
2014    26      2       0.2719551       66.65973
2014    26      3       0.3408529       79.99855
2014    26      4       0.272418        67.11969
2014    26      5       0.3171734       75.58987
2014    26      6       0.4529671       99.38228
2014    26      7       0.6031787       121.4427
2014    27      0       0.3624378       83.45794
2014    27      1       0.4300106       94.65449
2014    27      2       0.4318865       94.39936
2014    27      3       0.343591        78.69964
2014    27      4       0.2995268       70.58531
2014    27      5       0.3058927       71.62648
2014    27      6       0.4280375       92.9851
2014    27      7       0.409676        89.79312
2014    28      0       0.4214564       91.68488
2014    28      1       0.322869        74.61884
2014    28      2       0.2486288       60.52427
2014    28      3       0.1862455       47.76867
2014    28      4       0.1150324       32.07329
2014    28      5       0.1254125       34.43407
2014    28      6       0.2964372       68.46156
2014    28      7       0.3293089       74.47744
2014    29      0       0.3115377       71.48829
2014    29      1       0.2644753       62.94927
2014    29      2       0.2366497       57.6171
2014    29      3       0.2623293       62.67989
2014    29      4       0.2401346       58.41453
2014    29      5       0.3354154       76.27063
2014    29      6       0.372728        82.68082
2014    29      7       0.4119501       89.31641
2014    30      0       0.3847785       84.84639
2014    30      1       0.335902        76.50622
2014    30      2       0.3545776       80.2676
2014    30      3       0.2736439       65.73606
2014    30      4       0.1734028       45.28963
2014    30      5       0.212258        53.38677
2014    30      6       0.2451237       59.91694
2014    30      7       0.2586594       62.65424
2015    1       0       0.2688433       66.22667
2015    1       1       0.3184894       75.90294
2015    1       2       0.262378        64.9022
2015    1       3       0.2776524       67.84481
2015    1       4       0.2672407       66.1279
2015    1       5       0.3131474       74.77245
2015    1       6       0.3414746       79.26279
2015    1       7       0.2873713       68.81968
2015    2       0       0.1921174       49.65705
2015    2       1       0.1161217       32.77635
2015    2       2       0.1141869       31.98682
2015    2       3       0.1876872       47.41452
2015    2       4       0.2803214       66.0352
2015    2       5       0.3374295       77.08401
2015    2       6       0.3527377       79.81177
2015    2       7       0.3399285       77.42908
2015    3       0       0.3462079       78.08485
2015    3       1       0.29904         69.21399
2015    3       2       0.2600187       61.7989
2015    3       3       0.2209074       54.05927
2015    3       4       0.202301        50.17314
2015    3       5       0.1782187       45.42998
2015    3       6       0.1503941       39.8726
2015    3       7       0.08994972      26.52059
2015    4       0       0.08039054      24.35238
2015    4       1       0.05842395      19.09653
2015    4       2       0.06508902      20.6791
2015    4       3       0.07526261      23.11689
2015    4       4       0.06240138      20.00531
2015    4       5       0.0557173       18.35105
2015    4       6       0.07475639      23.18613
2015    4       7       0.1030397       29.9952
2015    5       0       0.1096042       31.49447
2015    5       1       0.1089          31.21205
2015    5       2       0.1106232       31.61599
2015    5       3       0.1287199       35.72531
2015    5       4       0.1335183       36.8247
2015    5       5       0.1222689       34.32039
2015    5       6       0.134093        37.06751
2015    5       7       0.1590431       42.83756
2015    6       0       0.1552065       42.10088
2015    6       1       0.1467487       40.13119
2015    6       2       0.1341773       37.31734
2015    6       3       0.1303766       36.52157
2015    6       4       0.110119        31.84442
2015    6       5       0.08478942      25.83223
2015    6       6       0.1248417       35.32853
2015    6       7       0.1635324       43.97013
2015    7       0       0.1698269       45.24098
2015    7       1       0.1597683       42.89144
2015    7       2       0.210506        53.25078
2015    7       3       0.1744324       46.11672
2015    7       4       0.1396554       38.26422
2015    7       5       0.1206454       34.01387
2015    7       6       0.1436125       39.16487
2015    7       7       0.1618072       43.16154
2015    8       0       0.1843407       48.17425
2015    8       1       0.173979        45.95705
2015    8       2       0.195513        50.46229
2015    8       3       0.1531498       41.41093
2015    8       4       0.1102752       31.72883
2015    8       5       0.1165823       33.14469
2015    8       6       0.2022569       51.64978
2015    8       7       0.3159607       73.77706
2015    9       0       0.2981918       70.21645
2015    9       1       0.1901419       48.66451
2015    9       2       0.2362022       57.92398
2015    9       3       0.2921969       68.50246
2015    9       4       0.2237579       55.46485
2015    9       5       0.1843986       47.55652
2015    9       6       0.1057549       30.3835
2015    9       7       0.1095287       31.33051
2015    10      0       0.1285112       35.60856
2015    10      1       0.1345279       36.91483
2015    10      2       0.1168482       32.89585
2015    10      3       0.1091371       30.99416
2015    10      4       0.1171712       32.83146
2015    10      5       0.125259        34.63918
2015    10      6       0.1770371       45.94099
2015    10      7       0.2428718       59.46638
2015    11      0       0.2586385       62.65095
2015    11      1       0.1816895       47.34466
2015    11      2       0.1367151       37.66646
2015    11      3       0.1306483       36.28873
2015    11      4       0.1474321       40.03042
2015    11      5       0.1615586       42.95774
2015    11      6       0.1966818       50.57827
2015    11      7       0.217629        55.16596
2015    12      0       0.2126819       54.19261
2015    12      1       0.1908045       49.47292
2015    12      2       0.1913474       49.47042
2015    12      3       0.2504742       61.46608
2015    12      4       0.3142001       73.73108
2015    12      5       0.3737912       84.01197
2015    12      6       0.09304349      27.5582
2015    12      7       0.1067575       30.74632
2015    13      0       0.1030858       29.95315
2015    13      1       0.1026042       29.83611
2015    13      2       0.1064982       30.71546
2015    13      3       0.1250413       35.054
2015    13      4       0.1426912       39.20294
2015    13      5       0.154968        41.88752
2015    13      6       0.1728211       45.85836
2015    13      7       0.1983292       51.51911
2015    14      0       0.2165099       55.35474
2015    14      1       0.195096        50.91951
2015    14      2       0.1496368       41.02244
2015    14      3       0.1387727       38.49133
2015    14      4       0.1281988       36.06726
2015    14      5       0.1498794       40.82153
2015    14      6       0.1689924       45.30275
2015    14      7       0.221896        56.50539
2015    15      0       0.2499284       62.11593
2015    15      1       0.2171442       55.52573
2015    15      2       0.2577101       63.80493
2015    15      3       0.2567002       63.31499
2015    15      4       0.1060072       30.68481
2015    15      5       0.1298988       36.33233
2015    15      6       0.3109575       72.66583
2015    15      7       0.3894158       86.17539
2015    16      0       0.4063233       88.81584
2015    16      1       0.2409666       59.1801
2015    16      2       0.22453         56.15741
2015    16      3       0.2205303       55.434
2015    16      4       0.2765323       65.98734
2015    16      5       0.2657898       63.96524
2015    16      6       0.4159956       90.76219
2015    16      7       0.4407474       95.26257
2015    17      0       0.3465113       80.09983
2015    17      1       0.3196168       74.64965
2015    17      2       0.3464636       79.12443
2015    17      3       0.3064541       71.88078
2015    17      4       0.4168863       91.76368
2015    17      5       0.3205982       75.60483
2015    17      6       0.28522         68.69382
2015    17      7       0.4640346       99.08255
2015    18      0       0.3764759       84.87055
2015    18      1       0.1369574       37.6077
2015    18      2       0.1220113       33.80868
2015    18      3       0.1615204       42.35561
2015    18      4       0.1625643       42.6235
2015    18      5       0.1852653       47.59301
2015    18      6       0.2579259       62.2318
2015    18      7       0.3292569       75.36098
2015    19      0       0.3847488       85.39452
2015    19      1       0.2929158       69.41781
2015    19      2       0.4053165       89.37819
2015    19      3       0.1878963       48.44428
2015    19      4       0.09808435      28.54163
2015    19      5       0.118006        33.02535
2015    19      6       0.1719293       44.88823
2015    19      7       0.2499817       60.9659
2015    20      0       0.297569        70.03992
2015    20      1       0.3190376       73.98623
2015    20      2       0.3761119       84.44832
2015    20      3       0.34198         78.7075
2015    20      4       0.2695225       65.17462
2015    20      5       0.155203        41.65346
2015    20      6       0.2209542       55.57155
2015    20      7       0.2760066       66.37238
2015    21      0       0.2527485       61.80867
2015    21      1       0.2287805       56.98964
2015    21      2       0.2543541       62.16674
2015    21      3       0.2295223       57.45512
2015    21      4       0.2062614       52.82905
2015    21      5       0.2279378       57.17701
2015    21      6       0.3025061       71.59764
2015    21      7       0.3729576       84.49979
2015    22      0       0.331301        77.38077
2015    22      1       0.2772373       67.45552
2015    22      2       0.2593366       63.96322
2015    22      3       0.2747773       66.98729
2015    22      4       0.2597394       64.24097
2015    22      5       0.2376726       59.88101
2015    22      6       0.2974896       71.48307
2015    22      7       0.3578105       82.54892
2015    23      0       0.424143        94.18624
2015    23      1       0.394799        89.37801
2015    23      2       0.4610895       100.3482
2015    23      3       0.4902574       104.9651
2015    23      4       0.3540642       82.32252
2015    23      5       0.3598357       83.10669
2015    23      6       0.3567446       82.19097
2015    23      7       0.4417584       96.43198
2015    24      0       0.3692357       84.71793
2015    24      1       0.2752486       67.29391
2015    24      2       0.2718992       66.71279
2015    24      3       0.2860716       69.27273
2015    24      4       0.3052171       72.50388
2015    24      5       0.270739        65.72509
2015    24      6       0.3538609       81.10857
2015    24      7       0.4062937       90.4014
2015    25      0       0.4786832       102.6548
2015    25      1       0.4445573       97.36169
2015    25      2       0.3385085       79.14552
2015    25      3       0.2589562       64.06567
2015    25      4       0.271247        66.51482
2015    25      5       0.3547893       82.17589
2015    25      6       0.5200807       108.9649
2015    25      7       0.5249945       109.6885
2015    26      0       0.549182        113.4715
2015    26      1       0.5320316       111.0253
2015    26      2       0.4744163       102.1513
2015    26      3       0.3790372       86.38263
2015    26      4       0.2926337       70.34437
2015    26      5       0.3764424       85.20449
2015    26      6       0.5590116       114.445
2015    26      7       0.5709271       116.0551
2015    27      0       0.5243643       109.9367
2015    27      1       0.3929244       88.65176
2015    27      2       0.3323426       77.80972
2015    27      3       0.2890074       69.55442
2015    27      4       0.317421        74.77696
2015    27      5       0.3177677       74.85108
2015    27      6       0.4089497       91.2317
2015    27      7       0.5773758       116.9929
2015    28      0       0.5258253       109.8384
2015    28      1       0.3655236       83.66554
2015    28      2       0.2855657       69.05272
2015    28      3       0.2111618       54.32198
2015    28      4       0.1812183       47.89545
2015    28      5       0.138506        38.45094
2015    28      6       0.1576375       42.87496
2015    28      7       0.2011698       52.44211
2015    29      0       0.2398742       60.53914
2015    29      1       0.1912859       50.34745
2015    29      2       0.1430411       39.50483
2015    29      3       0.1277096       35.94697
2015    29      4       0.1359168       38.02308
2015    29      5       0.1465368       40.506
2015    29      6       0.1788636       47.7987
2015    29      7       0.2311544       59.19009
2015    30      0       0.270602        67.38146
2015    30      1       0.2447025       62.13549
2015    30      2       0.2549464       64.26437
2015    30      3       0.3181652       76.4644
2015    30      4       0.3663373       85.06139
2015    30      5       0.3465527       81.63152
2015    30      6       0.4839427       104.3247
2015    30      7       0.5424892       113.8976
2016    1       0       0.1328727       36.10523
2016    1       1       0.142249        37.92707
2016    1       2       0.1900321       47.91252
2016    1       3       0.1479971       39.09099
2016    1       4       0.1294033       35.00215
2016    1       5       0.1440486       38.33474
2016    1       6       0.2304176       56.67639
2016    1       7       0.2778968       66.35167
2016    2       0       0.2252039       56.12576
2016    2       1       0.1935554       49.81212
2016    2       2       0.2167059       54.74934
2016    2       3       0.2070367       52.83735
2016    2       4       0.1658401       44.11416
2016    2       5       0.1294065       36.01422
2016    2       6       0.1231709       34.64568
2016    2       7       0.1391059       38.39624
2016    3       0       0.129718        36.38286
2016    3       1       0.1108355       32.13471
2016    3       2       0.1376869       38.30107
2016    3       3       0.1440829       39.74472
2016    3       4       0.1254854       35.49378
2016    3       5       0.1592506       43.1025
2016    3       6       0.1846602       48.70467
2016    3       7       0.2424898       60.66882
2016    4       0       0.2951525       70.88694
2016    4       1       0.388148        87.51997
2016    4       2       0.3637244       83.23661
2016    4       3       0.3065146       72.82314
2016    4       4       0.2472501       61.34752
2016    4       5       0.2092306       53.68349
2016    4       6       0.3308406       77.66592
2016    4       7       0.3737233       85.34064
2016    5       0       0.3554357       81.96443
2016    5       1       0.350486        81.29456
2016    5       2       0.3372276       78.4837
2016    5       3       0.2990943       71.44283
2016    5       4       0.3911573       87.6877
2016    5       5       0.1943514       50.00187
2016    5       6       0.2708423       64.75985
2016    5       7       0.1224083       33.7383
2016    6       0       0.1409222       37.77889
2016    6       1       0.1245513       34.69508
2016    6       2       0.09913369      28.88123
2016    6       3       0.1144537       32.47326
2016    6       4       0.1627929       43.5255
2016    6       5       0.1651091       44.35643
2016    6       6       0.1513974       41.50223
2016    6       7       0.1788953       47.78932
2016    7       0       0.2272543       57.81617
2016    7       1       0.2059023       53.04748
2016    7       2       0.1659446       44.53787
2016    7       3       0.1663716       44.69552
2016    7       4       0.1247462       35.07752
2016    7       5       0.1255998       35.05354
2016    7       6       0.1778402       46.89966
2016    7       7       0.1991726       51.63552
2016    8       0       0.1872942       49.28068
2016    8       1       0.1513707       41.41614
2016    8       2       0.1150371       33.06591
2016    8       3       0.09886625      29.30337
2016    8       4       0.09077255      27.29583
2016    8       5       0.09722203      28.6641
2016    8       6       0.136882        37.96249
2016    8       7       0.1621056       43.76525
2016    9       0       0.1775865       47.36585
2016    9       1       0.1821756       48.55073
2016    9       2       0.2573767       64.42017
2016    9       3       0.2844174       69.94846
2016    9       4       0.290286        70.88987
2016    9       5       0.3479565       81.22416
2016    9       6       0.4459387       98.13112
2016    9       7       0.5624579       116.3625
2016    10      0       0.5593743       115.7943
2016    10      1       0.3586081       82.85112
2016    10      2       0.3419641       79.87099
2016    10      3       0.3388532       79.1764
2016    10      4       0.3053587       72.8853
2016    10      5       0.3416062       79.47915
2016    10      6       0.4622857       100.3692
2016    10      7       0.5225795       109.1866
2016    11      0       0.5725717       116.3279
2016    11      1       0.4276468       93.96471
2016    11      2       0.3064247       72.54038
2016    11      3       0.2840586       68.42018
2016    11      4       0.2614259       64.0651
2016    11      5       0.207276        53.1538
2016    11      6       0.2867026       69.08666
2016    11      7       0.4295351       94.40367
2016    12      0       0.4410935       96.56685
2016    12      1       0.3520798       81.64606
2016    12      2       0.2895474       70.02222
2016    12      3       0.2582301       63.82811
2016    12      4       0.2515836       62.38564
2016    12      5       0.3003982       71.70869
2016    12      6       0.546212        112.6358
2016    12      7       0.4571961       99.45862
2016    13      0       0.4131036       92.32672
2016    13      1       0.3273298       77.12867
2016    13      2       0.3042614       72.88709
2016    13      3       0.3002038       72.19887
2016    13      4       0.2557393       63.50072
2016    13      5       0.2623564       64.8639
2016    13      6       0.4126251       92.25919
2016    13      7       0.462164        100.5961
2016    14      0       0.4629784       100.8053
2016    14      1       0.4020503       90.63522
2016    14      2       0.3937138       89.15358
2016    14      3       0.4232386       93.9282
2016    14      4       0.3401603       79.68319
2016    14      5       0.2973961       72.16715
2016    14      6       0.4755418       103.1222
2016    14      7       0.5957258       120.3558
2016    15      0       0.5102309       108.2809
2016    15      1       0.3924117       89.78815
2016    15      2       0.4601294       100.3647
2016    15      3       0.2462346       60.99176
2016    15      4       0.1755346       46.20329
2016    15      5       0.2645933       63.89396
2016    15      6       0.4045823       89.04473
2016    15      7       0.4437143       95.8694
2016    16      0       0.4541042       97.46355
2016    16      1       0.3018502       71.29527
2016    16      2       0.3289224       76.07905
2016    16      3       0.3374251       77.79475
2016    16      4       0.3084653       72.43048
2016    16      5       0.294467        69.79164
2016    16      6       0.3402451       78.19064
2016    16      7       0.4251618       92.36126
2016    17      0       0.3635902       81.70202
2016    17      1       0.375625        83.65724
2016    17      2       0.3362057       77.28889
2016    17      3       0.3845029       85.58292
2016    17      4       0.3901625       86.13285
2016    17      5       0.3618622       80.97398
2016    17      6       0.3423501       77.73471
2016    17      7       0.3560427       80.00125
2016    18      0       0.3004668       70.13764
2016    18      1       0.2209355       54.78395
2016    18      2       0.1744392       45.27442
2016    18      3       0.1514165       40.29467
2016    18      4       0.1649148       43.03765
2016    18      5       0.1778106       45.67648
2016    18      6       0.2279364       56.25147
2016    18      7       0.2588743       62.66611
2016    19      0       0.2714498       65.24161
2016    19      1       0.2383217       58.63125
2016    19      2       0.1800946       46.7844
2016    19      3       0.1460999       39.57629
2016    19      4       0.139325        37.98932
2016    19      5       0.1392672       38.01904
2016    19      6       0.216757        54.70426
2016    19      7       0.3093274       72.78315
2016    20      0       0.3235662       75.53651
2016    20      1       0.2477224       61.27818
2016    20      2       0.1823638       47.88913
2016    20      3       0.1907832       49.59385
2016    20      4       0.2275931       57.3449
2016    20      5       0.2991674       71.46768
2016    20      6       0.4416715       96.60793
2016    20      7       0.3805335       86.71222
2016    21      0       0.2994245       72.14187
2016    21      1       0.2323953       58.97743
2016    21      2       0.1832425       48.74894
2016    21      3       0.1443091       40.09297
2016    21      4       0.1128166       32.65969
2016    21      5       0.1038971       30.36409
2016    21      6       0.1587109       42.9891
2016    21      7       0.2016741       52.54474
2016    22      0       0.21324         55.18934
2016    22      1       0.1938888       51.1949
2016    22      2       0.1681365       45.56888
2016    22      3       0.1689481       45.82731
2016    22      4       0.1580167       43.38398
2016    22      5       0.2163731       56.12236
2016    22      6       0.3279187       78.30653
2016    22      7       0.4804811       104.3884
2016    23      0       0.4381854       98.15661
2016    23      1       0.3149235       76.42319
2016    23      2       0.2458524       62.59987
2016    23      3       0.2256453       58.15603
2016    23      4       0.2084295       54.41212
2016    23      5       0.1857082       49.13552
2016    23      6       0.2788744       68.57297
2016    23      7       0.5037155       107.554
2016    24      0       0.6341358       126.7353
2016    24      1       0.1998294       51.58601
2016    24      2       0.2450727       60.77148
2016    24      3       0.2339043       58.47817
2016    24      4       0.2343881       58.54141
2016    24      5       0.4128853       91.2292
2016    24      6       0.5188201       108.9642
2016    24      7       0.5452961       113.7812
2016    25      0       0.4213851       94.44002
2016    25      1       0.3145896       75.14583
2016    25      2       0.3255485       76.98837
2016    25      3       0.3403709       79.18746
2016    25      4       0.3182305       75.12677
2016    25      5       0.2520399       62.70624
2016    25      6       0.2824406       68.56248
2016    25      7       0.3185482       75.17755
2016    26      0       0.4832194       103.4036
2016    26      1       0.3891839       88.32796
2016    26      2       0.518812        108.8908
2016    26      3       0.2896896       69.31004
2016    26      4       0.3313727       76.30846
2016    26      5       0.3561757       80.90922
2016    26      6       0.4505166       96.52062
2016    26      7       0.4631352       98.51794
2016    27      0       0.3938452       87.43732
2016    27      1       0.3185472       74.01292
2016    27      2       0.2577862       62.36379
2016    27      3       0.2271156       56.18464
2016    27      4       0.1941479       49.61537
2016    27      5       0.1759158       46.05182
2016    27      6       0.3114012       73.12316
2016    27      7       0.2678029       65.00375
2016    28      0       0.236838        58.98257
2016    28      1       0.1961313       50.51566
2016    28      2       0.1697701       44.73009
2016    28      3       0.1937924       49.72452
2016    28      4       0.2645828       64.27712
2016    28      5       0.280237        67.67077
2016    28      6       0.4538983       97.38328
2016    28      7       0.3761264       84.72655
2016    29      0       0.3862059       86.65186
2016    29      1       0.2327703       58.29763
2016    29      2       0.3340954       76.92234
2016    29      3       0.294259        69.89226
2016    29      4       0.3651243       82.28567
2016    29      5       0.3388829       77.94617
2016    29      6       0.4115093       90.27497
2016    29      7       0.4461982       96.33951
2016    30      0       0.3767244       84.66123
2016    30      1       0.3701728       83.20649
2016    30      2       0.4136165       90.43391
2016    30      3       0.4127726       90.0483
2016    30      4       0.2742126       65.66611
2016    30      5       0.3652322       82.10744
2016    30      6       0.4132121       89.83939
2016    30      7       0.4024745       88.13048
2017    1       0       0.3092581       73.26551
2017    1       1       0.2887133       69.14869
2017    1       2       0.3140566       73.48616
2017    1       3       0.2769678       66.27158
2017    1       4       0.1653441       43.96551
2017    1       5       0.1418154       38.90673
2017    1       6       0.1524466       41.28266
2017    1       7       0.1799958       47.42072
2017    2       0       0.2152374       54.92976
2017    2       1       0.1840751       48.58866
2017    2       2       0.1732125       46.238
2017    2       3       0.1373765       38.24169
2017    2       4       0.1200941       34.15317
2017    2       5       0.1743646       45.96351
2017    2       6       0.2730833       66.17715
2017    2       7       0.4324945       94.27411
2017    3       0       0.4130952       91.00272
2017    3       1       0.3646556       83.06633
2017    3       2       0.2814139       67.66904
2017    3       3       0.1373599       37.63951
2017    3       4       0.08488818      25.58273
2017    3       5       0.03852983      14.16767
2017    3       6       0.09828321      28.55011
2017    3       7       0.1724482       44.6494
2017    4       0       0.1695042       44.09793
2017    4       1       0.1277718       35.16741
2017    4       2       0.1535706       40.70078
2017    4       3       0.199976        50.27575
2017    4       4       0.3190269       73.05742
2017    4       5       0.3806107       83.98392
2017    4       6       0.3656131       80.78065
2017    4       7       0.3394405       76.22479
2017    5       0       0.272159        63.9875
2017    5       1       0.1920864       48.39631
2017    5       2       0.09298499      27.09866
2017    5       3       0.05537186      18.21482
2017    5       4       0.05325198      17.66885
2017    5       5       0.07582478      23.09998
2017    5       6       0.1283552       35.26982
2017    5       7       0.1964931       50.12301
2017    6       0       0.24506         60.18241
2017    6       1       0.2962407       70.05443
2017    6       2       0.2848235       68.37876
2017    6       3       0.2496288       61.77656
2017    6       4       0.2160613       55.01424
2017    6       5       0.1943812       50.43391
2017    6       6       0.2184533       55.5017
2017    6       7       0.2504628       62.12498
2017    7       0       0.2517077       62.5176
2017    7       1       0.235343        59.25554
2017    7       2       0.2170768       55.39849
2017    7       3       0.3097497       74.02259
2017    7       4       0.3341391       78.94907
2017    7       5       0.2735377       67.5079
2017    7       6       0.3488972       82.04837
2017    7       7       0.3859183       89.05855
2017    8       0       0.4040138       91.91147
2017    8       1       0.3399854       80.44366
2017    8       2       0.2730129       67.80226
2017    8       3       0.2225998       57.67705
2017    8       4       0.1974836       51.96632
2017    8       5       0.2213635       56.62277
2017    8       6       0.3288957       77.61655
2017    8       7       0.4382173       96.44995
2017    9       0       0.3958184       88.74093
2017    9       1       0.2855677       68.98082
2017    9       2       0.3224493       75.81183
2017    9       3       0.2081265       53.3705
2017    9       4       0.2563156       62.25993
2017    9       5       0.2032099       51.39082
2017    9       6       0.2302719       56.49282
2017    9       7       0.1898951       47.94645
2017    10      0       0.2214954       54.37909
2017    10      1       0.1612304       42.30766
2017    10      2       0.1114135       31.56051
2017    10      3       0.06234989      20.04713
2017    10      4       0.04794455      16.40236
2017    10      5       0.05134757      17.24188
2017    10      6       0.07526372      23.11889
2017    10      7       0.1073367       30.5026
2017    11      0       0.120025        33.40462
2017    11      1       0.1248129       34.44673
2017    11      2       0.1274484       35.06013
2017    11      3       0.1549343       41.11236
2017    11      4       0.1533872       40.96226
2017    11      5       0.1326552       36.51866
2017    11      6       0.1492282       40.22134
2017    11      7       0.2205764       55.135
2017    12      0       0.2973259       69.58881
2017    12      1       0.2780837       66.21497
2017    12      2       0.2359033       58.4516
2017    12      3       0.2668472       64.72636
2017    12      4       0.2070669       53.41409
2017    12      5       0.1816989       48.11
2017    12      6       0.1939061       50.80259
2017    12      7       0.2214933       56.93249
2017    13      0       0.260247        65.01874
2017    13      1       0.2667909       66.35321
2017    13      2       0.2136692       55.76602
2017    13      3       0.1575619       43.61894
2017    13      4       0.120381        35.03337
2017    13      5       0.1250763       36.10102
2017    13      6       0.1629405       44.75568
2017    13      7       0.2352608       60.28804
2017    14      0       0.2757982       68.40724
2017    14      1       0.2589718       65.2481
2017    14      2       0.1688013       46.07967
2017    14      3       0.185806        49.98854
2017    14      4       0.09953237      29.99932
2017    14      5       0.09036818      27.633
2017    14      6       0.1859045       49.39068
2017    14      7       0.3003011       71.96941
2017    15      0       0.324519        76.19128
2017    15      1       0.3046052       72.47567
2017    15      2       0.2340072       59.02399
2017    15      3       0.2167849       55.46809
2017    15      4       0.2105866       54.03548
2017    15      5       0.16886         45.00026
2017    15      6       0.143441        39.15101
2017    15      7       0.1575087       42.26959
2017    16      0       0.1612696       43.21416
2017    16      1       0.1520758       41.28766
2017    16      2       0.1725544       45.68773
2017    16      3       0.1972714       50.65934
2017    16      4       0.1981673       50.71024
2017    16      5       0.1693055       44.52843
2017    16      6       0.2105136       53.39879
2017    16      7       0.2845184       68.1284
2017    17      0       0.3028803       71.87411
2017    17      1       0.2794706       67.72723
2017    17      2       0.2753246       67.04981
2017    17      3       0.2454306       61.27428
2017    17      4       0.2262332       57.21823
2017    17      5       0.2114505       54.11047
2017    17      6       0.2542145       62.69641
2017    17      7       0.3514114       81.3453
2017    18      0       0.412792        92.83905
2017    18      1       0.4421277       98.21216
2017    18      2       0.4757826       103.9411
2017    18      3       0.4027574       91.71146
2017    18      4       0.3483704       82.198
2017    18      5       0.4687364       102.669
2017    18      6       0.5574971       116.3979
2017    18      7       0.6453974       128.8398
2017    19      0       0.4316503       96.83804
2017    19      1       0.4006637       90.91018
2017    19      2       0.4086109       92.52563
2017    19      3       0.3374841       79.82232
2017    19      4       0.3915396       89.71316
2017    19      5       0.2563577       63.78128
2017    19      6       0.3370799       79.14192
2017    19      7       0.3964629       89.09911
2017    20      0       0.3070644       72.84702
2017    20      1       0.2424038       60.12909
2017    20      2       0.2128316       54.08605
2017    20      3       0.1448037       39.62971
2017    20      4       0.100506        29.48216
2017    20      5       0.1155935       32.9369
2017    20      6       0.302895        71.79374
2017    20      7       0.4527159       98.2222
2017    21      0       0.4603727       99.44336
2017    21      1       0.356329        81.5351
2017    21      2       0.36182         82.68836
2017    21      3       0.459912        98.46362
2017    21      4       0.3635625       81.6908
2017    21      5       0.3076611       71.75721
2017    21      6       0.4427364       95.50034
2017    21      7       0.5616545       113.3769
2017    22      0       0.4711377       99.98815
2017    22      1       0.3329077       76.47517
2017    22      2       0.2627609       63.36987
2017    22      3       0.2696211       64.65398
2017    22      4       0.2822855       67.06804
2017    22      5       0.252178        61.25162
2017    22      6       0.2910314       69.29777
2017    22      7       0.2396595       59.83205
2017    23      0       0.1780203       47.34974
2017    23      1       0.1188937       34.18497
2017    23      2       0.1017441       29.98207
2017    23      3       0.1244702       35.09931
2017    23      4       0.1368865       37.92504
2017    23      5       0.1238964       35.00832
2017    23      6       0.1943022       50.92851
2017    23      7       0.2984941       72.38386
2017    24      0       0.403703        91.57135
2017    24      1       0.3311768       78.75979
2017    24      2       0.3444308       80.76705
2017    24      3       0.3238271       76.95165
2017    24      4       0.3416969       79.75159
2017    24      5       0.1562972       42.10369
2017    24      6       0.275455        66.39972
2017    24      7       0.5683354       115.5359
2017    25      0       0.6276005       125.0345
2017    25      1       0.6085097       122.689
2017    25      2       0.384351        87.05134
2017    25      3       0.2639104       64.79859
2017    25      4       0.1826711       47.81505
2017    25      5       0.2197753       55.44619
2017    25      6       0.379232        84.90556
2017    25      7       0.3820023       85.26146
2017    26      0       0.4096994       90.0782
2017    26      1       0.3016098       71.09667
2017    26      2       0.1822791       47.35165
2017    26      3       0.1545875       41.44976
2017    26      4       0.2205664       55.52012
2017    26      5       0.3228046       74.62837
2017    26      6       0.368526        82.70652
2017    26      7       0.4027203       88.91294
2017    27      0       0.375195        84.31472
2017    27      1       0.3759594       84.83712
2017    27      2       0.4725348       100.7137
2017    27      3       0.3703337       84.07248
2017    27      4       0.3258336       76.01172
2017    27      5       0.4773772       101.1418
2017    27      6       0.4507808       96.43147
2017    27      7       0.3654551       82.20177
2017    28      0       0.3530135       79.91325
2017    28      1       0.2613266       63.09509
2017    28      2       0.2109635       53.16994
2017    28      3       0.1790505       46.52759
2017    28      4       0.1681888       44.15622
2017    28      5       0.2223797       55.31138
2017    28      6       0.2923886       68.44627
2017    28      7       0.3504822       79.21749
2017    29      0       0.3997664       87.91814
2017    29      1       0.2722482       65.00184
2017    29      2       0.2278189       56.39047
2017    29      3       0.2151235       53.59907
2017    29      4       0.1983371       50.15807
2017    29      5       0.2380808       58.0126
2017    29      6       0.2700986       64.07179
2017    29      7       0.2669421       63.64101
2017    30      0       0.2537245       61.15207
2017    30      1       0.1777923       45.92222
2017    30      2       0.1347973       36.81292
2017    30      3       0.09989759      29.05991
2017    30      4       0.05528462      18.4968
2017    30      5       0.06069713      19.82925
2017    30      6       0.1205398       33.98063
2017    30      7       0.2171725       54.72799
2018    1       0       0.3991619       88.72272
2018    1       1       0.3708406       83.9331
2018    1       2       0.3446494       79.32835
2018    1       3       0.4834777       102.5568
2018    1       4       0.4438374       96.3979
2018    1       5       0.2407707       60.1544
2018    1       6       0.4007562       89.67204
2018    1       7       0.3591316       82.96783
2018    2       0       0.2993149       71.91518
2018    2       1       0.2779801       67.57103
2018    2       2       0.2670954       65.44746
2018    2       3       0.2832746       68.76759
2018    2       4       0.2580085       63.94067
2018    2       5       0.2432118       61.06304
2018    2       6       0.3462964       80.88369
2018    2       7       0.4724325       102.1401
2018    3       0       0.5061428       107.6108
2018    3       1       0.3877672       87.25733
2018    3       2       0.1014927       29.1707
2018    3       3       0.1216873       33.49906
2018    3       4       0.075766        22.91808
2018    3       5       0.05960558      19.1435
2018    3       6       0.06440876      20.31699
2018    3       7       0.07495018      22.87056
2018    4       0       0.08148553      24.44188
2018    4       1       0.07872535      23.71879
2018    4       2       0.1140169       31.764
2018    4       3       0.1397185       37.39897
2018    4       4       0.1576021       41.51467
2018    4       5       0.1673601       43.67683
2018    4       6       0.2350458       57.82825
2018    4       7       0.2422944       59.60373
2018    5       0       0.2797387       67.18734
2018    5       1       0.2948977       70.57911
2018    5       2       0.2798367       67.84112
2018    5       3       0.2585346       63.57716
2018    5       4       0.2068501       53.11134
2018    5       5       0.2031483       52.48875
2018    5       6       0.3503653       81.35092
2018    5       7       0.5118013       107.857
2018    6       0       0.4492442       97.94758
2018    6       1       0.4285021       94.46088
2018    6       2       0.4381561       95.65538
2018    6       3       0.5260201       110.132
2018    6       4       0.4136692       92.21646
2018    6       5       0.5827235       117.8429
2018    6       6       0.6058914       121.0629
2018    6       7       0.5284343       110.4475
2018    7       0       0.5235323       109.9281
2018    7       1       0.4245008       94.46478
2018    7       2       0.3996027       90.22638
2018    7       3       0.4320652       95.86774
2018    7       4       0.3509113       81.82687
2018    7       5       0.2957613       71.41221
2018    7       6       0.3945025       89.72793
2018    7       7       0.6045793       123.0703
2018    8       0       0.5639326       117.7289
2018    8       1       0.4306319       95.48934
2018    8       2       0.5185661       110.0809
2018    8       3       0.4979013       105.7817
2018    8       4       0.1169274       33.36771
2018    8       5       0.1524674       41.04764
2018    8       6       0.3149135       73.39882
2018    8       7       0.4002257       88.26022
2018    9       0       0.3698186       83.06182
2018    9       1       0.2921188       68.97531
2018    9       2       0.2870261       67.86272
2018    9       3       0.3523608       79.38543
2018    9       4       0.3770781       84.08705
2018    9       5       0.2438034       59.85736
2018    9       6       0.3218952       74.54658
2018    9       7       0.3517675       79.94707
2018    10      0       0.2168272       54.59344
2018    10      1       0.1520852       41.02411
2018    10      2       0.1388015       38.14574
2018    10      3       0.1300055       36.22931
2018    10      4       0.1259769       35.23856
2018    10      5       0.1307307       36.53682
2018    10      6       0.1244271       35.19176
2018    10      7       0.1856061       48.37436
2018    11      0       0.2862303       68.49836
2018    11      1       0.2863466       69.18934
2018    11      2       0.2734301       67.0685
2018    11      3       0.3351703       79.21952
2018    11      4       0.2740966       66.99766
2018    11      5       0.3067566       72.97531
2018    11      6       0.3592594       83.91562
2018    11      7       0.3683477       85.84948
2018    12      0       0.3211419       76.55829
2018    12      1       0.3171906       75.4131
2018    12      2       0.3254474       76.63896
2018    12      3       0.2184521       56.21497
2018    12      4       0.1887641       49.68239
2018    12      5       0.227031        57.33867
2018    12      6       0.2736073       66.87798
2018    12      7       0.2931642       70.54494
2018    13      0       0.4221166       93.19222
2018    13      1       0.2916495       69.06487
2018    13      2       0.2458172       59.59028
2018    13      3       0.181493        46.19015
2018    13      4       0.1704478       44.0292
2018    13      5       0.2499669       60.38355
2018    13      6       0.2767662       65.29322
2018    13      7       0.3237697       73.76219
2018    14      0       0.2702022       64.18295
2018    14      1       0.2440947       59.0245
2018    14      2       0.2201651       54.30462
2018    14      3       0.1724561       44.65718
2018    14      4       0.1458704       39.15628
2018    14      5       0.07648029      23.34704
2018    14      6       0.1355537       36.66957
2018    14      7       0.2206895       54.8121
2018    15      0       0.2792301       66.43297
2018    15      1       0.28695         67.89735
2018    15      2       0.2804127       67.00737
2018    15      3       0.2591027       62.94041
2018    15      4       0.2491697       61.04747
2018    15      5       0.2613425       63.49384
2018    15      6       0.3689122       83.59619
2018    15      7       0.3494491       80.21579
2018    16      0       0.3366054       78.25188
2018    16      1       0.3313035       77.52057
2018    16      2       0.3114641       74.12419
2018    16      3       0.2194967       56.12306
2018    16      4       0.1990815       52.08523
2018    16      5       0.193404        50.9211
2018    16      6       0.2036102       53.2698
2018    16      7       0.2287167       58.57208
2018    17      0       0.2140194       55.60335
2018    17      1       0.1769862       47.696
2018    17      2       0.146651        40.48359
2018    17      3       0.1827229       48.57823
2018    17      4       0.1842464       48.4814
2018    17      5       0.2125013       53.81717
2018    17      6       0.2621587       63.0349
2018    17      7       0.2472805       60.06677
2018    18      0       0.229521        55.9519
2018    18      1       0.1301561       35.37927
2018    18      2       0.1208502       33.3953
2018    18      3       0.106093        30.19724
2018    18      4       0.07256516      22.48668
2018    18      5       0.08100722      24.42837
2018    18      6       0.1044345       29.88931
2018    18      7       0.1304455       35.86518
2018    19      0       0.1471781       39.6758
2018    19      1       0.1470512       39.66558
2018    19      2       0.1323805       36.4919
2018    19      3       0.1168993       32.99881
2018    19      4       0.11432         32.33322
2018    19      5       0.118773        33.29792
2018    19      6       0.1409679       38.49871
2018    19      7       0.1967248       50.8068
2018    20      0       0.3064182       72.36756
2018    20      1       0.3387447       78.76254
2018    20      2       0.4021576       89.92689
2018    20      3       0.5384235       112.1037
2018    20      4       0.3977265       89.6115
2018    20      5       0.4879406       104.4895
2018    20      6       0.4588012       100.337
2018    20      7       0.4712174       101.9672
2018    21      0       0.5020734       106.7799
2018    21      1       0.4856638       104.1853
2018    21      2       0.453602        98.37274
2018    21      3       0.3869093       86.88686
2018    21      4       0.3815242       85.68178
2018    21      5       0.3652205       83.25161
2018    21      6       0.3953033       88.88089
2018    21      7       0.3825414       87.06069
2018    22      0       0.3619004       83.74998
2018    22      1       0.1943763       51.13178
2018    22      2       0.1656542       44.86106
2018    22      3       0.2116315       54.75338
2018    22      4       0.2482742       62.43892
2018    22      5       0.2248526       57.73357
2018    22      6       0.2240193       57.55535
2018    22      7       0.2530567       63.61594
2018    23      0       0.3453937       81.09978
2018    23      1       0.3513191       82.27122
2018    23      2       0.3146352       75.52231
2018    23      3       0.3186355       76.01908
2018    23      4       0.3047773       73.22587
2018    23      5       0.2943727       71.20988
2018    23      6       0.3881342       88.50815
2018    23      7       0.4149108       93.03948
2018    24      0       0.4689954       102.0116
2018    24      1       0.417665        93.05443
2018    24      2       0.2718045       66.39917
2018    24      3       0.2732006       66.57185
2018    24      4       0.2645984       64.71097
2018    24      5       0.2083005       53.1884
2018    24      6       0.2423287       59.66131
2018    24      7       0.2770371       66.14117
2018    25      0       0.2440869       59.74454
2018    25      1       0.1784084       46.36572
2018    25      2       0.1178711       33.39104
2018    25      3       0.05462474      18.46447
2018    25      4       0.04000369      14.70457
2018    25      5       0.04778509      16.70113
2018    25      6       0.06868659      22.06884
2018    25      7       0.1021511       30.18481
2018    26      0       0.1037257       30.68721
2018    26      1       0.09460855      28.11763
2018    26      2       0.2128913       54.49997
2018    26      3       0.2614643       64.35417
2018    26      4       0.2186414       55.51446
2018    26      5       0.1860408       48.71026
2018    26      6       0.1630384       43.87847
2018    26      7       0.1575977       42.81765
2018    27      0       0.1548917       42.4003
2018    27      1       0.1201441       34.54005
2018    27      2       0.08549772      26.20926
2018    27      3       0.07606818      23.87286
2018    27      4       0.07274931      23.07979
2018    27      5       0.06999479      22.4033
2018    27      6       0.1037261       30.66776
2018    27      7       0.145801        40.4849
2018    28      0       0.1821084       48.59031
2018    28      1       0.1801192       48.17152
2018    28      2       0.1604461       43.85065
2018    28      3       0.1480806       40.87821
2018    28      4       0.1873849       49.35635
2018    28      5       0.2519083       62.57876
2018    28      6       0.3194698       75.88533
2018    28      7       0.4209305       94.16642
2018    29      0       0.5631202       116.91
2018    29      1       0.3239417       77.15957
2018    29      2       0.2780615       68.55749
2018    29      3       0.306034        74.38239
2018    29      4       0.1803992       48.08616
2018    29      5       0.1543724       42.22755
2018    29      6       0.1637236       44.49622
2018    29      7       0.2254991       57.4628
2018    30      0       0.2095052       53.88367
2018    30      1       0.1877585       49.14391
2018    30      2       0.2115053       54.03891
2018    30      3       0.2097015       53.62449
2018    30      4       0.1887937       49.17791
2018    30      5       0.1908148       49.72592
2018    30      6       0.3146526       73.88874
2018    30      7       0.4081236       90.61884
