####################################################################################################
# Month: 02Feb                                                                                     #
# Station: WF                                                                                      #
# Frequency: 345 GHz                                                                               #
# Columns are: year    day     tau     Tb (K)                                                      #
####################################################################################################
2009    1       1.42549151      190.4203875
2009    2       1.85495487      223.116875
2009    3       2.10173263      231.8546375
2009    4       1.13437389      171.806125
2009    5       0.64011968      121.6976
2009    6       0.74379179      134.5669
2009    7       1.42590825      201.3119375
2009    8       2.98599575      254.824875
2009    9       1.07428952      170.3297875
2009    10      1.31040991      184.661875
2009    11      3.83423475      269.7965625
2009    12      4.86857012      274.32685
2009    13      2.08619388      216.2835125
2009    14      0.99551005      165.6555
2009    15      1.26391188      188.904275
2009    16      1.394577        197.3110875
2009    17      1.29476312      190.40625
2009    18      1.55930225      204.527675
2009    19      3.95244612      262.46245
2009    20      1.5787325       202.46785
2009    21      1.31646112      190.9073125
2009    22      2.047108        216.9169
2009    23      2.182939        226.6030375
2009    24      1.04792061      168.1492375
2009    25      0.93268871      158.396025
2009    26      1.49394426      200.4511375
2009    27      2.832424        253.3135875
2009    28      2.78554844      223.1791375
2010    1       1.03766626      167.6532875
2010    2       1.27182725      187.317775
2010    3       1.80158075      218.0251625
2010    4       1.16305441      174.933825
2010    5       0.98666631      162.7074375
2010    6       0.84057019      150.5457125
2010    7       0.96776538      160.782275
2010    8       1.2928085       188.4528125
2010    9       1.57085475      208.2930125
2010    10      2.60455563      244.4387
2010    11      2.19791675      234.7421
2010    12      1.32146938      193.271175
2010    13      1.37568071      195.646875
2010    14      1.626064        210.47235
2010    15      1.71880975      216.89895
2010    16      2.15662125      231.1168625
2010    17      2.0421335       229.1003
2010    18      2.0869615       232.6402
2010    19      1.89682713      224.6783125
2010    20      2.0982995       232.4662
2010    21      1.86902275      222.10975
2010    22      2.00234788      230.020625
2010    23      2.6068515       245.8169375
2010    24      4.07607638      264.4814125
2010    25      6.02650775      273.41275
2010    26      3.47843712      254.8084375
2010    27      2.73875712      246.4636875
2010    28      2.374824        239.773325
2011    1       1.34110102      182.09645
2011    2       2.69180987      254.174175
2011    3       1.4770605       199.3027375
2011    4       0.73659654      136.3157625
2011    5       1.56662812      206.5177
2011    6       2.95118462      244.8837
2011    7       2.04428525      231.2074625
2011    8       2.87212         248.065425
2011    9       0.76736026      136.666635
2011    10      0.9557076       158.5493875
2011    11      0.7579438       137.9201
2011    12      1.386111        193.7923
2011    13      1.41655275      193.3408625
2011    14      2.69400825      252.6221375
2011    15      1.3397192       172.6251875
2011    16      0.83327331      143.2777725
2011    17      2.41785338      244.7679125
2011    18      4.233092        274.4445875
2011    19      1.50112962      204.411125
2011    20      1.01134849      165.794075
2011    21      1.24059051      181.858675
2011    22      0.82918649      146.625725
2011    23      0.39717058      88.45809625
2011    24      0.69058186      121.29445375
2011    25      3.5499825       254.1257625
2011    26      1.34932204      187.0414625
2011    27      2.21671063      231.9581875
2011    28      3.29471638      250.541425
2012    1       3.24143425      262.5616125
2012    2       2.18598125      235.856775
2012    3       1.32163426      188.1411
2012    4       1.63138338      208.992225
2012    5       0.8351626       147.5975125
2012    6       1.70051188      213.3096625
2012    7       2.25147813      240.6792625
2012    8       0.79910474      138.39940375
2012    9       1.38212438      198.12435
2012    10      1.33172151      195.6804375
2012    11      2.41957288      241.8693875
2012    12      1.00445238      156.0552125
2012    13      1.17726626      174.793675
2012    14      1.65101862      214.118925
2012    15      2.48420962      242.4134875
2012    16      2.57127263      247.4995875
2012    17      3.21006188      256.465725
2012    18      1.79741125      221.3757125
2012    19      1.48261351      201.7243
2012    20      1.11455175      178.0856
2012    21      1.19335749      182.8787375
2012    22      2.84615862      252.2706125
2012    23      3.12942888      255.232075
2012    24      2.5548505       237.5343
2012    25      2.62319125      240.8378625
2012    26      1.06646896      166.414025
2012    27      1.75592688      211.0336
2012    28      2.1844595       230.9493625
2012    29      2.15691738      224.5759625
2013    1       1.11683418      174.5645625
2013    2       0.91153069      153.1825875
2013    3       1.3681575       193.169875
2013    4       1.14307549      175.0991
2013    5       0.75936191      138.431975
2013    6       1.463189        200.80395
2013    7       0.80226611      145.4570625
2013    8       2.0569975       219.28295
2013    9       1.78594775      216.8882875
2013    10      0.63530868      120.7263
2013    11      2.04068051      190.3061125
2013    12      2.64018525      245.653575
2013    13      1.86226325      224.9611125
2013    14      1.81238075      221.815
2013    15      2.18954588      236.134
2013    16      2.05247338      231.1387625
2013    17      1.377858        193.8518625
2013    18      0.84695426      147.24235
2013    19      1.3662296       176.63008875
2013    20      2.59318812      230.9485125
2013    21      1.363351        192.3122125
2013    22      1.39116362      199.1072625
2013    23      2.14662925      232.0688375
2013    24      3.31313312      257.5937
2013    25      2.11720275      231.37375
2013    26      2.11380975      234.8306125
2013    27      3.71467012      257.0179375
2013    28      4.08652288      262.2636875
2014    1       1.96625837      224.6254375
2014    2       3.590961        260.86855
2014    3       2.42807825      244.14765
2014    4       1.25192299      192.2951875
2014    5       2.61675125      246.8219625
2014    6       1.25324802      182.6289125
2014    7       1.01114336      165.2564125
2014    8       0.88899446      150.4070625
2014    9       1.39355562      195.2304125
2014    10      1.49709062      198.5208875
2014    11      0.93692282      157.2099375
2014    12      0.52397048      107.83408875
2014    13      2.18159471      208.96395
2014    14      3.212234        256.211525
2014    15      1.964609        225.307775
2014    16      1.57897914      188.54535
2014    17      0.57796075      111.69579125
2014    18      1.157804        154.2020175
2014    19      2.30622062      232.184625
2014    20      2.26123775      218.00125
2014    21      4.52844325      259.6658625
2014    22      1.99344575      211.002875
2014    23      1.99933075      228.93205
2014    24      1.42482132      193.8176375
2014    25      0.98275194      161.54595
2014    26      0.86154819      148.867275
2014    27      0.69543512      127.5210625
2014    28      0.6316268       120.8956875
2015    1       0.80381044      142.5079275
2015    2       1.72588091      205.189275
2015    3       0.79189201      140.386925
2015    4       1.27562794      185.0017625
2015    5       2.16912759      223.07865
2015    6       0.58483925      112.64392
2015    7       1.69158291      201.10115
2015    8       2.54627637      251.1322875
2015    9       2.79411488      255.299125
2015    10      2.13666025      232.2107625
2015    11      0.79550894      144.601525
2015    12      1.41497039      198.1400625
2015    13      0.80256965      134.498225
2015    14      0.8141863       135.6678325
2015    15      1.72835171      196.663325
2015    16      0.43384612      92.348155
2015    17      0.91270765      147.448375
2015    18      1.23044822      182.7247875
2015    19      1.59668825      201.6065625
2015    20      0.63033799      118.44473
2015    21      0.70508486      117.7346475
2015    22      2.36997038      238.8298125
2015    23      1.39217251      185.3233375
2015    24      0.45174525      95.49341375
2015    25      1.29753873      184.844325
2015    26      1.03991812      170.2615375
2015    27      0.83923048      145.7761375
2015    28      0.61606392      119.9223125
2016    1       3.61929438      268.39425
2016    2       1.86554888      226.5200125
2016    3       3.42323775      251.4423125
2016    4       5.28656612      269.5257875
2016    5       3.03816625      254.46025
2016    6       1.2736352       187.49615
2016    7       1.67696088      216.90555
2016    8       2.00418425      229.8493
2016    9       1.68560188      213.68275
2016    10      1.98627038      222.966325
2016    11      1.47559014      198.213375
2016    12      0.66275954      123.4319075
2016    13      0.90554635      150.586175
2016    14      0.3441783       75.58148375
2016    15      0.56055627      106.1542725
2016    16      5.08782612      268.176325
2016    17      2.6250825       233.3394375
2016    18      1.23873835      180.7271125
2016    19      0.71263094      131.17165375
2016    20      2.89223425      247.5930625
2016    21      2.85645338      256.6332125
2016    22      1.53972667      198.3753625
2016    23      1.16634862      173.677475
2016    24      5.12735475      263.68075
2016    25      6.66550362      280.523225
2016    26      1.95660169      211.4258125
2016    27      0.94833979      159.3798625
2016    28      2.96053062      252.789125
2016    29      2.8291055       256.6473625
2017    1       2.1104255       228.1049625
2017    2       1.5743375       207.46005
2017    3       1.09845337      173.539425
2017    4       1.0736274       169.9439125
2017    5       1.43661562      196.36795
2017    6       1.42596222      194.55495
2017    7       2.98271125      242.827025
2017    8       5.05711425      269.1071
2017    9       1.95280475      224.947925
2017    10      0.75091126      134.89485
2017    11      2.08935665      222.621325
2017    12      2.75769725      245.33485
2017    13      2.56359875      237.215725
2017    14      1.41968925      197.25705
2017    15      2.56644638      237.0263875
2017    16      2.57428112      238.042575
2017    17      1.2758535       187.5734
2017    18      1.59437505      199.3200875
2017    19      2.5919585       255.4618125
2017    20      1.7377095       217.6768875
2017    21      1.23349478      183.803825
2017    22      2.9164435       256.0536
2017    23      4.30674912      275.3360625
2017    24      5.4624725       281.0868875
2017    25      6.0293315       281.811625
2017    26      3.03535725      227.650875
2017    27      1.38542275      197.6217
2017    28      2.429214        243.0010875
2018    1       2.404066        238.0706
2018    2       2.35982669      214.924675
2018    3       0.68972964      126.482145
2018    4       2.0242845       214.602275
2018    5       3.17782509      234.104725
2018    6       1.59244515      184.2189
2018    7       1.9241525       213.81835
2018    8       1.66848642      189.932975
2018    9       1.10454622      171.0994875
2018    10      3.05454738      250.207725
2018    11      5.88666012      275.811925
2018    12      3.77692738      244.78885
2018    13      0.70398726      135.87102
2018    14      1.956761        217.1220625
2018    15      3.5570575       262.4807375
2018    16      4.43423375      272.5092625
2018    17      0.92310288      149.5567925
2018    18      2.30601525      232.9350875
2018    19      1.88236212      220.2457875
2018    20      6.25482525      280.9852375
2018    21      5.09646912      284.2163125
2018    22      2.52511375      239.0295875
2018    23      1.783072        216.279375
2018    24      3.518319        263.0926625
2018    25      2.71235175      249.9536375
2018    26      2.62138338      241.7811875
2018    27      1.4892635       206.823975
2018    28      2.088088        235.055525
