####################################################################################################
# Month: 09Sep                                                                                     #
# Station: HAY                                                                                     #
# Frequency: 230 GHz                                                                               #
# Columns are: year    day     tau     Tb (K)                                                      #
####################################################################################################
2009    1       1.01457306      179.0583625
2009    2       1.16457025      194.8334
2009    3       1.31707625      208.088325
2009    4       1.51832888      221.989
2009    5       1.7767805       236.00485
2009    6       1.14721634      191.0567125
2009    7       1.17857564      190.8769375
2009    8       1.8200315       236.8288125
2009    9       1.39766905      207.6472375
2009    10      0.86111194      161.7231
2009    11      1.75257432      218.513075
2009    12      2.85426125      266.3939625
2009    13      2.28259425      253.4265625
2009    14      1.55447338      220.5302125
2009    15      1.695603        229.9468875
2009    16      1.5875625       220.75115
2009    17      1.297735        200.7010625
2009    18      1.38072325      209.73245
2009    19      0.96726824      170.799175
2009    20      0.75707119      149.7351875
2009    21      0.78027608      154.0624
2009    22      1.5456492       217.427175
2009    23      2.65742075      264.1919
2009    24      2.29526588      248.415625
2009    25      1.0208454       178.0043
2009    26      0.65125497      135.8043625
2009    27      2.19085206      234.3440125
2009    28      2.03332287      239.6431375
2009    29      1.49037712      209.8524625
2009    30      1.36857062      205.6252125
2010    1       2.2217245       259.1103
2010    2       2.0525605       254.069775
2010    3       2.39079075      262.029175
2010    4       2.7337785       248.9684875
2010    5       1.19521945      194.7736125
2010    6       1.0135622       178.548825
2010    7       1.728395        230.9875
2010    8       2.25297937      254.8236625
2010    9       1.65391012      226.3409625
2010    10      1.69421262      226.7933125
2010    11      1.30512675      203.5389875
2010    12      1.40571262      208.2235125
2010    13      1.74985612      228.5528625
2010    14      1.56889075      219.1471125
2010    15      1.1836874       192.2419375
2010    16      1.14653811      188.660225
2010    17      2.50785388      256.0601875
2010    18      1.20538125      196.2598875
2010    19      1.67249737      227.2381875
2010    20      1.53640969      210.728925
2010    21      0.79669001      154.655875
2010    22      1.58020794      219.2179125
2010    23      1.61696787      219.0033
2010    24      2.16225425      249.5365375
2010    25      2.02017438      249.8790375
2010    26      1.73997275      225.1837875
2010    27      3.25351812      269.7295375
2010    28      3.98898538      281.79635
2010    29      2.41641325      253.7931125
2010    30      2.948819        260.1602625
2011    1       1.93529863      242.8680625
2011    2       1.73048738      231.6012375
2011    3       2.71128112      264.9525875
2011    4       3.64009175      282.3666625
2011    5       3.44188438      278.6796875
2011    6       3.16523188      268.524225
2011    7       2.944342        265.656825
2011    8       3.51843962      277.109825
2011    9       2.42714013      257.55255
2011    10      1.68572687      231.4097375
2011    11      1.49535675      216.4473125
2011    12      2.16433713      249.7469125
2011    13      2.2433855       254.474875
2011    14      2.46994862      260.881125
2011    15      3.02125688      271.2457375
2011    16      0.88152908      157.4277625
2011    17      0.7839053       149.7716625
2011    18      1.07821832      181.5234875
2011    19      1.03420331      179.2245125
2011    20      1.9980305       234.814575
2011    21      1.80268988      236.3043125
2011    22      2.78615588      265.1493
2011    23      2.9633775       270.1884625
2011    24      3.633588        279.05855
2011    25      3.039758        272.1700375
2011    26      2.15869163      250.84595
2011    27      2.14582412      251.4798625
2011    28      1.79634838      234.8136875
2011    29      3.33045812      272.71715
2011    30      1.97448125      237.559025
2012    1       1.9250395       242.61945
2012    2       1.63968238      226.6991875
2012    3       1.46552962      217.239425
2012    4       2.64940462      250.233
2012    5       3.524741        277.763775
2012    6       2.15703762      252.0870375
2012    7       2.50274288      263.451175
2012    8       2.93624675      271.8218625
2012    9       2.128062        234.6679375
2012    10      1.22289838      196.9284875
2012    11      0.8915723       165.463
2012    12      0.92355592      169.809225
2012    13      1.176794        197.14965
2012    14      1.37554462      213.2584625
2012    15      1.46221188      214.99935
2012    16      0.95037515      171.33785
2012    17      0.83737551      158.9855625
2012    18      1.90625592      217.8975375
2012    19      2.32910942      230.7291125
2012    20      0.78661871      153.2957125
2012    21      1.09795586      187.330025
2012    22      2.07130125      244.0089625
2012    23      1.6169563       208.3588
2012    24      0.81526441      154.12685
2012    25      0.86374536      161.4173
2012    26      1.7503535       227.5814625
2012    27      1.73335724      220.4578875
2012    28      1.43084112      200.632675
2012    29      2.83848788      263.4645875
2012    30      1.80138587      231.165175
2013    1       3.62140975      281.0578125
2013    2       3.84399438      281.1581125
2013    3       3.416726        277.334775
2013    4       1.58286412      224.8568625
2013    5       1.51789092      213.1017625
2013    6       0.75653442      148.9646375
2013    7       1.30966464      193.117625
2013    8       1.68031559      225.029625
2013    9       0.82989211      157.9395
2013    10      2.49594689      243.8233
2013    11      3.0877215       277.09755
2013    12      3.60807362      282.3875625
2013    13      2.86126475      264.9290875
2013    14      1.4190595       211.63605
2013    15      1.16918588      192.4428625
2013    16      1.40735312      209.191425
2013    17      0.68242108      136.694975
2013    18      0.84275261      160.123975
2013    19      0.99350696      178.6663125
2013    20      1.06754749      187.694175
2013    21      1.22781702      185.13968875
2013    22      2.54963275      250.616925
2013    23      0.93349972      168.98525
2013    24      0.91042618      166.2914625
2013    25      1.15938338      192.357725
2013    26      1.21663063      197.2337875
2013    27      1.43403725      213.3058
2013    28      1.36025812      210.11925
2013    29      1.04841895      182.7589375
2013    30      0.99667689      177.2659625
2014    1       3.16244625      273.3873875
2014    2       3.05198338      275.870925
2014    3       2.40882725      253.8322875
2014    4       1.45475825      219.697025
2014    5       2.13603562      251.701175
2014    6       2.91764738      271.9944625
2014    7       1.95197069      226.42515
2014    8       1.16009262      194.12835
2014    9       1.2281365       193.9871
2014    10      1.56644738      222.5510125
2014    11      2.56806562      259.7167875
2014    12      1.513001        212.3659
2014    13      1.57418975      216.04385
2014    14      1.18616702      188.238725
2014    15      0.95978046      173.0307875
2014    16      1.43661288      211.0628125
2014    17      1.20521505      194.8202125
2014    18      1.16907738      192.99135
2014    19      0.72932804      140.029025
2014    20      1.08274596      177.531725
2014    21      2.7525575       262.4206625
2014    22      1.86357991      230.199275
2014    23      0.96844022      172.6837125
2014    24      1.26273662      201.8518375
2014    25      1.1809263       188.8814625
2014    26      1.22095094      196.6061625
2014    27      1.51316088      222.5497
2014    28      1.70624262      234.77795
2014    29      1.87083762      240.7359375
2014    30      2.60259825      258.7744625
2015    1       1.80364212      237.8904875
2015    2       1.74450888      237.1914125
2015    3       2.34388825      261.3206
2015    4       2.29895525      249.7013375
2015    5       1.1511498       193.7383
2015    6       0.9890155       180.810475
2015    7       1.74900725      235.098725
2015    8       2.57014837      267.485775
2015    9       2.383765        262.8159375
2015    10      3.39656338      276.86275
2015    11      3.1690525       267.01865
2015    12      1.7690875       234.38735
2015    13      2.53219         257.6588125
2015    14      1.79061338      224.892325
2015    15      1.4040155       213.3007
2015    16      1.70305588      232.879475
2015    17      1.51646838      222.3665125
2015    18      1.41351462      217.08755
2015    19      1.54456862      222.27125
2015    20      1.79460746      227.3875375
2015    21      0.74145131      147.5418125
2015    22      0.93824148      163.0319125
2015    23      0.75875714      148.9909875
2015    24      1.37032438      210.288425
2015    25      1.42873538      211.13025
2015    26      1.05122238      177.7112375
2015    27      0.38816098      89.59705875
2015    28      1.5808791       220.1473625
2015    29      2.79878862      266.32485
2015    30      3.8149005       279.1251625
2016    1       2.29987062      255.6907875
2016    2       1.47585475      218.1040625
2016    3       1.38637012      211.7998
2016    4       1.21660488      198.68385
2016    5       1.12842694      191.24255
2016    6       3.05208538      268.6366375
2016    7       2.62270525      265.0770875
2016    8       2.76982162      268.9209
2016    9       3.16230388      274.246975
2016    10      2.52643662      258.08935
2016    11      2.693562        259.02865
2016    12      0.92208474      170.1894
2016    13      1.01525745      181.5843875
2016    14      2.09749312      248.054125
2016    15      1.13346574      187.66875
2016    16      1.13745638      191.3604625
2016    17      1.21259671      197.360325
2016    18      2.56778862      260.7625625
2016    19      3.1965135       273.5746125
2016    20      2.429012        257.982175
2016    21      1.39835305      211.91665
2016    22      1.28042662      205.034275
2016    23      1.50935511      210.989975
2016    24      1.2359099       188.680025
2016    25      0.69300958      139.014975
2016    26      0.68058334      137.7642625
2016    27      1.91148762      235.3061375
2016    28      2.22029512      245.0305625
2016    29      1.77846212      227.912775
2016    30      1.20993155      191.186275
2017    1       0.86727838      160.6901875
2017    2       0.77758952      151.7467625
2017    3       2.00255826      221.8001375
2017    4       1.85607825      236.1428625
2017    5       2.09369887      249.8560375
2017    6       3.57261838      277.181025
2017    7       2.65939388      252.8624875
2017    8       1.38668525      208.1827
2017    9       1.35450925      206.04745
2017    10      1.42084238      210.652425
2017    11      1.0627549       184.4280125
2017    12      1.00405915      181.052675
2017    13      1.205275        200.7419625
2017    14      2.34536138      255.571325
2017    15      2.85063062      267.9622125
2017    16      2.47009275      261.9608875
2017    17      2.17922362      254.2313
2017    18      2.06279275      247.5455375
2017    19      2.60708612      262.5863875
2017    20      2.95842988      269.6810125
2017    21      2.18538563      250.12
2017    22      2.24003025      244.464775
2017    23      2.69452288      264.3578
2017    24      1.95459575      245.1454375
2017    25      2.67209425      269.772
2017    26      2.30363375      259.911125
2017    27      2.229396        256.6411875
2017    28      2.25419962      245.616675
2017    29      0.8799445       163.6689
2017    30      1.38525051      201.6757
2018    1       1.15003421      189.00705
2018    2       1.93220962      242.2744625
2018    3       3.17665888      276.8826125
2018    4       2.95877388      272.4408
2018    5       2.633872        266.7768
2018    6       3.14351975      277.75575
2018    7       2.23090412      251.8209
2018    8       1.46175862      214.03045
2018    9       0.98275544      174.2863625
2018    10      1.34629548      196.3617625
2018    11      3.44749838      275.370125
2018    12      3.90589312      280.9413625
2018    13      3.042498        269.77
2018    14      2.10554038      250.7628
2018    15      2.09420575      250.284975
2018    16      1.78702013      238.3622875
2018    17      2.091528        251.6864375
2018    18      3.442036        276.324125
2018    19      2.52533562      260.390525
2018    20      1.90396388      237.523725
2018    21      1.9225885       239.300375
2018    22      2.03002587      231.8380875
2018    23      0.75021901      147.2591875
2018    24      1.1115114       185.3968125
2018    25      1.77781832      211.663075
2018    26      3.680904        279.6054125
2018    27      1.96180705      222.93055
2018    28      1.51507438      214.740325
2018    29      1.43976312      214.180525
2018    30      1.2107125       190.6277625
