####################################################################################################
# Month: 12Dec                                                                                     #
# Station: YBG                                                                                     #
# Frequency: 345 GHz                                                                               #
# Columns are: year    day     tau     Tb (K)                                                      #
####################################################################################################
2009    1       0.27341859      66.42575
2009    2       0.38932422      86.7464725
2009    3       0.2158541       55.58899
2009    4       0.22475042      57.51712
2009    5       0.25894403      64.00254625
2009    6       0.2254903       56.7851
2009    7       0.17633264      46.88903
2009    8       0.17412666      45.99453
2009    9       0.19382226      50.13861125
2009    10      0.27312268      66.88960875
2009    11      0.26172931      63.82405125
2009    12      0.26992064      65.71351125
2009    13      0.4007942       88.881035
2009    14      0.27099205      64.8061
2009    15      0.35832588      81.19360125
2009    16      0.21161092      54.06111375
2009    17      0.19540714      50.36473875
2009    18      0.26959446      62.2845175
2009    19      0.29740925      68.2551425
2009    20      0.1567268       42.42833625
2009    21      0.1602595       43.32537625
2009    22      0.17063478      45.23915375
2009    23      0.24164354      58.961835
2009    24      0.35824508      79.8851375
2009    25      0.1788648       46.4658575
2009    26      0.17416115      45.33400375
2009    27      0.22472968      56.23446125
2009    28      0.16917378      45.23449625
2009    29      0.1644195       44.5615425
2009    30      0.18439578      48.19677
2009    31      0.33923874      76.49981375
2010    1       0.15907007      43.01809875
2010    2       0.23671035      59.37561875
2010    3       0.24651259      60.770015
2010    4       0.18170551      48.49907
2010    5       0.14076797      39.72167125
2010    6       0.15622299      43.29484875
2010    7       0.18914725      50.683675
2010    8       0.19744842      52.064875
2010    9       0.1808709       48.1630875
2010    10      0.16504372      44.67301875
2010    11      0.15503244      42.096155
2010    12      0.19384079      49.9701925
2010    13      0.19784312      50.8389275
2010    14      0.31148429      72.01771125
2010    15      0.15403514      42.15039875
2010    16      0.20214012      52.63212125
2010    17      0.13093578      37.4601175
2010    18      0.12815192      36.50971125
2010    19      0.13568225      37.63088875
2010    20      0.15059646      40.49396875
2010    21      0.22872754      57.04548625
2010    22      0.24333859      60.10304125
2010    23      0.17770979      46.73988
2010    24      0.18360095      47.80234375
2010    25      0.18710518      48.54000125
2010    26      0.20985529      53.6394525
2010    27      0.14732374      40.86705125
2010    28      0.11209312      33.18236125
2010    29      0.1479253       40.82575625
2010    30      0.19177358      50.55031875
2010    31      0.28817013      68.2468425
2011    1       0.15592173      43.10663375
2011    2       0.23956664      61.12384375
2011    3       0.12822975      37.36201
2011    4       0.12023007      35.4173025
2011    5       0.18187918      48.87617
2011    6       0.2102361       54.84550125
2011    7       0.19068672      50.26657375
2011    8       0.19225445      50.6095125
2011    9       0.17582861      47.3010525
2011    10      0.19384201      50.61116875
2011    11      0.15330695      41.97113625
2011    12      0.13102991      37.46538625
2011    13      0.12071952      35.00667125
2011    14      0.11678106      34.19114375
2011    15      0.1589331       43.36711375
2011    16      0.16753979      44.8287875
2011    17      0.15544474      42.4073075
2011    18      0.18866658      49.9242025
2011    19      0.15580584      42.55689875
2011    20      0.10675678      32.1147475
2011    21      0.11491803      33.80891875
2011    22      0.11590232      33.91288
2011    23      0.16200031      43.60728125
2011    24      0.15209194      41.6046825
2011    25      0.2711397       65.37169375
2011    26      0.20644398      52.89311375
2011    27      0.21252076      54.09498875
2011    28      0.12868524      36.8934025
2011    29      0.12309596      35.78670875
2011    30      0.17319392      47.1436675
2011    31      0.20583341      54.02587625
2012    1       0.15308174      42.0709725
2012    2       0.21316032      54.6193075
2012    3       0.18708672      49.684115
2012    4       0.18857524      50.14264625
2012    5       0.23303446      58.73028125
2012    6       0.26419641      65.1522225
2012    7       0.25448901      62.55366625
2012    8       0.3637479       82.37631875
2012    9       0.17931955      47.56805625
2012    10      0.21299282      54.49390875
2012    11      0.18802386      48.65129375
2012    12      0.19783839      50.7712775
2012    13      0.37709515      83.64015625
2012    14      0.20666109      52.81324625
2012    15      0.1959125       50.8336525
2012    16      0.28821949      69.05060125
2012    17      0.15975363      43.6123475
2012    18      0.21430916      54.7346475
2012    19      0.12657702      36.42955625
2012    20      0.11918607      34.37042
2012    21      0.11283859      32.97802625
2012    22      0.13067704      36.79731875
2012    23      0.10867722      32.34461875
2012    24      0.11774032      34.14152375
2012    25      0.21386132      53.5513975
2012    26      0.16149565      43.26640625
2012    27      0.29844116      70.52261625
2012    28      0.24826464      61.50979625
2012    29      0.16724439      44.90980625
2012    30      0.31855109      74.02135375
2012    31      0.16498489      44.5681925
2013    1       0.37665214      84.30298625
2013    2       0.2641776       64.64789125
2013    3       0.1845636       49.05905125
2013    4       0.13043306      37.05168125
2013    5       0.22109383      55.9422375
2013    6       0.18024312      47.96917625
2013    7       0.24246646      59.87222
2013    8       0.26875535      65.67565125
2013    9       0.22192754      56.26190625
2013    10      0.2142706       54.3386225
2013    11      0.26739751      64.58419625
2013    12      0.34915622      78.7461
2013    13      0.22463488      55.55669625
2013    14      0.1049747       30.48430375
2013    15      0.10919015      31.64565875
2013    16      0.20840531      53.46352625
2013    17      0.23762139      59.53436375
2013    18      0.256851        63.59549625
2013    19      0.17867301      47.4873825
2013    20      0.16519636      44.17383125
2013    21      0.1960421       51.1543025
2013    22      0.17477029      46.5283125
2013    23      0.17969629      47.64426125
2013    24      0.18753434      49.62984625
2013    25      0.17870626      47.9511425
2013    26      0.13215791      37.66411125
2013    27      0.12121932      35.23096125
2013    28      0.21910877      55.649315
2013    29      0.11276669      33.1589675
2013    30      0.12958614      36.86605125
2013    31      0.15547217      42.38513625
2014    1       0.16786276      46.1349125
2014    2       0.23011459      58.71711875
2014    3       0.25412502      64.07022875
2014    4       0.25393681      64.17171375
2014    5       0.17848684      48.09314
2014    6       0.17892189      48.06522875
2014    7       0.20443181      52.9960125
2014    8       0.26638866      65.30132875
2014    9       0.16993654      45.7770525
2014    10      0.15393081      42.20841875
2014    11      0.14507251      39.99597875
2014    12      0.15032484      41.38003
2014    13      0.39281808      86.61913875
2014    14      0.53800482      111.138025
2014    15      0.56704704      114.239045
2014    16      0.45526254      96.28846875
2014    17      0.23364765      56.2879675
2014    18      0.17069471      45.4704825
2014    19      0.26125595      63.36767125
2014    20      0.14717449      40.62457125
2014    21      0.21800446      55.45280625
2014    22      0.20175708      51.41108625
2014    23      0.3139472       73.22016
2014    24      0.18879226      49.51165
2014    25      0.17368238      46.678135
2014    26      0.12934432      37.3646325
2014    27      0.17043488      45.579715
2014    28      0.17489131      46.88496625
2014    29      0.21719499      55.0248
2014    30      0.15057346      41.3393825
2014    31      0.18864925      49.31518625
2015    1       0.23249074      58.71739125
2015    2       0.36364478      82.005715
2015    3       0.30195487      69.67778875
2015    4       0.26731995      64.25251
2015    5       0.33146859      76.91131875
2015    6       0.35902318      81.93745125
2015    7       0.30939374      72.9082125
2015    8       0.24090675      60.057435
2015    9       0.32225194      75.19432875
2015    10      0.24459224      60.9729925
2015    11      0.14183315      39.9421925
2015    12      0.20826312      53.45844
2015    13      0.15811267      43.22558625
2015    14      0.12325075      35.497375
2015    15      0.14882189      40.8941125
2015    16      0.14377823      39.87689875
2015    17      0.15459814      42.35927
2015    18      0.15937939      42.449455
2015    19      0.14344871      39.235075
2015    20      0.17270025      45.53543625
2015    21      0.15562572      41.95614375
2015    22      0.15955674      43.3086975
2015    23      0.13292664      37.79840125
2015    24      0.11117643      32.7095525
2015    25      0.15551099      41.693895
2015    26      0.26850843      65.29088
2015    27      0.35172776      82.016715
2015    28      0.25530725      63.2359775
2015    29      0.20118702      51.5480875
2015    30      0.2046554       52.72813625
2015    31      0.22813552      56.29758375
2016    1       0.34541152      80.6023425
2016    2       0.31088656      72.7698425
2016    3       0.11579204      33.8565875
2016    4       0.22025759      56.05926625
2016    5       0.39012861      87.41299375
2016    6       0.29791199      70.265685
2016    7       0.20782514      54.137045
2016    8       0.23033969      59.20127
2016    9       0.18972988      50.9062425
2016    10      0.20731732      55.18970875
2016    11      0.17403216      48.1338
2016    12      0.15629044      43.77115
2016    13      0.18511451      49.9557
2016    14      0.182852        49.2934275
2016    15      0.1267219       36.559335
2016    16      0.26638558      66.04141625
2016    17      0.31331796      75.43745125
2016    18      0.24695735      62.036685
2016    19      0.28079154      68.93892375
2016    20      0.14789711      41.80212875
2016    21      0.1705202       46.4343525
2016    22      0.26051102      65.673695
2016    23      0.25388318      64.4218625
2016    24      0.3137327       75.961285
2016    25      0.24163948      60.763205
2016    26      0.32229955      73.43492875
2016    27      0.17019294      45.18906375
2016    28      0.31500768      73.653605
2016    29      0.21140598      54.1078075
2016    30      0.44837005      97.05292375
2016    31      0.41363641      90.44614875
2017    1       0.18206652      48.40704375
2017    2       0.18077671      48.69947375
2017    3       0.18771739      49.8656525
2017    4       0.37169931      84.00095375
2017    5       0.7102435       136.5223125
2017    6       0.74913289      140.84076375
2017    7       0.3869708       89.6785225
2017    8       0.23951048      60.16488625
2017    9       0.14482892      41.09207875
2017    10      0.23093708      59.80383625
2017    11      0.2388209       61.6860225
2017    12      0.19351869      51.7766025
2017    13      0.26012869      64.782125
2017    14      0.18552231      49.487815
2017    15      0.13853251      39.18675375
2017    16      0.18102882      48.588935
2017    17      0.14014645      39.70759625
2017    18      0.15499351      42.9430025
2017    19      0.23033199      58.05388875
2017    20      0.4159786       91.9104125
2017    21      0.46618794      100.49955625
2017    22      0.22472486      57.101305
2017    23      0.18859748      49.34976625
2017    24      0.25101822      62.6445875
2017    25      0.25140132      61.64472875
2017    26      0.2131951       53.627785
2017    27      0.26037436      63.61237875
2017    28      0.26273936      64.67184625
2017    29      0.2114912       54.56362625
2017    30      0.19293448      50.58124625
2017    31      0.22291321      56.59355
