####################################################################################################
# Month: 07Jul                                                                                     #
# Station: NOB                                                                                     #
# Frequency: 230 GHz                                                                               #
# Columns are: year    day     segment         tau     Tb (K)                                      #
####################################################################################################
2009    1       0       2.536614        261.8634
2009    1       1       2.482826        261.6092
2009    1       2       2.683243        266.3014
2009    1       3       3.019071        271.263
2009    1       4       2.683824        264.8499
2009    1       5       2.658996        265.8256
2009    1       6       1.945165        243.907
2009    1       7       1.679026        230.6522
2009    2       0       1.932227        240.561
2009    2       1       1.430665        215.5324
2009    2       2       1.45445         217.4391
2009    2       3       1.633403        227.3868
2009    2       4       1.766769        234.3733
2009    2       5       1.823493        237.0592
2009    2       6       1.486605        218.4912
2009    2       7       1.250364        200.9006
2009    3       0       1.263659        202.0183
2009    3       1       1.363605        209.6919
2009    3       2       2.066793        244.2892
2009    3       3       2.153594        246.365
2009    3       4       1.883617        235.717
2009    3       5       1.830353        233.1096
2009    3       6       1.645832        224.8211
2009    3       7       1.5028          217.3785
2009    4       0       1.732217        231.0584
2009    4       1       1.59232         223.8143
2009    4       2       1.616664        224.8435
2009    4       3       1.738561        230.5795
2009    4       4       1.733518        229.8834
2009    4       5       1.505302        217.5371
2009    4       6       1.41649         211.9416
2009    4       7       1.175177        193.4492
2009    5       0       1.302632        204.1141
2009    5       1       1.434672        214.1223
2009    5       2       1.540545        221.0311
2009    5       3       1.556577        222.2991
2009    5       4       1.657193        227.8944
2009    5       5       1.696211        230.086
2009    5       6       1.851476        237.6915
2009    5       7       2.198672        249.8844
2009    6       0       2.51872         258.6868
2009    6       1       2.233797        251.6088
2009    6       2       2.066232        246.6717
2009    6       3       1.921613        241.1223
2009    6       4       1.725962        231.7752
2009    6       5       2.11325         248.212
2009    6       6       2.227679        252.2932
2009    6       7       2.267065        253.5375
2009    7       0       2.235661        252.6834
2009    7       1       2.205981        252.363
2009    7       2       2.107239        249.4116
2009    7       3       1.879724        239.3362
2009    7       4       1.949436        242.7471
2009    7       5       2.004173        244.4569
2009    7       6       2.190585        250.741
2009    7       7       2.200499        251.2067
2009    8       0       2.13394         250.4618
2009    8       1       2.744146        265.1893
2009    8       2       2.677811        265.1466
2009    8       3       2.667127        265.4102
2009    8       4       2.348491        256.635
2009    8       5       2.398999        257.4134
2009    8       6       2.669667        263.2845
2009    8       7       2.994817        269.7211
2009    9       0       2.823661        267.288
2009    9       1       3.039247        270.6273
2009    9       2       3.184895        273.2508
2009    9       3       3.297911        275.0109
2009    9       4       2.662782        265.4942
2009    9       5       2.110891        251.5013
2009    9       6       2.20354         253.769
2009    9       7       2.296201        256.0765
2009    10      0       2.692638        264.93
2009    10      1       2.77104         267.7437
2009    10      2       1.560589        226.9432
2009    10      3       1.440415        219.226
2009    10      4       1.26993         205.6916
2009    10      5       1.220199        201.3519
2009    10      6       1.208684        199.7176
2009    10      7       1.194877        197.8927
2009    11      0       1.24675         201.4897
2009    11      1       1.228843        199.857
2009    11      2       1.400204        212.357
2009    11      3       1.414972        213.7225
2009    11      4       1.366438        210.2301
2009    11      5       1.284644        203.8662
2009    11      6       1.282288        202.9588
2009    11      7       1.572927        221.4029
2009    12      0       1.687144        228.1138
2009    12      1       2.046071        245.1291
2009    12      2       2.543281        261.2211
2009    12      3       2.533834        261.0283
2009    12      4       2.047343        248.0237
2009    12      5       1.746496        235.8756
2009    12      6       1.858942        239.5869
2009    12      7       2.277483        254.2781
2009    13      0       2.354675        257.3524
2009    13      1       2.366773        258.6859
2009    13      2       2.295748        257.0959
2009    13      3       1.726414        235.0639
2009    13      4       1.581527        226.8966
2009    13      5       1.282022        205.9928
2009    13      6       1.465462        218.1227
2009    13      7       1.406201        213.857
2009    14      0       1.994741        244.6966
2009    14      1       2.404921        258.3005
2009    14      2       2.53537         262.2347
2009    14      3       2.804312        267.548
2009    14      4       2.421962        259.3777
2009    14      5       2.2817          256.7137
2009    14      6       1.863732        241.578
2009    14      7       1.334914        210.5343
2009    15      0       1.508255        222.5684
2009    15      1       1.60711         229.1035
2009    15      2       1.864756        242.9833
2009    15      3       2.365454        259.46
2009    15      4       2.475928        261.4649
2009    15      5       2.319799        256.8334
2009    15      6       1.024343        183.669
2009    15      7       0.6644554       140.9126
2009    16      0       0.945153        175.808
2009    16      1       1.144159        196.0992
2009    16      2       1.579855        226.7582
2009    16      3       2.013961        244.8442
2009    16      4       2.080635        246.3646
2009    16      5       1.912928        240.0165
2009    16      6       2.213139        252.0608
2009    16      7       2.057802        246.8594
2009    17      0       2.182194        249.9919
2009    17      1       2.062751        247.9584
2009    17      2       2.510187        261.0627
2009    17      3       2.427293        258.6209
2009    17      4       2.340494        255.6621
2009    17      5       2.869917        266.6856
2009    17      6       2.416768        256.2896
2009    17      7       2.565272        260.4376
2009    18      0       2.518493        260.623
2009    18      1       2.618891        262.8683
2009    18      2       2.269385        254.2144
2009    18      3       2.199983        251.4855
2009    18      4       2.323404        256.4618
2009    18      5       2.370703        258.2468
2009    18      6       2.175886        251.285
2009    18      7       2.769865        266.3161
2009    19      0       2.55693         261.1842
2009    19      1       2.281196        255.1231
2009    19      2       2.339162        257.8165
2009    19      3       2.102997        250.5166
2009    19      4       1.262279        205.3838
2009    19      5       0.956996        176.9183
2009    19      6       0.8703527       166.49
2009    19      7       1.014117        181.4265
2009    20      0       1.318376        207.634
2009    20      1       1.52086         222.1116
2009    20      2       1.649588        230.368
2009    20      3       1.794407        237.9762
2009    20      4       1.905109        242.8875
2009    20      5       2.291251        256.0071
2009    20      6       2.520571        262.6189
2009    20      7       2.803661        268.383
2009    21      0       2.96462         270.3716
2009    21      1       2.681848        264.8195
2009    21      2       2.61271         262.1383
2009    21      3       3.147001        271.9822
2009    21      4       2.589305        263.3602
2009    21      5       1.907193        241.7606
2009    21      6       2.215779        251.3429
2009    21      7       1.658558        229.5669
2009    22      0       1.479332        219.3177
2009    22      1       1.572946        224.9956
2009    22      2       1.717745        232.8197
2009    22      3       1.725227        233.1058
2009    22      4       1.648976        229.8038
2009    22      5       1.895565        242.2794
2009    22      6       2.093689        249.8941
2009    22      7       1.91419         242.5052
2009    23      0       1.720548        234.6142
2009    23      1       1.797136        238.7995
2009    23      2       1.844451        241.2661
2009    23      3       2.026402        248.3114
2009    23      4       2.241724        255.8327
2009    23      5       1.861559        241.6583
2009    23      6       1.219393        201.6744
2009    23      7       1.957253        244.8411
2009    24      0       2.175744        252.2335
2009    24      1       1.777187        235.9905
2009    24      2       2.451643        260.0133
2009    24      3       2.645959        264.5329
2009    24      4       2.184987        252.3844
2009    24      5       1.984863        245.5565
2009    24      6       1.715437        232.2025
2009    24      7       2.121767        249.0252
2009    25      0       2.326667        255.5869
2009    25      1       2.50381         260.3374
2009    25      2       2.783955        266.3082
2009    25      3       2.726289        265.0296
2009    25      4       2.425012        257.7557
2009    25      5       2.862441        267.8116
2009    25      6       2.422641        258.3241
2009    25      7       2.386695        255.7758
2009    26      0       2.218766        250.643
2009    26      1       2.203322        250.6098
2009    26      2       2.108623        248.5147
2009    26      3       2.038241        246.6385
2009    26      4       1.980515        244.5287
2009    26      5       2.111221        249.0647
2009    26      6       2.354255        256.0026
2009    26      7       2.462321        258.3127
2009    27      0       2.197416        250.8046
2009    27      1       2.305214        253.8675
2009    27      2       2.261046        253.2125
2009    27      3       2.225571        253.3547
2009    27      4       2.1188          249.8989
2009    27      5       1.925305        243.6535
2009    27      6       1.812135        237.9128
2009    27      7       1.903576        241.6094
2009    28      0       2.029157        246.706
2009    28      1       2.579548        261.5862
2009    28      2       2.863457        267.0232
2009    28      3       2.957976        268.9556
2009    28      4       2.983428        269.6461
2009    28      5       2.814572        266.8757
2009    28      6       2.924926        268.9332
2009    28      7       2.797608        268.0058
2009    29      0       3.178439        273.5222
2009    29      1       3.56751         277.8148
2009    29      2       3.071954        272.8675
2009    29      3       2.870348        270.1914
2009    29      4       2.936157        271.027
2009    29      5       3.013929        271.9428
2009    29      6       2.907452        269.9297
2009    29      7       2.6445          265.8727
2009    30      0       2.580846        265.1233
2009    30      1       2.515906        264.1344
2009    30      2       2.407861        261.5865
2009    30      3       2.59447         265.9908
2009    30      4       2.540686        264.1053
2009    30      5       2.303067        257.0844
2009    30      6       1.934901        244.6425
2009    30      7       2.017602        247.6158
2009    31      0       2.517991        262.2956
2009    31      1       2.626461        265.5398
2009    31      2       2.773258        268.6529
2009    31      3       2.7497          268.0424
2009    31      4       2.524933        263.1943
2009    31      5       2.231342        255.0728
2009    31      6       2.180398        252.9901
2009    31      7       2.085411        249.432
2010    1       0       1.434793        215.7073
2010    1       1       1.710398        231.9906
2010    1       2       2.141098        250.0836
2010    1       3       2.400233        257.3107
2010    1       4       2.411378        257.9845
2010    1       5       2.261243        253.9078
2010    1       6       2.355119        255.3973
2010    1       7       2.484784        258.5402
2010    2       0       2.320068        254.6994
2010    2       1       2.106622        247.8806
2010    2       2       2.437833        258.1207
2010    2       3       2.761151        265.5546
2010    2       4       2.418057        258.198
2010    2       5       2.354703        255.2244
2010    2       6       1.8105          235.6015
2010    2       7       1.750248        232.9345
2010    3       0       2.133005        248.5202
2010    3       1       2.42763         257.9438
2010    3       2       2.605276        262.7357
2010    3       3       3.20653         272.8801
2010    3       4       2.49716         261.5989
2010    3       5       2.725837        265.9234
2010    3       6       2.857748        270.0731
2010    3       7       2.344527        258.5534
2010    4       0       2.519205        263.0163
2010    4       1       2.418178        261.0795
2010    4       2       2.393498        260.524
2010    4       3       2.443422        261.7488
2010    4       4       2.215377        254.8379
2010    4       5       1.933967        244.1473
2010    4       6       1.778397        237.7937
2010    4       7       1.691644        233.7244
2010    5       0       1.874128        241.7445
2010    5       1       1.809368        239.1877
2010    5       2       2.013389        247.3591
2010    5       3       2.258403        254.7484
2010    5       4       2.074119        248.2085
2010    5       5       1.779178        235.2784
2010    5       6       1.595291        224.0785
2010    5       7       1.680838        228.2983
2010    6       0       1.879267        238.6575
2010    6       1       1.885714        240.8742
2010    6       2       2.076793        248.1968
2010    6       3       2.241277        253.6592
2010    6       4       2.476171        258.3983
2010    6       5       2.459522        258.623
2010    6       6       2.468977        258.6344
2010    6       7       2.201688        250.6013
2010    7       0       1.69911         230.3958
2010    7       1       1.451341        216.2538
2010    7       2       1.520266        220.2606
2010    7       3       1.958853        240.8896
2010    7       4       1.765251        232.4865
2010    7       5       1.176973        196.2238
2010    7       6       0.8912063       167.8515
2010    7       7       0.7977746       155.8293
2010    8       0       0.9937349       178.1493
2010    8       1       1.111929        190.6948
2010    8       2       1.269709        204.3388
2010    8       3       1.35685         210.6784
2010    8       4       1.342879        209.6898
2010    8       5       1.345078        209.3881
2010    8       6       1.294639        204.9928
2010    8       7       1.530667        220.1987
2010    9       0       2.316273        253.0124
2010    9       1       1.938282        239.2508
2010    9       2       1.719121        229.6238
2010    9       3       1.871384        236.5948
2010    9       4       2.518955        257.9905
2010    9       5       2.089938        246.0655
2010    9       6       1.274812        204.4105
2010    9       7       1.209918        198.7863
2010    10      0       1.336594        208.5676
2010    10      1       1.613061        226.365
2010    10      2       1.65621         228.714
2010    10      3       1.525668        221.7537
2010    10      4       1.488692        219.5732
2010    10      5       1.249009        202.4338
2010    10      6       1.214643        198.7699
2010    10      7       1.589668        224.3244
2010    11      0       2.247489        252.1249
2010    11      1       2.49397         259.0199
2010    11      2       2.559375        260.8435
2010    11      3       2.563683        261.1571
2010    11      4       2.619426        262.8934
2010    11      5       2.665599        264.196
2010    11      6       2.861536        267.8132
2010    11      7       2.785834        266.5139
2010    12      0       2.785146        266.6888
2010    12      1       2.676914        265.7007
2010    12      2       2.506312        262.9968
2010    12      3       1.826379        240.3113
2010    12      4       1.652259        231.1333
2010    12      5       1.976963        245.5769
2010    12      6       3.140624        272.055
2010    12      7       2.813351        265.8761
2010    13      0       2.451605        258.1126
2010    13      1       2.755822        264.7351
2010    13      2       2.691199        262.9842
2010    13      3       2.45443         257.0701
2010    13      4       2.44656         257.3515
2010    13      5       2.443422        257.5691
2010    13      6       2.647137        261.6275
2010    13      7       2.612778        261.0808
2010    14      0       2.531185        259.3411
2010    14      1       2.372109        255.702
2010    14      2       2.429282        257.5067
2010    14      3       2.271615        252.6759
2010    14      4       2.259585        252.4089
2010    14      5       2.358585        255.0959
2010    14      6       2.319358        253.7234
2010    14      7       2.246496        251.3498
2010    15      0       2.293479        252.5465
2010    15      1       2.386452        255.5434
2010    15      2       2.37004         255.0854
2010    15      3       2.279789        252.3657
2010    15      4       2.039634        244.0751
2010    15      5       1.810441        233.6662
2010    15      6       1.673242        227.5071
2010    15      7       1.629259        225.8502
2010    16      0       1.613477        225.2655
2010    16      1       2.275847        252.1516
2010    16      2       2.228562        250.9714
2010    16      3       2.125669        247.9318
2010    16      4       1.958373        241.5392
2010    16      5       1.584079        223.7039
2010    16      6       1.351446        208.4348
2010    16      7       1.396633        211.1723
2010    17      0       1.641872        226.2345
2010    17      1       1.6451          227.0218
2010    17      2       1.763862        233.6341
2010    17      3       1.761431        233.5443
2010    17      4       1.676797        229.5214
2010    17      5       1.450463        216.4085
2010    17      6       1.173274        196.6626
2010    17      7       0.9967903       179.8625
2010    18      0       1.05519         185.9505
2010    18      1       1.28104         206.3048
2010    18      2       1.476849        220.435
2010    18      3       1.51381         222.5864
2010    18      4       1.442651        217.9995
2010    18      5       1.166064        196.7754
2010    18      6       1.043798        184.5993
2010    18      7       1.210413        199.2838
2010    19      0       1.514324        221.5011
2010    19      1       1.681887        232.6991
2010    19      2       1.946072        245.5969
2010    19      3       2.31251         257.4778
2010    19      4       2.456145        261.1178
2010    19      5       1.976793        246.2428
2010    19      6       1.741587        235.5187
2010    19      7       1.553582        224.9738
2010    20      0       1.684998        232.3341
2010    20      1       1.878131        242.2229
2010    20      2       2.007231        248.095
2010    20      3       1.901798        244.2181
2010    20      4       1.913884        244.3928
2010    20      5       1.955964        245.7656
2010    20      6       1.786835        237.9864
2010    20      7       1.471803        219.9417
2010    21      0       1.584799        226.7893
2010    21      1       1.671093        232.3007
2010    21      2       1.740888        236.6692
2010    21      3       1.785145        239.1706
2010    21      4       1.749961        237.4699
2010    21      5       2.009153        248.1637
2010    21      6       2.278994        255.8168
2010    21      7       1.730117        234.6351
2010    22      0       1.465041        220.163
2010    22      1       1.421965        218.3181
2010    22      2       1.441366        220.3485
2010    22      3       1.675528        233.6783
2010    22      4       1.766445        237.8291
2010    22      5       1.561152        226.5647
2010    22      6       1.27567         206.3114
2010    22      7       1.336899        210.8279
2010    23      0       1.443169        218.1497
2010    23      1       1.523726        223.8271
2010    23      2       1.527493        224.4241
2010    23      3       1.606778        228.778
2010    23      4       1.527358        224.3098
2010    23      5       1.480943        221.2455
2010    23      6       1.339914        210.6636
2010    23      7       1.322399        208.9259
2010    24      0       1.502082        221.0859
2010    24      1       1.717638        233.2348
2010    24      2       1.768522        236.1903
2010    24      3       1.667623        231.3896
2010    24      4       1.734972        233.9987
2010    24      5       1.763748        234.4157
2010    24      6       1.724828        232.1139
2010    24      7       1.651653        228.7722
2010    25      0       1.710142        231.9019
2010    25      1       1.936507        242.2706
2010    25      2       2.056219        246.9903
2010    25      3       2.029953        245.9834
2010    25      4       1.866541        238.7983
2010    25      5       1.806666        235.6274
2010    25      6       1.658485        228.2592
2010    25      7       1.532414        220.8978
2010    26      0       1.696278        230.5707
2010    26      1       1.851603        238.4712
2010    26      2       1.907292        241.4597
2010    26      3       1.888089        241.1403
2010    26      4       1.768309        235.5096
2010    26      5       1.654091        229.3913
2010    26      6       1.348503        210.5657
2010    26      7       1.365462        211.6126
2010    27      0       1.582897        225.9296
2010    27      1       1.724028        233.7611
2010    27      2       1.697868        232.6721
2010    27      3       1.620837        228.5604
2010    27      4       1.5162          222.0219
2010    27      5       1.397781        214.2811
2010    27      6       1.223432        200.9762
2010    27      7       1.330357        209.0905
2010    28      0       1.71412         232.5087
2010    28      1       2.009756        245.3822
2010    28      2       2.068201        247.3718
2010    28      3       2.048633        246.6407
2010    28      4       1.727172        231.4174
2010    28      5       1.774849        233.8459
2010    28      6       1.911459        239.6084
2010    28      7       2.254066        251.8495
2010    29      0       2.373317        255.7444
2010    29      1       2.831019        267.2463
2010    29      2       3.205382        272.8083
2010    29      3       2.554799        261.793
2010    29      4       2.827504        267.8305
2010    29      5       2.437561        259.1024
2010    29      6       2.236574        253.0085
2010    29      7       2.092897        249.6227
2010    30      0       3.170289        273.4823
2010    30      1       2.60806         264.7611
2010    30      2       2.746732        267.512
2010    30      3       2.770453        268.2559
2010    30      4       2.727268        267.0922
2010    30      5       3.324595        275.8294
2010    30      6       2.566774        263.8654
2010    30      7       2.379602        258.7099
2010    31      0       2.806595        268.3173
2010    31      1       2.488854        263.0159
2010    31      2       2.709928        268.3931
2010    31      3       3.133348        274.7612
2010    31      4       3.186785        275.7847
2010    31      5       2.747404        269.5291
2010    31      6       2.394871        261.2364
2010    31      7       2.454876        262.2684
2011    1       0       2.279029        252.8482
2011    1       1       2.265291        253.3884
2011    1       2       2.253583        254.1364
2011    1       3       2.842708        267.7828
2011    1       4       2.714257        265.635
2011    1       5       2.241119        254.2257
2011    1       6       2.195837        253.0192
2011    1       7       2.041118        247.5447
2011    2       0       2.129386        250.8576
2011    2       1       2.096741        250.2562
2011    2       2       2.475159        261.1276
2011    2       3       2.78787         267.2541
2011    2       4       3.288344        274.6703
2011    2       5       2.727925        266.177
2011    2       6       2.251115        254.5099
2011    2       7       1.762006        236.0083
2011    3       0       1.961118        244.6272
2011    3       1       1.820955        239.2655
2011    3       2       1.887524        242.1309
2011    3       3       2.253638        254.9789
2011    3       4       2.605048        263.417
2011    3       5       2.66654         265.5135
2011    3       6       2.152695        252.7813
2011    3       7       1.947942        244.2458
2011    4       0       2.287633        256.3659
2011    4       1       2.660662        265.6418
2011    4       2       2.736038        266.129
2011    4       3       2.793022        266.7821
2011    4       4       2.331701        257.411
2011    4       5       1.660237        229.704
2011    4       6       1.620292        228.8671
2011    4       7       2.748415        265.0474
2011    5       0       1.507382        221.8136
2011    5       1       1.304275        207.6456
2011    5       2       1.436286        216.7099
2011    5       3       1.253421        204.147
2011    5       4       0.9737132       178.3183
2011    5       5       0.7199976       147.9583
2011    5       6       0.6579641       139.0308
2011    5       7       0.757851        152.6201
2011    6       0       0.964729        177.4885
2011    6       1       1.132276        194.1595
2011    6       2       1.291944        206.9896
2011    6       3       1.409885        214.8752
2011    6       4       1.649834        228.0748
2011    6       5       2.409503        257.6555
2011    6       6       2.818819        266.5167
2011    6       7       2.572145        261.8486
2011    7       0       2.803761        267.0854
2011    7       1       2.866201        268.8688
2011    7       2       2.934419        269.2803
2011    7       3       2.844019        267.596
2011    7       4       3.019423        270.937
2011    7       5       3.091083        272.0838
2011    7       6       2.502714        261.3005
2011    7       7       2.022441        246.672
2011    8       0       2.124445        250.0839
2011    8       1       2.187737        253.2487
2011    8       2       2.35108         258.6974
2011    8       3       2.632345        265.0849
2011    8       4       2.625556        264.1216
2011    8       5       2.425426        259.586
2011    8       6       2.179311        252.367
2011    8       7       2.081829        248.6487
2011    9       0       2.204955        252.9455
2011    9       1       2.293267        256.1775
2011    9       2       2.39534         259.3914
2011    9       3       2.592845        263.6688
2011    9       4       2.819645        267.3233
2011    9       5       2.348071        257.4149
2011    9       6       1.856197        240.2637
2011    9       7       1.734218        234.262
2011    10      0       1.858638        240.7127
2011    10      1       2.01567         247.6137
2011    10      2       2.296009        256.6288
2011    10      3       2.328095        257.5308
2011    10      4       2.274672        256.2793
2011    10      5       2.205253        254.0517
2011    10      6       2.164972        252.7023
2011    10      7       2.057284        249.0124
2011    11      0       1.837993        240.4492
2011    11      1       1.922118        244.231
2011    11      2       2.156038        252.5939
2011    11      3       2.158888        252.4843
2011    11      4       1.964623        245.3531
2011    11      5       1.725019        234.4972
2011    11      6       1.443372        217.7058
2011    11      7       1.378328        212.8908
2011    12      0       1.447969        217.638
2011    12      1       1.50143         221.6979
2011    12      2       1.890849        241.5532
2011    12      3       2.199066        252.2857
2011    12      4       2.249601        254.491
2011    12      5       2.069113        249.1666
2011    12      6       2.112008        250.0667
2011    12      7       1.993659        245.6313
2011    13      0       1.984981        245.4392
2011    13      1       1.938544        244.4452
2011    13      2       2.102181        250.7104
2011    13      3       2.200739        254.5065
2011    13      4       2.309217        257.4579
2011    13      5       2.344789        258.1267
2011    13      6       2.192867        253.5872
2011    13      7       2.086106        249.9182
2011    14      0       2.026823        248.2662
2011    14      1       1.811008        240.1298
2011    14      2       1.876293        243.1755
2011    14      3       1.897973        243.914
2011    14      4       1.906512        244.6257
2011    14      5       1.990902        247.9535
2011    14      6       1.7404          236.6388
2011    14      7       1.675071        233.0371
2011    15      0       1.838778        241.2562
2011    15      1       1.681334        233.9785
2011    15      2       1.756843        238.1449
2011    15      3       1.88918         244.1786
2011    15      4       2.016537        249.6282
2011    15      5       1.775819        239.0946
2011    15      6       1.771547        238.8228
2011    15      7       1.766293        238.572
2011    16      0       1.84449         242.1705
2011    16      1       1.85267         243.4833
2011    16      2       2.090155        252.6013
2011    16      3       2.394484        261.0805
2011    16      4       2.411386        261.8758
2011    16      5       2.130274        254.0803
2011    16      6       1.966757        248.2541
2011    16      7       2.008572        249.3445
2011    17      0       2.079751        252.1158
2011    17      1       1.936634        247.2153
2011    17      2       2.005049        249.3652
2011    17      3       1.835646        242.578
2011    17      4       1.797099        240.6125
2011    17      5       1.626386        231.464
2011    17      6       1.54639         225.7099
2011    17      7       1.715503        233.5672
2011    18      0       1.899732        241.3991
2011    18      1       1.912355        242.4404
2011    18      2       2.291275        255.1603
2011    18      3       2.362628        256.5744
2011    18      4       2.184582        251.5435
2011    18      5       2.409378        258.0874
2011    18      6       2.717092        264.5515
2011    18      7       2.49695         259.3145
2011    19      0       2.245042        252.4979
2011    19      1       2.645984        263.792
2011    19      2       3.046501        271.7787
2011    19      3       2.962737        270.2934
2011    19      4       2.517321        260.7942
2011    19      5       2.829627        268.6658
2011    19      6       3.116978        273.7855
2011    19      7       2.916536        270.8323
2011    20      0       2.759348        268.6741
2011    20      1       2.665346        268.2593
2011    20      2       2.833822        272.0979
2011    20      3       3.033053        274.9803
2011    20      4       3.05812         275.152
2011    20      5       2.752667        269.0021
2011    20      6       2.439366        261.6762
2011    20      7       1.924054        244.493
2011    21      0       1.701403        237.5194
2011    21      1       1.682427        233.4137
2011    21      2       1.692572        234.4098
2011    21      3       1.791229        238.9428
2011    21      4       1.562019        228.236
2011    21      5       1.692542        235.2723
2011    21      6       1.691953        235.0814
2011    21      7       1.744723        236.692
2011    22      0       1.875476        242.6477
2011    22      1       1.696268        235.2506
2011    22      2       2.102899        251.6616
2011    22      3       2.594044        264.0183
2011    22      4       2.130429        251.1388
2011    22      5       1.978953        245.7671
2011    22      6       2.007938        246.5383
2011    22      7       1.828391        239.2227
2011    23      0       1.867798        241.2724
2011    23      1       1.66503         232.231
2011    23      2       1.934839        244.5297
2011    23      3       2.850772        268.7223
2011    23      4       1.857905        240.3704
2011    23      5       1.897252        242.1078
2011    23      6       1.927332        242.6163
2011    23      7       1.739334        233.5385
2011    24      0       1.948868        242.9916
2011    24      1       2.032026        246.3333
2011    24      2       2.215379        252.397
2011    24      3       2.387687        256.9078
2011    24      4       1.993442        244.476
2011    24      5       1.894154        240.702
2011    24      6       1.765755        234.3252
2011    24      7       1.824558        236.1039
2011    25      0       2.032133        244.5552
2011    25      1       2.201849        250.9664
2011    25      2       2.105101        248.5422
2011    25      3       2.254546        253.3346
2011    25      4       2.03912         246.0488
2011    25      5       1.807313        235.8707
2011    25      6       1.698126        230.415
2011    25      7       1.574573        223.372
2011    26      0       1.847499        237.5472
2011    26      1       2.301014        254.8956
2011    26      2       2.381778        257.7612
2011    26      3       2.426633        259.0459
2011    26      4       3.022408        270.0878
2011    26      5       2.713575        265.0436
2011    26      6       2.650855        263.2601
2011    26      7       2.603385        261.7962
2011    27      0       2.395074        257.6193
2011    27      1       2.899902        268.2619
2011    27      2       2.546125        260.9835
2011    27      3       2.409884        257.1436
2011    27      4       2.475368        258.4995
2011    27      5       2.666178        263.0438
2011    27      6       2.732881        264.7598
2011    27      7       3.05171         270.7824
2011    28      0       2.642929        264.236
2011    28      1       2.447724        260.1354
2011    28      2       2.477558        260.2968
2011    28      3       2.468835        259.6164
2011    28      4       2.206405        251.967
2011    28      5       1.932655        241.9289
2011    28      6       1.983434        244.2671
2011    28      7       2.42617         257.8764
2011    29      0       2.4731          259.2423
2011    29      1       2.710754        265.3434
2011    29      2       2.794462        267.2891
2011    29      3       2.956556        269.9207
2011    29      4       2.652829        264.589
2011    29      5       2.132289        250.8008
2011    29      6       2.190697        252.0695
2011    29      7       2.196108        252.5316
2011    30      0       2.311713        256.3667
2011    30      1       2.356692        258.782
2011    30      2       2.620709        265.3823
2011    30      3       2.68274         266.1758
2011    30      4       2.808486        268.1901
2011    30      5       2.136266        250.5833
2011    30      6       2.019088        246.676
2011    30      7       2.037007        246.7046
2011    31      0       2.618547        262.292
2011    31      1       2.679132        263.6291
2011    31      2       2.744461        265.1824
2011    31      3       2.961208        269.3983
2011    31      4       2.718529        265.3943
2011    31      5       2.484315        260.1951
2011    31      6       2.296661        255.1615
2011    31      7       2.267052        254.7252
2012    1       0       2.411175        256.4877
2012    1       1       2.706947        263.5413
2012    1       2       2.893913        267.2596
2012    1       3       2.724859        265.0791
2012    1       4       2.955697        269.0258
2012    1       5       2.156221        251.0285
2012    1       6       2.118879        249.8604
2012    1       7       1.554367        223.7497
2012    2       0       1.229375        201.8677
2012    2       1       1.043047        186.9525
2012    2       2       1.053235        188.5061
2012    2       3       1.102699        192.9396
2012    2       4       1.251729        205.073
2012    2       5       1.209013        201.0296
2012    2       6       1.068818        187.4304
2012    2       7       1.098998        188.6082
2012    3       0       1.726566        230.6867
2012    3       1       2.379471        254.9246
2012    3       2       2.887078        266.1601
2012    3       3       2.814427        265.7031
2012    3       4       2.917549        267.348
2012    3       5       2.712888        263.7603
2012    3       6       1.431401        215.3551
2012    3       7       1.1327          192.5929
2012    4       0       1.222917        201.1948
2012    4       1       1.348702        211.4971
2012    4       2       1.44014         217.9571
2012    4       3       1.666733        230.8859
2012    4       4       2.083565        247.0094
2012    4       5       2.567595        259.3982
2012    4       6       2.338814        254.6936
2012    4       7       2.061902        246.9724
2012    5       0       2.104478        247.7972
2012    5       1       2.035907        245.3495
2012    5       2       1.913303        240.5219
2012    5       3       1.925636        240.1973
2012    5       4       1.849839        236.4566
2012    5       5       1.749773        231.7956
2012    5       6       2.471671        257.1896
2012    5       7       2.464439        257.2562
2012    6       0       2.664146        262.0598
2012    6       1       2.229706        250.1782
2012    6       2       2.259477        251.9713
2012    6       3       2.751075        264.5499
2012    6       4       2.969645        268.5082
2012    6       5       2.946858        269.1877
2012    6       6       2.66918         265.0996
2012    6       7       2.239767        254.5571
2012    7       0       1.889524        241.7711
2012    7       1       2.010484        245.9001
2012    7       2       2.227538        252.609
2012    7       3       1.934777        241.712
2012    7       4       1.808156        235.5826
2012    7       5       1.881318        238.0669
2012    7       6       2.358638        254.8054
2012    7       7       1.778001        233.7827
2012    8       0       1.61275         226.0169
2012    8       1       1.376732        212.2667
2012    8       2       1.653449        229.1985
2012    8       3       1.911214        240.9378
2012    8       4       2.346143        255.8461
2012    8       5       2.445454        257.8128
2012    8       6       2.341427        254.7228
2012    8       7       2.161377        249.1365
2012    9       0       2.050977        246.0518
2012    9       1       1.868778        239.233
2012    9       2       2.246325        252.9444
2012    9       3       2.711329        264.1035
2012    9       4       2.739473        264.4786
2012    9       5       2.448665        258.3738
2012    9       6       2.182888        250.8281
2012    9       7       2.049579        246.1776
2012    10      0       1.914958        241.5376
2012    10      1       1.962743        243.5824
2012    10      2       1.766399        235.7664
2012    10      3       1.533649        223.6239
2012    10      4       1.346215        211.7262
2012    10      5       1.153768        195.951
2012    10      6       0.9487265       175.6087
2012    10      7       0.6634626       139.3893
2012    11      0       0.5844161       126.7818
2012    11      1       1.078493        187.6673
2012    11      2       2.081031        248.2087
2012    11      3       2.08446         247.9579
2012    11      4       2.111089        248.8814
2012    11      5       2.447505        258.8193
2012    11      6       2.521843        260.8426
2012    11      7       2.598557        262.6845
2012    12      0       2.473429        259.1074
2012    12      1       2.367055        257.3296
2012    12      2       2.113932        250.8099
2012    12      3       2.114338        250.4946
2012    12      4       2.036021        247.7615
2012    12      5       2.099583        249.7275
2012    12      6       2.752901        266.1562
2012    12      7       2.415166        256.8696
2012    13      0       1.986742        241.9633
2012    13      1       1.918415        239.8863
2012    13      2       2.041788        245.503
2012    13      3       2.186112        250.1705
2012    13      4       2.388244        256.5671
2012    13      5       2.861704        267.3397
2012    13      6       2.771899        264.9515
2012    13      7       2.456721        258.5057
2012    14      0       2.0804          247.7603
2012    14      1       1.859701        239.908
2012    14      2       1.782018        236.3645
2012    14      3       1.934002        242.6636
2012    14      4       2.444642        258.4055
2012    14      5       2.488366        259.2461
2012    14      6       2.13691         249.2698
2012    14      7       2.215038        251.635
2012    15      0       2.46185         259.0927
2012    15      1       2.368772        257.659
2012    15      2       2.219466        253.9756
2012    15      3       2.285858        255.391
2012    15      4       2.342935        257.7371
2012    15      5       1.907609        243.3402
2012    15      6       1.778409        237.2759
2012    15      7       1.650128        230.3768
2012    16      0       1.434623        217.5522
2012    16      1       1.63275         230.1916
2012    16      2       2.060637        249.5263
2012    16      3       2.149072        252.2317
2012    16      4       1.800056        238.177
2012    16      5       1.71704         233.9848
2012    16      6       1.821691        238.3434
2012    16      7       1.619017        228.266
2012    17      0       1.631258        229.5092
2012    17      1       1.627467        230.1594
2012    17      2       1.720908        235.5551
2012    17      3       1.864016        242.1851
2012    17      4       1.822611        240.0306
2012    17      5       1.562821        226.7455
2012    17      6       1.354657        212.8649
2012    17      7       1.345676        211.839
2012    18      0       1.528038        223.8964
2012    18      1       1.720607        234.5378
2012    18      2       1.789461        238.0238
2012    18      3       1.945077        244.4236
2012    18      4       2.124705        250.7313
2012    18      5       1.905569        241.7537
2012    18      6       1.589563        225.8791
2012    18      7       1.490606        220.2552
2012    19      0       1.744107        234.8802
2012    19      1       2.038443        247.8065
2012    19      2       2.165974        252.1776
2012    19      3       2.093529        249.6413
2012    19      4       1.79258         237.1455
2012    19      5       1.644794        229.4551
2012    19      6       1.788721        236.0909
2012    19      7       2.123347        249.2158
2012    20      0       2.607937        263.2123
2012    20      1       2.990501        269.4419
2012    20      2       2.761782        265.545
2012    20      3       2.881794        267.4589
2012    20      4       2.334142        256.6351
2012    20      5       2.241238        254.0053
2012    20      6       1.60668         227.5506
2012    20      7       1.939625        242.8516
2012    21      0       2.31971         255.3218
2012    21      1       2.700344        264.0386
2012    21      2       3.034677        270.2417
2012    21      3       2.999621        269.2433
2012    21      4       2.459505        259.3886
2012    21      5       2.135866        250.2796
2012    21      6       1.884222        240.8733
2012    21      7       1.935095        242.6182
2012    22      0       1.942669        242.531
2012    22      1       1.949989        242.9367
2012    22      2       2.308841        254.7966
2012    22      3       2.741279        265.0893
2012    22      4       2.90618         267.9283
2012    22      5       2.829946        266.1789
2012    22      6       2.559346        260.3206
2012    22      7       1.890518        239.3898
2012    23      0       1.518202        221.1326
2012    23      1       1.391818        214.1904
2012    23      2       1.501401        221.747
2012    23      3       1.538015        224.1284
2012    23      4       1.713711        233.6625
2012    23      5       1.862067        240.2021
2012    23      6       1.95713         243.7216
2012    23      7       2.079429        247.7368
2012    24      0       2.22292         252.4888
2012    24      1       2.381262        257.4787
2012    24      2       2.541845        261.1918
2012    24      3       2.328014        256.6047
2012    24      4       1.992141        246.6346
2012    24      5       1.939544        244.8738
2012    24      6       2.025486        247.6735
2012    24      7       1.968539        244.5579
2012    25      0       2.122055        249.6337
2012    25      1       2.217071        252.9904
2012    25      2       2.193725        252.7964
2012    25      3       2.048041        248.3664
2012    25      4       1.86251         240.981
2012    25      5       1.687516        232.7555
2012    25      6       1.506415        221.7787
2012    25      7       1.382121        213.0991
2012    26      0       1.4433          218.0422
2012    26      1       1.46083         220.4809
2012    26      2       1.462962        221.4881
2012    26      3       1.560163        227.6655
2012    26      4       1.622392        230.9005
2012    26      5       1.61576         230.0596
2012    26      6       1.636532        230.4987
2012    26      7       1.529018        222.889
2012    27      0       1.637896        228.9849
2012    27      1       1.71399         234.2289
2012    27      2       1.71413         235.6437
2012    27      3       1.753183        238.3489
2012    27      4       1.917564        245.9896
2012    27      5       2.009305        249.0542
2012    27      6       2.14275         252.8102
2012    27      7       2.095939        250.3375
2012    28      0       1.949848        245.0793
2012    28      1       1.851637        242.1401
2012    28      2       2.23072         256.5391
2012    28      3       2.493697        263.0258
2012    28      4       2.725642        267.3976
2012    28      5       2.428133        260.6449
2012    28      6       1.816057        239.474
2012    28      7       1.557251        225.8494
2012    29      0       1.87085         241.7672
2012    29      1       2.32318         257.7967
2012    29      2       2.687031        266.2984
2012    29      3       2.984608        271.6698
2012    29      4       3.305424        275.8996
2012    29      5       2.776483        267.8852
2012    29      6       2.230605        253.513
2012    29      7       1.861973        240.9086
2012    30      0       1.897183        242.5047
2012    30      1       1.85668         240.9873
2012    30      2       1.969901        246.1913
2012    30      3       2.071392        250.1717
2012    30      4       1.820576        240.6088
2012    30      5       1.590578        228.4866
2012    30      6       1.539051        224.6328
2012    30      7       1.64408         230.3661
2012    31      0       1.92312         244.0956
2012    31      1       1.606996        229.1382
2012    31      2       1.298282        208.6272
2012    31      3       0.9485035       175.9392
2012    31      4       0.4888255       111.753
2012    31      5       0.5474875       121.8087
2012    31      6       0.9200885       173.1042
2012    31      7       1.169497        197.9959
2013    1       0       1.499814        216.5071
2013    1       1       1.594318        223.1623
2013    1       2       2.046212        243.5954
2013    1       3       2.279254        251.6628
2013    1       4       2.16731         248.7291
2013    1       5       2.04514         244.5708
2013    1       6       1.928716        239.8768
2013    1       7       1.832126        235.6295
2013    2       0       1.800952        234.5752
2013    2       1       1.887866        238.1491
2013    2       2       1.720797        231.0286
2013    2       3       1.755919        232.8828
2013    2       4       1.520649        220.0848
2013    2       5       1.427651        212.4258
2013    2       6       1.830526        234.7252
2013    2       7       1.72183         230.8279
2013    3       0       2.137358        248.682
2013    3       1       2.229629        252.367
2013    3       2       2.098296        248.6222
2013    3       3       2.105541        249.0508
2013    3       4       2.339093        255.827
2013    3       5       2.179079        251.7427
2013    3       6       2.839589        267.3828
2013    3       7       2.460702        260.3329
2013    4       0       2.215513        253.6624
2013    4       1       2.728524        266.4453
2013    4       2       2.726976        266.7003
2013    4       3       2.814987        266.8341
2013    4       4       2.480801        259.2164
2013    4       5       2.817437        265.6401
2013    4       6       3.094102        270.6072
2013    4       7       2.929922        269.1701
2013    5       0       2.904405        268.7933
2013    5       1       2.365282        258.5762
2013    5       2       2.341761        258.2322
2013    5       3       2.29962         257.0494
2013    5       4       2.052383        249.2633
2013    5       5       1.908672        243.7317
2013    5       6       2.003355        247.1193
2013    5       7       2.073105        249.2057
2013    6       0       2.075665        249.6103
2013    6       1       2.111534        250.476
2013    6       2       2.456234        260.3763
2013    6       3       2.707094        265.4951
2013    6       4       2.708945        264.8317
2013    6       5       2.092293        247.3531
2013    6       6       2.291374        255.0768
2013    6       7       2.055058        247.1272
2013    7       0       1.992187        244.664
2013    7       1       2.280512        255.4568
2013    7       2       2.561408        262.8683
2013    7       3       2.325325        256.9958
2013    7       4       2.106279        249.6831
2013    7       5       2.207025        252.2579
2013    7       6       2.167993        251.5399
2013    7       7       2.06161         247.8313
2013    8       0       2.199262        252.7735
2013    8       1       2.097596        249.8697
2013    8       2       2.325516        256.821
2013    8       3       2.058394        248.6605
2013    8       4       1.758851        236.4875
2013    8       5       1.504636        222.471
2013    8       6       1.286666        206.646
2013    8       7       1.27816         205.8445
2013    9       0       1.516447        223.0068
2013    9       1       1.449821        219.7521
2013    9       2       1.492697        223.1071
2013    9       3       1.653           232.3091
2013    9       4       1.898261        243.5768
2013    9       5       1.901546        243.4322
2013    9       6       2.102261        250.9229
2013    9       7       2.100797        250.6848
2013    10      0       2.123368        251.6314
2013    10      1       2.182332        253.7635
2013    10      2       2.220238        255.4018
2013    10      3       2.208892        255.2752
2013    10      4       2.331883        258.4935
2013    10      5       2.296176        257.1849
2013    10      6       1.961557        245.9975
2013    10      7       1.663053        231.8966
2013    11      0       1.677926        232.2589
2013    11      1       1.62675         230.1977
2013    11      2       1.55875         226.8196
2013    11      3       1.51293         224.0055
2013    11      4       1.426091        217.2759
2013    11      5       1.658949        231.102
2013    11      6       1.677308        231.8756
2013    11      7       1.411392        215.4085
2013    12      0       1.335417        210.149
2013    12      1       1.346599        211.8677
2013    12      2       1.465057        220.5172
2013    12      3       1.530484        224.5057
2013    12      4       1.327255        210.1929
2013    12      5       1.634375        229.496
2013    12      6       1.92913         243.1506
2013    12      7       2.177257        251.4848
2013    13      0       2.461986        258.1823
2013    13      1       2.288277        253.202
2013    13      2       2.491554        258.9703
2013    13      3       2.513688        259.7423
2013    13      4       2.448968        257.3862
2013    13      5       1.496749        218.7201
2013    13      6       1.311579        205.195
2013    13      7       1.913501        238.7253
2013    14      0       2.289776        252.3353
2013    14      1       2.189544        250.0635
2013    14      2       2.022685        244.9861
2013    14      3       1.890512        239.2896
2013    14      4       1.841595        236.2311
2013    14      5       1.885746        238.6384
2013    14      6       2.096866        247.0949
2013    14      7       1.916228        241.639
2013    15      0       1.707644        232.5226
2013    15      1       1.569714        225.2201
2013    15      2       1.603987        226.7687
2013    15      3       1.519018        221.6537
2013    15      4       1.346146        210.1621
2013    15      5       1.184239        197.2026
2013    15      6       1.234404        200.9979
2013    15      7       1.113817        189.1661
2013    16      0       1.157393        191.8501
2013    16      1       1.184319        196.5013
2013    16      2       1.280445        204.4528
2013    16      3       1.483695        218.5348
2013    16      4       1.775416        233.5616
2013    16      5       1.907956        238.334
2013    16      6       1.77235         231.7132
2013    16      7       1.261641        200.6942
2013    17      0       1.255357        201.1225
2013    17      1       1.928828        239.914
2013    17      2       2.281164        252.3993
2013    17      3       2.452577        257.0267
2013    17      4       2.477833        258.5999
2013    17      5       2.707274        264.435
2013    17      6       1.707244        231.734
2013    17      7       1.559572        224.8044
2013    18      0       1.731417        234.687
2013    18      1       1.197211        199.5933
2013    18      2       1.251333        203.9062
2013    18      3       1.23691         202.6376
2013    18      4       1.262401        204.7718
2013    18      5       0.9406083       174.4305
2013    18      6       1.024618        183.0017
2013    18      7       0.9405297       174.069
2013    19      0       1.140626        193.6762
2013    19      1       1.056038        185.776
2013    19      2       1.171564        196.0505
2013    19      3       1.179815        196.9838
2013    19      4       1.191119        197.4855
2013    19      5       1.104949        189.1936
2013    19      6       1.26317         202.6922
2013    19      7       1.422405        213.9189
2013    20      0       1.385543        212.0487
2013    20      1       1.322275        207.242
2013    20      2       1.27699         204.5925
2013    20      3       1.438071        215.5621
2013    20      4       1.534507        221.3558
2013    20      5       1.504016        219.3796
2013    20      6       1.436441        214.4543
2013    20      7       1.316556        204.7157
2013    21      0       1.385666        210.7463
2013    21      1       1.461203        217.1078
2013    21      2       1.702018        231.6188
2013    21      3       1.895175        240.5484
2013    21      4       1.873679        239.6239
2013    21      5       1.777909        235.4115
2013    21      6       1.665219        229.842
2013    21      7       1.427914        215.7287
2013    22      0       1.507413        220.9874
2013    22      1       1.905335        241.7036
2013    22      2       2.300269        255.5613
2013    22      3       2.143122        250.614
2013    22      4       2.273645        254.9286
2013    22      5       1.89708         241.1599
2013    22      6       1.884743        241.262
2013    22      7       1.733521        234.3118
2013    23      0       1.713596        233.4561
2013    23      1       1.677678        232.2721
2013    23      2       1.708413        233.4144
2013    23      3       1.716448        233.5534
2013    23      4       1.905811        241.4219
2013    23      5       1.86943         239.5731
2013    23      6       1.99087         244.4894
2013    23      7       2.42246         258.4189
2013    24      0       2.864578        266.9757
2013    24      1       3.070248        270.6553
2013    24      2       2.874893        268.0621
2013    24      3       2.408898        258.7887
2013    24      4       2.105817        249.8714
2013    24      5       1.921162        242.677
2013    24      6       2.170986        251.6153
2013    24      7       2.712263        265.2743
2013    25      0       2.200563        253.5798
2013    25      1       1.961115        245.4993
2013    25      2       2.120346        251.1039
2013    25      3       2.069516        249.4474
2013    25      4       1.922274        243.9955
2013    25      5       1.830808        239.7858
2013    25      6       1.631911        229.1607
2013    25      7       1.434881        216.4817
2013    26      0       1.476222        219.1504
2013    26      1       1.408773        215.0207
2013    26      2       1.690853        231.4982
2013    26      3       1.897652        241.2
2013    26      4       1.950826        243.5659
2013    26      5       2.114728        249.6421
2013    26      6       1.755103        235.8089
2013    26      7       2.034188        246.8179
2013    27      0       1.95117         243.1184
2013    27      1       1.745852        234.0861
2013    27      2       1.94836         242.6532
2013    27      3       1.831728        238.8107
2013    27      4       2.20973         251.5526
2013    27      5       1.677132        229.5375
2013    27      6       1.407451        212.7383
2013    27      7       1.389495        211.5071
2013    28      0       1.523216        220.6448
2013    28      1       1.810398        236.3454
2013    28      2       1.723969        232.8715
2013    28      3       1.68196         231.0433
2013    28      4       1.525324        222.2404
2013    28      5       1.599147        226.438
2013    28      6       2.101829        247.4787
2013    28      7       2.759351        264.1447
2013    29      0       2.799134        264.7642
2013    29      1       2.785367        265.3045
2013    29      2       2.677343        264.1908
2013    29      3       3.2548          274.0127
2013    29      4       3.055755        272.4823
2013    29      5       2.630773        265.6513
2013    29      6       2.031376        248.0979
2013    29      7       1.628859        229.1956
2013    30      0       1.652852        230.9343
2013    30      1       1.568507        227.1855
2013    30      2       1.538572        225.5165
2013    30      3       1.568365        227.1064
2013    30      4       1.577377        227.1255
2013    30      5       1.198878        199.9232
2013    30      6       0.7929092       156.1245
2013    30      7       0.867551        164.4435
2013    31      0       1.571464        224.7375
2013    31      1       1.800309        237.7522
2013    31      2       1.99453         246.5528
2013    31      3       2.151394        252.4753
2013    31      4       2.060787        249.6503
2013    31      5       2.097592        249.9461
2013    31      6       2.385278        259.0259
2013    31      7       2.49332         261.169
2014    1       0       1.547862        221.5173
2014    1       1       1.523764        220.2717
2014    1       2       1.634156        226.6231
2014    1       3       1.608035        225.4834
2014    1       4       1.49749         219.0887
2014    1       5       1.355688        210.0372
2014    1       6       1.272757        203.8043
2014    1       7       1.249633        201.6357
2014    2       0       1.25728         202.2484
2014    2       1       1.291738        205.3078
2014    2       2       1.499229        219.3541
2014    2       3       1.539629        221.8725
2014    2       4       1.710036        231.2354
2014    2       5       1.607149        225.5712
2014    2       6       1.561939        222.7269
2014    2       7       1.670972        228.0779
2014    3       0       1.682916        228.3804
2014    3       1       1.754322        231.1538
2014    3       2       1.990055        240.9368
2014    3       3       2.156712        246.8219
2014    3       4       2.349279        252.8448
2014    3       5       2.416661        255.5443
2014    3       6       2.051463        245.916
2014    3       7       1.822167        237.1774
2014    4       0       2.141642        248.3553
2014    4       1       2.040317        245.1939
2014    4       2       2.111921        247.7429
2014    4       3       2.446912        257.3575
2014    4       4       2.491939        258.4764
2014    4       5       2.178172        249.7492
2014    4       6       2.307074        252.9576
2014    4       7       2.041747        243.76
2014    5       0       2.21849         249.1259
2014    5       1       2.441253        255.9978
2014    5       2       2.542372        258.9895
2014    5       3       2.312148        253.5371
2014    5       4       2.261579        252.1112
2014    5       5       2.08642         246.5596
2014    5       6       1.76637         234.0432
2014    5       7       1.613385        226.6322
2014    6       0       1.82716         237.2769
2014    6       1       1.925242        241.6475
2014    6       2       2.313425        254.5274
2014    6       3       2.401705        256.4202
2014    6       4       2.013203        243.3872
2014    6       5       1.897425        237.934
2014    6       6       2.309876        252.2702
2014    6       7       2.257467        250.626
2014    7       0       2.451269        256.9353
2014    7       1       2.178685        249.9281
2014    7       2       2.406039        257.9917
2014    7       3       1.825966        237.6972
2014    7       4       1.188548        197.9985
2014    7       5       0.9766727       178.5983
2014    7       6       0.9744638       178.861
2014    7       7       0.967068        178.012
2014    8       0       1.093376        190.3611
2014    8       1       1.580372        226.5032
2014    8       2       2.546856        261.8198
2014    8       3       2.775898        267.5638
2014    8       4       2.722741        266.418
2014    8       5       2.687276        264.3928
2014    8       6       2.117231        250.2617
2014    8       7       1.882801        240.4528
2014    9       0       1.951021        243.0096
2014    9       1       2.065874        247.6498
2014    9       2       2.438135        258.1698
2014    9       3       2.487815        258.6185
2014    9       4       1.950283        241.656
2014    9       5       2.270575        253.2891
2014    9       6       2.14076         249.8541
2014    9       7       2.020042        245.9083
2014    10      0       2.187978        251.8756
2014    10      1       2.28478         255.1417
2014    10      2       2.577717        262.6502
2014    10      3       2.646602        264.6167
2014    10      4       2.64781         265.8746
2014    10      5       2.604071        265.19
2014    10      6       2.839407        269.1717
2014    10      7       2.733221        267.2417
2014    11      0       2.338097        258.5487
2014    11      1       2.052636        249.0492
2014    11      2       1.904485        242.7677
2014    11      3       1.658339        230.1692
2014    11      4       1.220878        198.689
2014    11      5       0.9914702       178.9902
2014    11      6       0.9838958       179.4864
2014    11      7       1.060927        186.6114
2014    12      0       1.050155        184.5121
2014    12      1       1.11077         190.1906
2014    12      2       1.379369        211.811
2014    12      3       1.556286        223.274
2014    12      4       1.525796        221.0433
2014    12      5       1.506254        219.6259
2014    12      6       1.554482        221.9025
2014    12      7       1.758928        232.4312
2014    13      0       2.331393        253.6621
2014    13      1       2.253765        252.7657
2014    13      2       2.493636        259.8776
2014    13      3       2.840959        269.1214
2014    13      4       3.210239        274.9751
2014    13      5       2.2222          254.1989
2014    13      6       2.289961        255.2326
2014    13      7       1.834556        238.3529
2014    14      0       1.823141        237.4541
2014    14      1       1.963933        244.1933
2014    14      2       2.277084        254.6174
2014    14      3       2.466872        259.501
2014    14      4       1.847801        238.8689
2014    14      5       1.577368        224.8702
2014    14      6       1.116912        191.1065
2014    14      7       0.9619315       175.7821
2014    15      0       1.225736        200.3584
2014    15      1       1.327705        209.4881
2014    15      2       1.407996        216.3219
2014    15      3       1.921992        242.8123
2014    15      4       1.811272        238.2699
2014    15      5       2.339766        255.4017
2014    15      6       2.051029        246.6461
2014    15      7       1.971516        244.9797
2014    16      0       1.915314        242.4565
2014    16      1       2.041808        248.0089
2014    16      2       1.936534        244.4969
2014    16      3       2.483327        260.43
2014    16      4       2.835002        266.6285
2014    16      5       3.151584        271.1013
2014    16      6       3.029727        269.4219
2014    16      7       2.662912        263.1427
2014    17      0       2.276108        253.5546
2014    17      1       2.191732        250.9889
2014    17      2       2.001013        245.1121
2014    17      3       2.158691        250.2271
2014    17      4       2.480694        258.8118
2014    17      5       2.475406        259.0688
2014    17      6       2.472047        258.3688
2014    17      7       2.356355        255.6172
2014    18      0       2.024176        244.4067
2014    18      1       1.945466        242.0913
2014    18      2       2.182484        250.9637
2014    18      3       2.099594        248.1862
2014    18      4       1.950726        242.1943
2014    18      5       1.715785        231.3016
2014    18      6       1.801153        235.0508
2014    18      7       1.985704        242.4959
2014    19      0       2.271275        251.4763
2014    19      1       2.312617        253.3045
2014    19      2       2.540632        259.5522
2014    19      3       2.493645        258.8611
2014    19      4       2.397699        256.2559
2014    19      5       2.33526         253.5285
2014    19      6       2.032021        243.027
2014    19      7       2.085749        244.6011
2014    20      0       2.101515        245.3758
2014    20      1       2.059719        244.7625
2014    20      2       2.143632        248.2506
2014    20      3       2.215692        250.8428
2014    20      4       2.118613        248.6329
2014    20      5       1.960533        243.2672
2014    20      6       1.770577        234.9689
2014    20      7       1.543051        222.6971
2014    21      0       1.524973        221.8174
2014    21      1       1.463333        218.54
2014    21      2       1.607268        227.5055
2014    21      3       1.744186        234.7875
2014    21      4       1.946281        243.6475
2014    21      5       1.7756          236.3668
2014    21      6       1.766425        235.7963
2014    21      7       1.768129        235.6909
2014    22      0       2.026072        246.7031
2014    22      1       2.059869        248.5549
2014    22      2       2.281303        256.1861
2014    22      3       2.305453        257.2265
2014    22      4       2.010721        247.3779
2014    22      5       1.714466        233.9555
2014    22      6       1.541549        223.7466
2014    22      7       1.76485         236.1952
2014    23      0       1.867397        241.4496
2014    23      1       1.747483        236.2555
2014    23      2       1.899303        243.1463
2014    23      3       2.405028        258.8997
2014    23      4       2.007132        245.8729
2014    23      5       2.391331        257.8066
2014    23      6       2.256472        253.8511
2014    23      7       2.140754        251.9442
2014    24      0       2.5234          262.5931
2014    24      1       2.804876        268.9509
2014    24      2       2.699904        267.1208
2014    24      3       2.407255        260.5006
2014    24      4       2.087114        250.2483
2014    24      5       1.726311        234.7398
2014    24      6       1.718712        234.4716
2014    24      7       2.068288        249.5515
2014    25      0       1.893072        243.0511
2014    25      1       1.916115        245.4941
2014    25      2       2.271946        257.9944
2014    25      3       2.361521        260.5747
2014    25      4       2.192276        255.9898
2014    25      5       2.078884        252.0978
2014    25      6       1.792081        239.6169
2014    25      7       1.632107        230.8234
2014    26      0       1.786704        239.0628
2014    26      1       1.807011        240.8775
2014    26      2       1.919246        246.3312
2014    26      3       1.996134        249.3062
2014    26      4       1.731523        236.993
2014    26      5       1.176353        199.4907
2014    26      6       1.482791        222.2498
2014    26      7       1.798493        239.4603
2014    27      0       2.075149        250.0301
2014    27      1       2.155447        252.1941
2014    27      2       1.754239        235.5782
2014    27      3       1.376291        213.0961
2014    27      4       1.056415        186.6015
2014    27      5       0.9457852       174.9295
2014    27      6       0.9824699       178.4603
2014    27      7       1.181002        196.668
2014    28      0       1.255973        203.0169
2014    28      1       1.10808         190.8295
2014    28      2       1.315257        207.9377
2014    28      3       1.164793        196.4031
2014    28      4       1.243148        203.435
2014    28      5       1.274052        205.9676
2014    28      6       1.159293        196.3616
2014    28      7       1.085303        189.4564
2014    29      0       1.05544         186.8022
2014    29      1       0.9847826       180.5802
2014    29      2       1.005314        182.9505
2014    29      3       1.059701        187.8293
2014    29      4       1.09266         190.3246
2014    29      5       0.8946266       169.3995
2014    29      6       0.6707276       140.0666
2014    29      7       0.8171801       158.9214
2014    30      0       1.104324        189.8036
2014    30      1       1.28843         206.2456
2014    30      2       1.382776        213.5049
2014    30      3       1.442759        217.7992
2014    30      4       1.547158        224.9528
2014    30      5       1.543158        224.503
2014    30      6       1.508281        222.0914
2014    30      7       1.525454        222.8031
2014    31      0       1.756423        235.3495
2014    31      1       1.912662        242.7854
2014    31      2       1.984842        246.0451
2014    31      3       1.943828        244.9615
2014    31      4       1.995145        247.3676
2014    31      5       1.975163        246.1661
2014    31      6       2.011138        246.5636
2014    31      7       1.90133         242.192
2015    1       0       2.829577        267.6001
2015    1       1       3.034028        272.1311
2015    1       2       2.630526        265.6865
2015    1       3       1.743453        234.8664
2015    1       4       1.338512        209.4532
2015    1       5       0.9313364       173.1533
2015    1       6       0.9697066       177.4009
2015    1       7       0.9498989       173.2227
2015    2       0       1.005235        179.8547
2015    2       1       1.076809        188.4837
2015    2       2       1.175021        197.473
2015    2       3       1.379388        211.7732
2015    2       4       1.55511         223.1506
2015    2       5       1.730741        231.5168
2015    2       6       1.940042        239.7471
2015    2       7       1.98535         241.3222
2015    3       0       2.043241        244.7177
2015    3       1       1.830825        237.5244
2015    3       2       1.706695        231.9135
2015    3       3       2.415431        256.9723
2015    3       4       2.622616        261.5704
2015    3       5       2.115037        248.6696
2015    3       6       1.872103        237.1396
2015    3       7       1.704507        228.2899
2015    4       0       1.90919         238.7903
2015    4       1       1.732855        230.9157
2015    4       2       1.741318        230.6473
2015    4       3       2.023746        242.3905
2015    4       4       1.866862        235.5323
2015    4       5       1.933683        237.3305
2015    4       6       1.911713        236.3282
2015    4       7       1.827304        233.9017
2015    5       0       1.732565        230.3812
2015    5       1       1.555994        221.7963
2015    5       2       1.635102        226.8149
2015    5       3       1.759435        233.5022
2015    5       4       1.92983         240.8056
2015    5       5       2.276732        252.11
2015    5       6       2.421853        255.552
2015    5       7       2.311404        252.3154
2015    6       0       2.232959        250.2025
2015    6       1       2.360889        254.5213
2015    6       2       2.295267        252.2504
2015    6       3       2.422246        256.4747
2015    6       4       2.124311        247.3235
2015    6       5       1.736006        231.4956
2015    6       6       1.582874        222.8376
2015    6       7       1.48319         216.49
2015    7       0       1.941846        239.0733
2015    7       1       2.002827        241.0067
2015    7       2       2.370324        253.2771
2015    7       3       2.224236        249.6982
2015    7       4       2.152102        248.1554
2015    7       5       1.84559         236.4699
2015    7       6       1.546879        220.1715
2015    7       7       1.550488        218.8375
2015    8       0       1.668358        225.6481
2015    8       1       1.735451        229.4823
2015    8       2       1.722456        228.6566
2015    8       3       1.803865        232.7929
2015    8       4       2.132134        246.7194
2015    8       5       2.412457        255.7026
2015    8       6       2.566817        260.8592
2015    8       7       2.438675        257.7707
2015    9       0       2.130234        248.1901
2015    9       1       2.182763        250.1537
2015    9       2       2.389734        256.1797
2015    9       3       2.696567        263.6602
2015    9       4       2.492411        259.7402
2015    9       5       1.926005        241.3353
2015    9       6       1.629472        228.0549
2015    9       7       1.293625        206.3221
2015    10      0       1.223788        200.9754
2015    10      1       1.067003        188.1247
2015    10      2       1.052656        187.301
2015    10      3       1.092312        191.3446
2015    10      4       1.165241        198.1598
2015    10      5       1.020214        184.3663
2015    10      6       0.8936525       170.2023
2015    10      7       0.5998869       130.7482
2015    11      0       0.587662        128.9085
2015    11      1       0.6298388       135.8754
2015    11      2       0.7197451       149.1301
2015    11      3       0.789299        158.4491
2015    11      4       0.8933671       171.0943
2015    11      5       1.203554        201.7543
2015    11      6       1.309965        209.8263
2015    11      7       1.389657        215.2979
2015    12      0       1.699097        233.5121
2015    12      1       1.962792        245.9177
2015    12      2       2.358197        259.035
2015    12      3       2.521726        263.0539
2015    12      4       2.271086        256.6924
2015    12      5       1.78781         237.9944
2015    12      6       2.105411        249.74
2015    12      7       1.949563        244.0984
2015    13      0       2.050466        248.423
2015    13      1       2.058412        249.8636
2015    13      2       1.957888        246.1645
2015    13      3       1.831619        240.3907
2015    13      4       1.613506        229.0271
2015    13      5       1.528476        223.5816
2015    13      6       1.590056        226.958
2015    13      7       1.485745        220.5119
2015    14      0       1.514665        222.5221
2015    14      1       1.54056         224.6809
2015    14      2       1.617345        229.5194
2015    14      3       1.635615        230.5207
2015    14      4       1.447141        218.8281
2015    14      5       1.369533        213.3401
2015    14      6       1.317548        209.5335
2015    14      7       1.278742        206.5234
2015    15      0       1.239184        203.2956
2015    15      1       1.237629        203.4045
2015    15      2       1.436846        217.3243
2015    15      3       1.474968        219.9367
2015    15      4       1.484193        219.9813
2015    15      5       1.988104        243.9825
2015    15      6       2.453656        258.5455
2015    15      7       2.650279        263.9889
2015    16      0       2.865739        268.6789
2015    16      1       3.061273        272.5682
2015    16      2       2.924625        270.9371
2015    16      3       2.790771        268.4935
2015    16      4       2.461541        261.0203
2015    16      5       2.368229        258.689
2015    16      6       2.268099        255.447
2015    16      7       2.242312        254.1679
2015    17      0       2.1877          251.8312
2015    17      1       2.135254        250.4198
2015    17      2       2.045411        247.4972
2015    17      3       2.046355        247.3481
2015    17      4       1.877334        240.6037
2015    17      5       2.094949        249.0327
2015    17      6       2.393485        256.9967
2015    17      7       2.405332        256.4001
2015    18      0       2.296569        253.4485
2015    18      1       2.299101        253.56
2015    18      2       2.22751         252.4148
2015    18      3       2.194917        252.0208
2015    18      4       2.220971        253.7402
2015    18      5       2.215329        253.693
2015    18      6       1.770043        236.1051
2015    18      7       1.629878        228.7631
2015    19      0       1.696225        232.0701
2015    19      1       2.137628        251.2339
2015    19      2       2.952854        270.2725
2015    19      3       3.376372        276.0717
2015    19      4       2.791972        267.0669
2015    19      5       2.266897        252.7619
2015    19      6       1.989711        243.3826
2015    19      7       1.865349        238.0403
2015    20      0       1.753306        233.6092
2015    20      1       1.933488        242.8365
2015    20      2       2.076981        248.8265
2015    20      3       2.015543        246.8587
2015    20      4       1.764142        235.7488
2015    20      5       1.394564        213.7966
2015    20      6       1.343495        210.2182
2015    20      7       1.269573        204.1931
2015    21      0       1.411246        214.7885
2015    21      1       1.557319        225.0397
2015    21      2       1.783189        237.4692
2015    21      3       1.792072        237.8811
2015    21      4       1.405849        215.2765
2015    21      5       1.15012         194.2426
2015    21      6       1.137691        193.1385
2015    21      7       1.604849        228.0679
2015    22      0       1.855072        240.2042
2015    22      1       2.163542        252.1389
2015    22      2       2.240305        253.9519
2015    22      3       2.160155        250.9332
2015    22      4       2.317653        255.8541
2015    22      5       2.588145        262.6502
2015    22      6       2.456338        259.1477
2015    22      7       2.665086        263.0408
2015    23      0       2.628538        262.9109
2015    23      1       2.326294        256.6997
2015    23      2       2.426804        259.5822
2015    23      3       2.457893        260.5461
2015    23      4       2.450106        260.7831
2015    23      5       2.524022        262.3649
2015    23      6       2.422935        259.7773
2015    23      7       2.19489         252.1752
2015    24      0       2.204998        252.7254
2015    24      1       2.113577        250.1586
2015    24      2       2.100648        249.4224
2015    24      3       2.046864        247.5416
2015    24      4       1.705671        232.8421
2015    24      5       1.41242         215.2996
2015    24      6       1.308874        207.0418
2015    24      7       1.448027        216.4658
2015    25      0       1.636898        228.3779
2015    25      1       1.818523        238.8573
2015    25      2       1.904989        243.6728
2015    25      3       1.911027        244.3868
2015    25      4       1.937611        245.5899
2015    25      5       1.636743        230.6922
2015    25      6       1.19538         199.2331
2015    25      7       1.145216        194.8042
2015    26      0       1.268819        205.3203
2015    26      1       1.560416        226.3147
2015    26      2       1.600486        229.4593
2015    26      3       1.603155        229.9866
2015    26      4       1.568591        227.9429
2015    26      5       1.390396        216.2348
2015    26      6       1.29881         209.1334
2015    26      7       1.416981        217.3318
2015    27      0       1.591451        228.327
2015    27      1       1.718959        236.3792
2015    27      2       1.962757        247.7445
2015    27      3       2.224453        256.2105
2015    27      4       2.424576        261.3709
2015    27      5       2.439377        261.7555
2015    27      6       2.538038        263.24
2015    27      7       2.817278        267.7589
2015    28      0       2.620056        264.8837
2015    28      1       2.468612        261.8128
2015    28      2       2.61079         265.0138
2015    28      3       2.761984        268.6798
2015    28      4       2.718468        268.0417
2015    28      5       2.624022        266.1456
2015    28      6       2.523869        263.7527
2015    28      7       2.38847         260.0767
2015    29      0       2.226532        255.3585
2015    29      1       2.231147        255.6914
2015    29      2       2.37438         259.6929
2015    29      3       2.70434         267.7774
2015    29      4       2.797052        269.1002
2015    29      5       2.732787        267.4375
2015    29      6       2.091379        250.2238
2015    29      7       1.568249        225.8503
2015    30      0       2.044635        248.1643
2015    30      1       2.415971        260.2575
2015    30      2       2.560638        264.1032
2015    30      3       2.63409         266.4436
2015    30      4       2.171987        254.526
2015    30      5       1.919124        244.7348
2015    30      6       1.878045        242.8574
2015    30      7       1.757429        236.8482
2015    31      0       1.926642        244.1689
2015    31      1       1.738136        236.8665
2015    31      2       1.746211        237.9551
2015    31      3       1.807612        241.1413
2015    31      4       1.76728         239.1938
2015    31      5       1.714966        236.5155
2015    31      6       1.702785        235.641
2015    31      7       1.560653        227.3741
2016    1       0       1.109911        190.8
2016    1       1       1.17849         197.7873
2016    1       2       1.581907        226.135
2016    1       3       1.642007        229.6187
2016    1       4       1.654687        229.7222
2016    1       5       1.81576         236.5332
2016    1       6       1.634193        226.4818
2016    1       7       1.966608        242.749
2016    2       0       2.146169        249.7809
2016    2       1       2.035644        245.7366
2016    2       2       1.781023        236.2911
2016    2       3       1.813762        237.7014
2016    2       4       1.619786        227.9608
2016    2       5       1.56784         225.1418
2016    2       6       1.890042        240.1054
2016    2       7       2.21253         251.9596
2016    3       0       2.483253        259.7718
2016    3       1       2.214055        253.7925
2016    3       2       2.186483        253.0373
2016    3       3       1.975447        245.2281
2016    3       4       1.694864        232.2434
2016    3       5       1.687676        231.6148
2016    3       6       2.015506        246.1943
2016    3       7       2.073778        248.5043
2016    4       0       1.81492         238.0931
2016    4       1       1.917499        242.5958
2016    4       2       2.187114        251.9373
2016    4       3       1.866028        238.3893
2016    4       4       1.442417        214.9075
2016    4       5       1.653363        228.2289
2016    4       6       1.705201        230.7156
2016    4       7       1.534412        221.3631
2016    5       0       1.619796        227.0497
2016    5       1       2.775927        265.0339
2016    5       2       1.852924        238.6866
2016    5       3       1.753993        234.2218
2016    5       4       1.856549        238.9102
2016    5       5       1.846962        238.781
2016    5       6       2.185637        251.7078
2016    5       7       2.452856        258.0444
2016    6       0       2.176072        251.4883
2016    6       1       2.195429        252.5679
2016    6       2       2.26231         254.9763
2016    6       3       2.073109        249.4867
2016    6       4       1.97161         245.5953
2016    6       5       2.045169        248.8262
2016    6       6       1.825853        238.9888
2016    6       7       1.563136        225.3461
2016    7       0       1.798397        237.9898
2016    7       1       1.898629        243.2822
2016    7       2       1.833729        240.4919
2016    7       3       1.783399        237.9103
2016    7       4       1.647727        230.6772
2016    7       5       1.41033         215.6857
2016    7       6       1.191938        198.7567
2016    7       7       1.376004        211.703
2016    8       0       1.532938        221.0511
2016    8       1       1.824921        235.401
2016    8       2       1.86271         236.6827
2016    8       3       2.369288        255.1533
2016    8       4       2.165629        249.7245
2016    8       5       2.107001        247.1534
2016    8       6       2.165528        248.8231
2016    8       7       2.313374        253.5635
2016    9       0       2.190212        250.0852
2016    9       1       2.725325        263.7623
2016    9       2       2.597455        261.7749
2016    9       3       2.229558        254.0986
2016    9       4       1.781462        237.1268
2016    9       5       1.294245        207.6305
2016    9       6       1.021566        183.4958
2016    9       7       1.011854        182.4301
2016    10      0       1.200644        199.6707
2016    10      1       1.21954         201.9016
2016    10      2       1.353569        212.5611
2016    10      3       1.592495        228.0475
2016    10      4       1.699308        233.452
2016    10      5       1.454522        218.9187
2016    10      6       1.019928        182.7624
2016    10      7       0.7783783       155.3418
2016    11      0       0.8501418       164.6977
2016    11      1       0.9133304       172.9906
2016    11      2       1.080561        190.8761
2016    11      3       1.206963        202.3489
2016    11      4       1.195335        201.0988
2016    11      5       1.117834        193.5289
2016    11      6       1.137214        195.1141
2016    11      7       1.163552        197.3356
2016    12      0       1.262823        205.5903
2016    12      1       1.491899        222.3751
2016    12      2       1.921025        244.6131
2016    12      3       2.281396        256.8204
2016    12      4       2.475369        261.9439
2016    12      5       2.573952        264.4868
2016    12      6       2.947604        270.9695
2016    12      7       3.115295        272.6154
2016    13      0       2.782826        267.5376
2016    13      1       2.864506        269.4122
2016    13      2       2.817757        268.374
2016    13      3       2.674021        265.2314
2016    13      4       2.810364        267.6208
2016    13      5       2.925815        269.5172
2016    13      6       2.292014        255.1873
2016    13      7       1.724056        233.2695
2016    14      0       1.738491        234.3224
2016    14      1       1.916868        242.5583
2016    14      2       2.406809        258.0647
2016    14      3       2.153816        250.9114
2016    14      4       2.213583        252.4246
2016    14      5       2.224621        251.3884
2016    14      6       2.323541        254.0625
2016    14      7       2.23441         251.5387
2016    15      0       1.998053        244.195
2016    15      1       2.093318        248.8261
2016    15      2       2.219461        253.4681
2016    15      3       2.586152        263.3102
2016    15      4       2.504865        261.3282
2016    15      5       2.002674        246.5178
2016    15      6       2.081588        249.1719
2016    15      7       2.022067        246.0647
2016    16      0       2.166319        250.7034
2016    16      1       2.031136        247.4672
2016    16      2       2.212503        254.251
2016    16      3       2.485881        261.3957
2016    16      4       2.432605        259.9724
2016    16      5       1.89857         242.397
2016    16      6       2.127255        251.8185
2016    16      7       2.692143        266.8645
2016    17      0       2.784048        268.7445
2016    17      1       2.620909        266.1478
2016    17      2       2.966978        272.7148
2016    17      3       2.89919         271.3182
2016    17      4       2.420579        261.4735
2016    17      5       2.219611        254.9166
2016    17      6       1.827132        239.0965
2016    17      7       1.204325        198.8575
2016    18      0       1.296906        206.5939
2016    18      1       1.136047        194.5879
2016    18      2       1.259932        205.6126
2016    18      3       1.377089        214.8089
2016    18      4       1.55615         226.092
2016    18      5       1.655933        231.1535
2016    18      6       1.483785        220.4586
2016    18      7       1.340278        210.3978
2016    19      0       1.052304        186.4556
2016    19      1       0.9704434       178.7691
2016    19      2       1.045629        186.8012
2016    19      3       1.110875        192.9715
2016    19      4       1.180153        198.4739
2016    19      5       1.111384        192.2196
2016    19      6       0.9514993       175.5536
2016    19      7       0.8418399       162.5535
2016    20      0       1.021232        182.432
2016    20      1       0.9725756       178.5497
2016    20      2       1.087204        190.0692
2016    20      3       1.199476        200.1344
2016    20      4       1.387738        214.3486
2016    20      5       1.446606        217.7773
2016    20      6       1.30322         207.2815
2016    20      7       1.216831        199.6685
2016    21      0       1.332784        208.7442
2016    21      1       1.247888        203.1684
2016    21      2       1.463143        218.439
2016    21      3       1.756032        234.0832
2016    21      4       2.211488        251.988
2016    21      5       2.204168        251.8521
2016    21      6       2.108862        249.0294
2016    21      7       1.931287        242.0269
2016    22      0       1.996973        244.5681
2016    22      1       1.700173        231.5462
2016    22      2       2.033579        245.8383
2016    22      3       2.437819        258.3057
2016    22      4       2.054581        247.2116
2016    22      5       1.903687        241.6632
2016    22      6       1.739935        234.3024
2016    22      7       1.539583        223.2695
2016    23      0       1.486042        220.0124
2016    23      1       1.535451        223.1952
2016    23      2       1.730522        233.77
2016    23      3       1.779035        236.3677
2016    23      4       1.760959        236.2213
2016    23      5       1.744626        235.0128
2016    23      6       1.684575        231.3901
2016    23      7       1.69678         231.7561
2016    24      0       1.605101        226.7665
2016    24      1       1.470486        218.9927
2016    24      2       1.84307         238.2615
2016    24      3       2.232004        252.3587
2016    24      4       2.310933        255.1679
2016    24      5       2.24914         253.3984
2016    24      6       2.061759        247.2052
2016    24      7       1.757311        233.9052
2016    25      0       2.218456        251.3686
2016    25      1       2.393897        255.9839
2016    25      2       2.808209        265.1075
2016    25      3       3.009105        268.6354
2016    25      4       2.818931        265.7153
2016    25      5       2.533025        259.3838
2016    25      6       2.458971        257.269
2016    25      7       2.402833        255.8089
2016    26      0       2.595305        260.9391
2016    26      1       2.151064        249.544
2016    26      2       2.51514         259.5326
2016    26      3       2.073885        247.0068
2016    26      4       1.955143        242.997
2016    26      5       1.856428        238.779
2016    26      6       1.886273        240.5321
2016    26      7       1.834098        238.5787
2016    27      0       1.994325        245.5042
2016    27      1       1.987468        245.7957
2016    27      2       2.218577        253.7255
2016    27      3       2.683636        265.2694
2016    27      4       2.860315        268.4456
2016    27      5       2.585218        263.1335
2016    27      6       2.543774        261.7538
2016    27      7       2.673606        263.9449
2016    28      0       2.865621        267.6194
2016    28      1       2.706958        265.4649
2016    28      2       2.987968        270.403
2016    28      3       3.185776        273.3541
2016    28      4       3.211913        273.4442
2016    28      5       2.855366        267.8062
2016    28      6       2.39875         257.9582
2016    28      7       2.361806        256.854
2016    29      0       2.316839        255.9539
2016    29      1       2.310796        256.5615
2016    29      2       2.549262        262.7694
2016    29      3       2.578124        263.5589
2016    29      4       2.496386        261.8928
2016    29      5       2.436319        260.1951
2016    29      6       2.446584        260.2069
2016    29      7       2.885346        268.7153
2016    30      0       3.177602        272.2238
2016    30      1       2.623281        263.0208
2016    30      2       2.232069        253.4042
2016    30      3       1.981775        244.8435
2016    30      4       1.765112        235.4248
2016    30      5       1.57297         225.045
2016    30      6       1.546375        223.1356
2016    30      7       1.711991        232.3444
2016    31      0       1.820819        238.1741
2016    31      1       1.700189        232.6538
2016    31      2       1.743004        234.9718
2016    31      3       1.822606        238.8132
2016    31      4       1.881315        241.3883
2016    31      5       1.874756        241.0304
2016    31      6       1.921184        242.7745
2016    31      7       1.948002        243.5591
2017    1       0       2.691786        264.1192
2017    1       1       2.723339        264.4558
2017    1       2       2.828483        266.473
2017    1       3       2.951886        268.1316
2017    1       4       2.679179        263.0236
2017    1       5       2.694285        263.0261
2017    1       6       2.206939        250.8891
2017    1       7       2.112718        247.5928
2017    2       0       2.018841        244.404
2017    2       1       2.139482        249.716
2017    2       2       2.419808        258.2439
2017    2       3       2.349354        256.7626
2017    2       4       2.39948         257.8678
2017    2       5       2.246863        253.593
2017    2       6       2.472052        260.0934
2017    2       7       2.584216        262.5332
2017    3       0       2.554576        261.7954
2017    3       1       2.309698        257.1144
2017    3       2       2.121572        251.65
2017    3       3       2.139962        251.6804
2017    3       4       2.009428        246.8371
2017    3       5       2.252555        254.3378
2017    3       6       2.339723        255.9124
2017    3       7       2.523386        259.7524
2017    4       0       2.316532        254.8624
2017    4       1       2.468424        259.0196
2017    4       2       2.572377        261.1315
2017    4       3       2.559982        259.6173
2017    4       4       2.517078        260.7555
2017    4       5       1.954104        243.8329
2017    4       6       2.156933        251.3524
2017    4       7       2.477593        258.757
2017    5       0       1.876161        240.1918
2017    5       1       1.484766        219.8057
2017    5       2       1.23055         201.962
2017    5       3       1.243141        202.3778
2017    5       4       1.280236        205.0444
2017    5       5       1.290906        205.8329
2017    5       6       1.279795        204.8409
2017    5       7       1.145856        193.6677
2017    6       0       1.149017        194.2512
2017    6       1       1.226365        201.0249
2017    6       2       1.563871        223.908
2017    6       3       1.624853        227.4021
2017    6       4       1.725818        232.4243
2017    6       5       1.396553        212.8042
2017    6       6       1.134454        191.831
2017    6       7       0.9372405       172.6939
2017    7       0       0.9002739       168.793
2017    7       1       1.017732        182.1235
2017    7       2       1.357389        211.2404
2017    7       3       1.716179        233.2459
2017    7       4       1.941196        243.8272
2017    7       5       1.617287        228.2948
2017    7       6       1.433866        217.0599
2017    7       7       1.364364        212.2968
2017    8       0       1.225473        202.3322
2017    8       1       1.324832        210.8854
2017    8       2       1.758352        236.0877
2017    8       3       2.043824        247.7293
2017    8       4       1.779996        237.198
2017    8       5       1.652129        230.7655
2017    8       6       1.520593        222.9457
2017    8       7       1.448001        218.1912
2017    9       0       1.623268        228.2515
2017    9       1       1.501327        221.7364
2017    9       2       1.428649        217.4766
2017    9       3       1.403881        215.7796
2017    9       4       1.258219        204.9348
2017    9       5       1.037798        184.8761
2017    9       6       0.880249        167.9112
2017    9       7       0.803968        158.8209
2017    10      0       1.050779        186.272
2017    10      1       1.211362        201.2417
2017    10      2       1.494655        222.1214
2017    10      3       1.817876        239.526
2017    10      4       1.923916        243.7129
2017    10      5       1.931094        243.8203
2017    10      6       1.957961        244.402
2017    10      7       1.90311         241.5624
2017    11      0       1.97081         244.6042
2017    11      1       2.130201        251.2602
2017    11      2       2.493018        261.443
2017    11      3       2.834198        268.155
2017    11      4       2.777179        266.4747
2017    11      5       2.134958        250.5289
2017    11      6       2.206755        252.3788
2017    11      7       2.295151        254.9229
2017    12      0       2.86915         267.616
2017    12      1       3.043119        270.3135
2017    12      2       3.08625         270.8949
2017    12      3       2.93522         269.4469
2017    12      4       2.507406        261.0895
2017    12      5       2.510716        260.3269
2017    12      6       2.279458        254.7395
2017    12      7       2.547421        261.7281
2017    13      0       2.885757        268.3942
2017    13      1       2.26995         255.6409
2017    13      2       2.046374        248.5358
2017    13      3       2.269515        255.9527
2017    13      4       1.984284        246.5589
2017    13      5       1.660028        231.372
2017    13      6       1.493937        221.5253
2017    13      7       1.413801        215.771
2017    14      0       1.53765         223.6207
2017    14      1       1.65703         231.3074
2017    14      2       2.088591        250.1992
2017    14      3       2.29385         256.626
2017    14      4       2.236665        255.1135
2017    14      5       1.922994        244.2027
2017    14      6       1.89061         242.2001
2017    14      7       1.852288        239.8736
2017    15      0       1.902165        242.0303
2017    15      1       1.887071        242.0595
2017    15      2       1.914427        243.5466
2017    15      3       1.919058        243.829
2017    15      4       2.007294        246.834
2017    15      5       1.98681         245.4148
2017    15      6       1.844239        239.2366
2017    15      7       1.797924        236.6825
2017    16      0       1.954936        242.3464
2017    16      1       2.622517        262.3526
2017    16      2       2.58331         262.076
2017    16      3       2.183283        251.5369
2017    16      4       1.968973        243.6472
2017    16      5       2.232677        252.7341
2017    16      6       1.992372        244.7365
2017    16      7       1.75082         235.1879
2017    17      0       1.804301        237.8679
2017    17      1       1.67193         230.9676
2017    17      2       1.540739        223.7137
2017    17      3       1.698898        232.3135
2017    17      4       1.818129        237.2745
2017    17      5       1.695033        230.8736
2017    17      6       1.745548        233.2234
2017    17      7       1.860159        238.4607
2017    18      0       1.696201        229.7603
2017    18      1       1.601855        225.5286
2017    18      2       1.596161        225.311
2017    18      3       1.735167        231.9715
2017    18      4       1.42028         213.4417
2017    18      5       1.363231        210.5698
2017    18      6       1.286851        205.521
2017    18      7       1.282334        205.2699
2017    19      0       1.35859         210.7622
2017    19      1       1.585523        225.7117
2017    19      2       1.718912        233.0929
2017    19      3       1.59063         227.2063
2017    19      4       1.699478        233.1661
2017    19      5       1.696119        232.6288
2017    19      6       1.672298        231.1734
2017    19      7       1.682404        231.5651
2017    20      0       1.729474        234.3592
2017    20      1       1.798464        238.5129
2017    20      2       1.974591        246.8419
2017    20      3       2.014507        248.9456
2017    20      4       1.94582         246.4783
2017    20      5       1.745075        237.3311
2017    20      6       1.572011        227.6238
2017    20      7       1.490113        221.9295
2017    21      0       1.568289        226.5453
2017    21      1       1.58643         228.8489
2017    21      2       1.943019        246.1378
2017    21      3       2.043278        249.7782
2017    21      4       2.079899        251.3003
2017    21      5       2.22355         254.9745
2017    21      6       2.127918        251.4347
2017    21      7       1.738719        235.4986
2017    22      0       1.882544        241.6215
2017    22      1       1.93636         244.9696
2017    22      2       2.446498        261.3107
2017    22      3       3.051467        271.9694
2017    22      4       3.120193        272.8289
2017    22      5       3.369124        275.5617
2017    22      6       3.018259        271.2581
2017    22      7       2.366799        258.8277
2017    23      0       2.79653         268.0998
2017    23      1       3.083839        272.5446
2017    23      2       3.454273        277.409
2017    23      3       3.194671        274.9964
2017    23      4       3.064626        273.0578
2017    23      5       3.081747        273.2503
2017    23      6       2.852879        269.6259
2017    23      7       2.727948        267.3498
2017    24      0       2.789585        268.4685
2017    24      1       2.996826        272.3568
2017    24      2       3.134839        274.5906
2017    24      3       2.975932        272.3426
2017    24      4       2.873621        270.989
2017    24      5       2.849992        270.6328
2017    24      6       3.38522         276.3363
2017    24      7       3.120543        273.5043
2017    25      0       3.147934        274.4079
2017    25      1       2.971665        273.1026
2017    25      2       3.299002        276.9109
2017    25      3       3.277001        276.6984
2017    25      4       3.890896        282.1902
2017    25      5       3.567502        278.3054
2017    25      6       3.046144        270.7485
2017    25      7       1.92937         243.9113
2017    26      0       1.991623        246.9865
2017    26      1       2.219988        256.4081
2017    26      2       2.551332        265.1379
2017    26      3       3.120385        273.9628
2017    26      4       2.857818        269.0078
2017    26      5       2.101917        251.2229
2017    26      6       1.829416        240.8372
2017    26      7       1.943784        245.6202
2017    27      0       2.017652        248.0729
2017    27      1       2.334915        259.9732
2017    27      2       2.748071        269.4758
2017    27      3       3.415268        278.0184
2017    27      4       2.97984         272.9067
2017    27      5       2.571702        265.492
2017    27      6       2.815471        269.7496
2017    27      7       3.229167        274.5187
2017    28      0       2.441828        261.8315
2017    28      1       2.473543        263.0126
2017    28      2       2.731761        268.3723
2017    28      3       3.142488        274.574
2017    28      4       3.214102        275.1298
2017    28      5       3.161793        274.1808
2017    28      6       2.989993        270.9993
2017    28      7       2.695866        265.5309
2017    29      0       2.821659        267.8675
2017    29      1       2.874082        268.7828
2017    29      2       3.205923        273.8778
2017    29      3       3.253991        274.3959
2017    29      4       3.327662        275.3635
2017    29      5       3.17926         273.919
2017    29      6       2.795764        268.3956
2017    29      7       2.504897        262.2627
2017    30      0       2.6265          265.16
2017    30      1       2.409945        260.4956
2017    30      2       2.875079        270.5529
2017    30      3       3.333964        276.6997
2017    30      4       3.08262         273.6939
2017    30      5       2.498402        262.7811
2017    30      6       2.20679         254.773
2017    30      7       2.038101        248.1908
2017    31      0       2.024931        247.4326
2017    31      1       1.984688        246.7919
2017    31      2       2.254437        256.0932
2017    31      3       2.528217        263.1739
2017    31      4       2.600259        264.6631
2017    31      5       2.272668        256.0263
2017    31      6       2.142741        251.1803
2017    31      7       2.185847        251.435
2018    1       0       1.388906        213.513
2018    1       1       1.769381        235.9592
2018    1       2       1.949158        244.0405
2018    1       3       1.913467        242.6473
2018    1       4       1.652386        230.3521
2018    1       5       1.208908        200.3681
2018    1       6       1.147215        194.6747
2018    1       7       1.560928        225.3149
2018    2       0       1.704878        233.2965
2018    2       1       1.766937        237.1614
2018    2       2       1.887143        243.0326
2018    2       3       1.979119        247.0695
2018    2       4       1.696752        234.1065
2018    2       5       1.620348        229.8141
2018    2       6       1.707855        233.804
2018    2       7       1.703379        233.3513
2018    3       0       1.63938         230.1395
2018    3       1       1.427498        218.0342
2018    3       2       1.422646        217.3654
2018    3       3       1.570191        226.004
2018    3       4       1.248148        202.0206
2018    3       5       1.462639        217.7741
2018    3       6       2.258218        253.9996
2018    3       7       2.180682        251.1308
2018    4       0       2.384674        257.6416
2018    4       1       2.624752        264.05
2018    4       2       3.219259        273.402
2018    4       3       2.778633        266.4327
2018    4       4       2.490053        261.9762
2018    4       5       2.469019        260.9871
2018    4       6       2.581396        262.7164
2018    4       7       2.699398        264.3657
2018    5       0       2.536022        260.1359
2018    5       1       2.452773        258.4831
2018    5       2       2.490534        259.4055
2018    5       3       2.407642        256.9599
2018    5       4       2.519794        260.9154
2018    5       5       2.506301        260.3703
2018    5       6       2.455177        258.5343
2018    5       7       2.881446        267.1947
2018    6       0       2.620341        261.7753
2018    6       1       2.322518        253.943
2018    6       2       2.19809         250.0447
2018    6       3       2.034889        244.5015
2018    6       4       1.921504        239.2419
2018    6       5       2.321008        253.5628
2018    6       6       2.192534        249.3929
2018    6       7       2.253273        251.2396
2018    7       0       1.777665        233.2502
2018    7       1       1.69714         228.6164
2018    7       2       1.824627        234.4374
2018    7       3       1.884108        236.9992
2018    7       4       2.002169        242.7528
2018    7       5       1.840133        237.5525
2018    7       6       1.867501        238.9584
2018    7       7       1.812794        235.7916
2018    8       0       1.876534        237.4239
2018    8       1       2.097677        246.9758
2018    8       2       2.086415        247.245
2018    8       3       1.889611        240.4305
2018    8       4       1.744598        234.0297
2018    8       5       1.404871        214.0764
2018    8       6       1.204258        198.658
2018    8       7       1.244491        202.1002
2018    9       0       1.486542        219.5652
2018    9       1       1.859003        239.3909
2018    9       2       2.187799        251.3203
2018    9       3       2.404086        257.5244
2018    9       4       2.409706        257.4672
2018    9       5       2.143037        249.0852
2018    9       6       1.860385        238.381
2018    9       7       1.696512        230.6365
2018    10      0       1.823789        237.3657
2018    10      1       2.019389        246.065
2018    10      2       2.267999        254.5645
2018    10      3       2.764764        266.2218
2018    10      4       2.960394        269.5371
2018    10      5       2.762225        265.9017
2018    10      6       2.144891        249.8975
2018    10      7       1.773594        234.5022
2018    11      0       1.980502        243.6862
2018    11      1       2.327955        255.7059
2018    11      2       2.278977        254.6115
2018    11      3       2.0201          245.8459
2018    11      4       1.925969        240.9313
2018    11      5       1.861134        238.1582
2018    11      6       1.882954        239.3693
2018    11      7       1.61344         226.9215
2018    12      0       1.85885         239.0886
2018    12      1       2.18293         251.5062
2018    12      2       2.481182        260.0389
2018    12      3       3.10341         271.1657
2018    12      4       2.389924        257.2795
2018    12      5       1.942832        242.5647
2018    12      6       1.735923        233.093
2018    12      7       1.716551        233.1112
2018    13      0       1.788927        237.3356
2018    13      1       2.05625         248.8108
2018    13      2       1.877287        243.0167
2018    13      3       1.973451        246.8118
2018    13      4       1.685601        233.9428
2018    13      5       1.717953        235.7334
2018    13      6       1.662975        232.6813
2018    13      7       1.452888        219.6963
2018    14      0       1.629296        230.0328
2018    14      1       1.726804        236.2468
2018    14      2       1.808464        241.1288
2018    14      3       1.949728        247.2995
2018    14      4       1.949414        247.1389
2018    14      5       1.881354        244.2862
2018    14      6       1.63249         231.5754
2018    14      7       1.259103        205.5861
2018    15      0       1.370574        213.98
2018    15      1       1.502847        223.8682
2018    15      2       1.654032        233.0936
2018    15      3       1.767982        239.105
2018    15      4       1.788819        239.908
2018    15      5       1.679035        233.6235
2018    15      6       1.30593         208.6284
2018    15      7       1.180894        197.9413
2018    16      0       1.509968        222.0247
2018    16      1       1.731672        235.2427
2018    16      2       1.712307        235.6957
2018    16      3       1.739204        237.4639
2018    16      4       1.763497        238.4642
2018    16      5       1.803129        239.7171
2018    16      6       1.638722        230.7764
2018    16      7       1.444137        218.3996
2018    17      0       1.713515        234.5625
2018    17      1       1.922524        245.2087
2018    17      2       2.098907        252.6249
2018    17      3       2.04997         251.1471
2018    17      4       1.894535        245.1157
2018    17      5       1.798677        240.5849
2018    17      6       1.484151        222.3672
2018    17      7       1.316298        209.6973
2018    18      0       1.612485        229.4873
2018    18      1       1.693683        234.872
2018    18      2       1.70847         236.3722
2018    18      3       1.719184        237.2089
2018    18      4       1.713481        236.9838
2018    18      5       1.723929        237.0597
2018    18      6       1.861805        243.2459
2018    18      7       1.821379        240.8975
2018    19      0       1.641311        231.5897
2018    19      1       1.486608        223.3606
2018    19      2       1.494481        224.6762
2018    19      3       1.60223         231.3045
2018    19      4       1.838905        242.8956
2018    19      5       1.943237        246.9155
2018    19      6       1.969359        247.5034
2018    19      7       1.882453        243.1815
2018    20      0       1.903365        244.3806
2018    20      1       1.754065        239.0008
2018    20      2       2.048569        251.6467
2018    20      3       2.37768         261.3594
2018    20      4       2.553315        265.3565
2018    20      5       2.354368        259.9908
2018    20      6       2.000496        248.8272
2018    20      7       1.92772         245.7953
2018    21      0       2.084538        251.4558
2018    21      1       2.201559        255.6533
2018    21      2       2.34494         260.2692
2018    21      3       2.245913        257.8481
2018    21      4       2.141594        254.4087
2018    21      5       1.999241        248.8872
2018    21      6       1.771433        238.7654
2018    21      7       1.653899        232.3047
2018    22      0       1.699908        234.4064
2018    22      1       1.553339        227.1929
2018    22      2       1.626196        232.2006
2018    22      3       1.766607        239.5811
2018    22      4       1.742377        238.0465
2018    22      5       1.562339        227.9564
2018    22      6       1.500465        223.9068
2018    22      7       1.292918        209.0564
2018    23      0       1.537305        226.072
2018    23      1       1.616385        231.5509
2018    23      2       1.584219        230.263
2018    23      3       1.585072        230.117
2018    23      4       1.643335        232.7893
2018    23      5       1.736325        237.2125
2018    23      6       1.712634        235.49
2018    23      7       1.398592        216.0143
2018    24      0       1.320266        211.1814
2018    24      1       1.371608        215.8875
2018    24      2       1.556666        227.5929
2018    24      3       1.660725        232.9492
2018    24      4       1.780281        237.9657
2018    24      5       1.551578        225.5095
2018    24      6       1.155436        196.1558
2018    24      7       1.065247        187.05
2018    25      0       1.204667        200.4252
2018    25      1       1.145603        196.392
2018    25      2       1.262449        206.424
2018    25      3       1.426567        218.8503
2018    25      4       1.838572        242.1523
2018    25      5       2.253435        256.8857
2018    25      6       2.510641        263.1661
2018    25      7       2.319294        258.0365
2018    26      0       2.219369        253.8679
2018    26      1       2.003255        246.8865
2018    26      2       1.846431        241.7268
2018    26      3       1.898208        244.5401
2018    26      4       1.921407        245.4883
2018    26      5       1.943883        246.4687
2018    26      6       1.878744        242.8795
2018    26      7       1.630915        229.8273
2018    27      0       1.537488        224.2195
2018    27      1       1.321797        209.9633
2018    27      2       1.343753        211.3721
2018    27      3       1.47459         219.6964
2018    27      4       1.627101        227.8158
2018    27      5       1.729966        231.945
2018    27      6       1.920479        239.7261
2018    27      7       2.35004         256.2822
2018    28      0       2.918019        268.6212
2018    28      1       3.132301        272.4219
2018    28      2       2.886167        269.5804
2018    28      3       2.913294        269.2286
2018    28      4       3.60515         280.1963
2018    28      5       3.489599        279.5853
2018    28      6       2.710089        268.5137
2018    28      7       2.246748        256.7983
2018    29      0       1.910386        245.3887
2018    29      1       1.850016        243.1563
2018    29      2       1.844496        242.8907
2018    29      3       1.773339        239.4614
2018    29      4       1.551475        226.9199
2018    29      5       0.9857921       180.7455
2018    29      6       1.066779        188.8785
2018    29      7       1.208366        201.551
2018    30      0       1.440596        218.9663
2018    30      1       1.752934        238.0266
2018    30      2       2.088674        252.2863
2018    30      3       2.30701         258.8773
2018    30      4       2.314907        258.8593
2018    30      5       2.05566         250.3601
2018    30      6       1.840729        241.3278
2018    30      7       1.810679        239.7022
2018    31      0       2.111431        251.8874
2018    31      1       2.237301        256.878
2018    31      2       2.495488        264.1795
2018    31      3       2.563632        265.8965
2018    31      4       2.457599        263.4979
2018    31      5       2.347051        260.5784
2018    31      6       2.363415        260.488
2018    31      7       2.591455        265.2054
