####################################################################################################
# Month: 02Feb                                                                                     #
# Station: BGA                                                                                     #
# Frequency: 345 GHz                                                                               #
# Columns are: year    day     segment         tau     Tb (K)                                      #
####################################################################################################
2009    1       0       0.5279555       108.0766
2009    1       1       0.4064795       89.54114
2009    1       2       0.2950835       70.00858
2009    1       3       0.3426468       78.31987
2009    1       4       0.3998157       87.87874
2009    1       5       0.4457421       95.03451
2009    1       6       0.4804972       100.7975
2009    1       7       0.5191863       107.0469
2009    2       0       0.705513        133.0892
2009    2       1       0.8206874       147.2291
2009    2       2       0.6850282       131.6885
2009    2       3       0.6681419       129.8112
2009    2       4       0.5463392       113.7406
2009    2       5       0.4589612       100.3919
2009    2       6       0.6030533       121.5227
2009    2       7       0.8803893       154.5704
2009    3       0       1.277279        189.9476
2009    3       1       1.277596        190.6023
2009    3       2       1.2313          187.5747
2009    3       3       0.6566602       128.8409
2009    3       4       0.5179636       109.336
2009    3       5       0.4708914       102.1389
2009    3       6       0.6428189       128.2343
2009    3       7       0.6100015       122.9115
2009    4       0       0.2130286       54.68978
2009    4       1       0.5625814       115.6965
2009    4       2       0.7905773       145.5494
2009    4       3       0.8676155       153.6799
2009    4       4       0.7553017       141.2454
2009    4       5       0.8270176       149.5187
2009    4       6       0.8337898       149.8083
2009    4       7       0.8988724       156.7911
2009    5       0       0.8148344       147.7614
2009    5       1       0.6921836       133.1783
2009    5       2       0.6230791       124.0749
2009    5       3       0.6743951       131.2185
2009    5       4       0.7312029       138.8377
2009    5       5       0.4796637       103.8583
2009    5       6       0.3010465       73.09215
2009    5       7       0.2116284       55.30121
2009    6       0       0.1694754       46.11054
2009    6       1       0.1782361       47.20535
2009    6       2       0.2380613       59.097
2009    6       3       0.450465        97.37066
2009    6       4       0.7431888       138.2788
2009    6       5       0.740508        137.6905
2009    6       6       0.7052669       133.6852
2009    6       7       0.6943052       132.8744
2009    7       0       0.6183087       123.4682
2009    7       1       0.435531        96.63059
2009    7       2       0.3580361       82.73064
2009    7       3       0.7654892       140.2758
2009    7       4       0.4720668       101.1358
2009    7       5       0.3012909       72.37729
2009    7       6       0.4037951       89.55209
2009    7       7       0.6402045       126.0878
2009    8       0       0.4639492       99.99642
2009    8       1       1.030909        168.9796
2009    8       2       0.7641457       140.993
2009    8       3       0.6126993       121.263
2009    8       4       0.9297852       158.8762
2009    8       5       0.5007077       105.5899
2009    8       6       0.5512752       112.677
2009    8       7       0.6157591       121.1918
2009    9       0       0.2933336       69.77389
2009    9       1       0.3058699       71.92601
2009    9       2       0.4060793       89.31347
2009    9       3       0.4939885       103.4803
2009    9       4       0.6999665       131.7619
2009    9       5       0.6091606       119.72
2009    9       6       0.4496577       96.36922
2009    9       7       0.4024027       88.62436
2009    10      0       0.3447981       79.00907
2009    10      1       0.2874173       68.94031
2009    10      2       0.2296207       57.69068
2009    10      3       0.2058902       52.76188
2009    10      4       0.2675541       64.22637
2009    10      5       0.5921047       118.2491
2009    10      6       0.8767328       154.1809
2009    10      7       0.9082242       158.0505
2009    11      0       1.034577        169.9292
2009    11      1       1.094219        174.3766
2009    11      2       0.9416115       160.4496
2009    11      3       0.7383428       138.0224
2009    11      4       0.6502596       126.4614
2009    11      5       0.9400005       159.2638
2009    11      6       0.8957265       155.4561
2009    11      7       0.6495954       125.8721
2009    12      0       0.5201632       107.4896
2009    12      1       0.2327736       58.17355
2009    12      2       0.4613598       97.73485
2009    12      3       0.4221519       91.25408
2009    12      4       0.3665093       82.4354
2009    12      5       0.3716143       83.26172
2009    12      6       0.6289812       121.3608
2009    12      7       0.6553577       124.778
2009    13      0       0.4240523       91.23505
2009    13      1       0.2883018       68.01245
2009    13      2       0.2971642       69.50541
2009    13      3       0.3039708       70.9714
2009    13      4       0.4281878       92.42489
2009    13      5       0.2614953       62.94913
2009    13      6       0.1976714       50.59791
2009    13      7       0.170349        44.51679
2009    14      0       0.2647212       63.07461
2009    14      1       0.3670279       81.54921
2009    14      2       0.389182        85.22857
2009    14      3       0.3569137       79.88169
2009    14      4       0.3211763       73.7573
2009    14      5       0.306379        71.21753
2009    14      6       0.3079268       71.28121
2009    14      7       0.3263189       74.31816
2009    15      0       0.3642918       80.77478
2009    15      1       0.3719986       82.12985
2009    15      2       0.4017921       86.84289
2009    15      3       0.4023281       86.70999
2009    15      4       0.3468868       77.48014
2009    15      5       0.300763        69.2013
2009    15      6       0.2593328       61.57444
2009    15      7       0.2264674       55.37618
2009    16      0       0.2403032       58.1438
2009    16      1       0.2699369       63.65188
2009    16      2       0.2623882       62.17362
2009    16      3       0.2907242       67.29872
2009    16      4       0.4245327       90.28112
2009    16      5       0.2646759       63.02729
2009    16      6       0.1410209       38.41994
2009    16      7       0.1559375       41.31084
2009    17      0       0.2490554       59.80502
2009    17      1       0.3266994       74.15049
2009    17      2       0.3758775       82.41336
2009    17      3       0.3328373       75.59045
2009    17      4       0.4005185       86.61132
2009    17      5       0.4102018       88.22427
2009    17      6       0.3590035       79.98263
2009    17      7       0.3376209       76.39402
2009    18      0       0.3857723       84.39167
2009    18      1       0.4158447       89.30875
2009    18      2       0.4397878       93.17947
2009    18      3       0.458579        96.45802
2009    18      4       0.6412016       122.7482
2009    18      5       0.5063821       104.0165
2009    18      6       0.5371776       108.6304
2009    18      7       0.587657        116.1346
2009    19      0       0.5869283       116.1142
2009    19      1       0.5204039       107.342
2009    19      2       0.550451        111.7999
2009    19      3       0.7512586       137.6197
2009    19      4       0.8035357       143.5855
2009    19      5       0.7669016       139.0476
2009    19      6       0.5747799       114.4108
2009    19      7       0.4640468       97.75736
2009    20      0       0.5247467       106.5999
2009    20      1       0.6989354       130.2288
2009    20      2       0.6713069       126.6692
2009    20      3       0.6742911       126.9741
2009    20      4       0.6288851       121.4249
2009    20      5       0.5511274       110.5576
2009    20      6       0.5442163       109.3276
2009    20      7       0.5445073       109.3338
2009    21      0       0.5718303       113.1317
2009    21      1       0.5085949       103.9584
2009    21      2       0.4820262       99.84906
2009    21      3       0.4483786       94.66981
2009    21      4       0.4000829       87.08905
2009    21      5       0.3735963       82.78568
2009    21      6       0.3836021       84.41934
2009    21      7       0.4088317       88.21797
2009    22      0       0.3642094       80.51011
2009    22      1       0.3501334       77.9497
2009    22      2       0.3905601       84.47197
2009    22      3       0.3997627       85.93403
2009    22      4       0.4096187       87.52324
2009    22      5       0.3349494       75.06946
2009    22      6       0.2718174       63.85605
2009    22      7       0.2399891       58.07727
2009    23      0       0.2163667       53.62298
2009    23      1       0.2189619       54.04296
2009    23      2       0.246593        59.24948
2009    23      3       0.2684268       63.43941
2009    23      4       0.2947096       68.3533
2009    23      5       0.3014911       69.66433
2009    23      6       0.2955909       68.64117
2009    23      7       0.3072846       70.84908
2009    24      0       0.277451        65.34915
2009    24      1       0.2636649       62.76777
2009    24      2       0.2643963       62.8454
2009    24      3       0.2774167       65.15316
2009    24      4       0.3071242       70.49869
2009    24      5       0.2827443       66.11447
2009    24      6       0.2676024       63.38237
2009    24      7       0.2834413       66.26741
2009    25      0       0.2784256       65.2685
2009    25      1       0.2694649       63.60329
2009    25      2       0.2644033       62.65122
2009    25      3       0.2502237       60.06599
2009    25      4       0.238595        57.88264
2009    25      5       0.2184421       54.00397
2009    25      6       0.1883181       48.09008
2009    25      7       0.2066529       52.02909
2009    26      0       0.226322        56.10014
2009    26      1       0.1962176       50.185
2009    26      2       0.1791774       46.7535
2009    26      3       0.1593735       42.65024
2009    26      4       0.1454828       39.72815
2009    26      5       0.1259809       35.56686
2009    26      6       0.1336324       37.1099
2009    26      7       0.1814459       47.06175
2009    27      0       0.2925072       68.46911
2009    27      1       0.4104858       89.07786
2009    27      2       0.4768335       99.90312
2009    27      3       0.51478         105.7636
2009    27      4       0.4464351       95.28402
2009    27      5       0.3036386       71.02505
2009    27      6       0.2559476       61.67015
2009    27      7       0.3789343       83.37747
2009    28      0       0.4241289       91.13105
2009    28      1       0.2164776       54.38821
2009    28      2       0.1270414       35.78399
2009    28      3       0.1339517       37.32504
2009    28      4       0.1415841       38.94944
2009    28      5       0.2146684       53.88948
2009    28      6       0.3586333       81.26248
2009    28      7       0.4186362       92.25713
2010    1       0       0.579806        116.1877
2010    1       1       0.72594         134.9348
2010    1       2       0.688677        130.655
2010    1       3       0.7981229       143.262
2010    1       4       0.8368288       147.6483
2010    1       5       0.3786396       84.84701
2010    1       6       0.2919111       69.24803
2010    1       7       0.1870339       48.41384
2010    2       0       0.2236523       55.04001
2010    2       1       0.3845189       83.76816
2010    2       2       0.3658028       80.81167
2010    2       3       0.2884263       67.42486
2010    2       4       0.2254461       55.39912
2010    2       5       0.1606975       42.33648
2010    2       6       0.1449518       39.03322
2010    2       7       0.1302934       35.93582
2010    3       0       0.108432        31.31612
2010    3       1       0.1076722       31.24227
2010    3       2       0.09793218      29.13284
2010    3       3       0.09636068      28.7146
2010    3       4       0.1163018       33.1041
2010    3       5       0.1876863       48.42966
2010    3       6       0.3471648       78.87166
2010    3       7       0.4533663       96.74688
2010    4       0       0.5332739       109.3431
2010    4       1       0.448545        96.38066
2010    4       2       0.4393944       94.75183
2010    4       3       0.4488999       96.48562
2010    4       4       0.3592975       81.69169
2010    4       5       0.2661689       64.58733
2010    4       6       0.312435        73.0639
2010    4       7       0.324263        75.44459
2010    5       0       0.3498296       80.31359
2010    5       1       0.4175345       91.75899
2010    5       2       0.467696        99.76339
2010    5       3       0.5019831       105.1487
2010    5       4       0.5352465       110.2431
2010    5       5       0.5405106       111.2075
2010    5       6       0.5869027       117.3757
2010    5       7       0.6745459       128.6066
2010    6       0       0.7381211       136.8886
2010    6       1       0.8641393       151.5002
2010    6       2       1.160364        179.1866
2010    6       3       1.198098        182.392
2010    6       4       1.107474        175.3389
2010    6       5       1.027076        168.0228
2010    6       6       0.9669335       162.0681
2010    6       7       0.5059937       105.8202
2010    7       0       0.3389578       77.52985
2010    7       1       0.4526364       96.23513
2010    7       2       0.5355331       108.8319
2010    7       3       0.5671014       113.7496
2010    7       4       0.6180099       120.9711
2010    7       5       0.7476239       137.8877
2010    7       6       0.7887165       142.8184
2010    7       7       0.9006121       154.7437
2010    8       0       1.017601        166.1271
2010    8       1       0.9791384       162.2982
2010    8       2       0.899818        154.4214
2010    8       3       0.7938548       142.746
2010    8       4       0.6808736       129.5193
2010    8       5       0.6343542       123.3428
2010    8       6       0.605331        119.4459
2010    8       7       0.5646038       113.9316
2010    9       0       0.4518569       97.46884
2010    9       1       0.3260001       76.3454
2010    9       2       0.2502742       62.16373
2010    9       3       0.1988952       51.90996
2010    9       4       0.1575018       43.05675
2010    9       5       0.1614589       43.48682
2010    9       6       0.1864992       48.24691
2010    9       7       0.2507446       60.80259
2010    10      0       0.3809509       84.66351
2010    10      1       0.7958327       144.5106
2010    10      2       0.9380479       160.6096
2010    10      3       1.205508        183.8898
2010    10      4       1.389916        197.7112
2010    10      5       1.427194        200.0776
2010    10      6       1.315263        194.0096
2010    10      7       1.195112        185.7343
2010    11      0       1.175454        182.2081
2010    11      1       0.6939544       133.3283
2010    11      2       0.561212        115.3181
2010    11      3       0.6242403       123.8867
2010    11      4       0.5810468       117.3609
2010    11      5       0.7521766       139.6722
2010    11      6       0.7723345       141.9164
2010    11      7       0.6176714       122.6972
2010    12      0       0.5255706       109.4082
2010    12      1       0.6059232       120.443
2010    12      2       0.6285252       123.2433
2010    12      3       0.6500702       125.7854
2010    12      4       0.7236351       136.1616
2010    12      5       0.6583555       127.5561
2010    12      6       0.8320635       148.1341
2010    12      7       1.146735        179.1037
2010    13      0       0.1544868       42.56391
2010    13      1       0.2275542       56.8471
2010    13      2       0.3807914       84.5001
2010    13      3       0.4741808       98.83153
2010    13      4       0.5711171       113.3867
2010    13      5       0.3544321       79.69809
2010    13      6       0.3770766       84.91183
2010    13      7       0.1924196       50.14443
2010    14      0       0.2106053       53.20771
2010    14      1       0.3615783       80.40831
2010    14      2       0.6015209       117.5805
2010    14      3       0.9248736       156.8332
2010    14      4       1.167838        179.9936
2010    14      5       1.28357         189.3956
2010    14      6       1.277154        188.8219
2010    14      7       1.191657        182.8198
2010    15      0       1.211731        183.5973
2010    15      1       1.179408        181.6053
2010    15      2       0.700328        133.0018
2010    15      3       0.8378035       148.2379
2010    15      4       0.6020403       119.5547
2010    15      5       0.2838874       68.78964
2010    15      6       0.1966509       51.32886
2010    15      7       0.1969711       51.17993
2010    16      0       0.2227636       55.87374
2010    16      1       0.2710571       65.25473
2010    16      2       0.3512804       79.68954
2010    16      3       0.5441486       110.5947
2010    16      4       0.8886419       155.0347
2010    16      5       1.037453        170.5824
2010    16      6       1.086873        175.7102
2010    16      7       1.291404        192.6962
2010    17      0       1.614248        212.1423
2010    17      1       1.408468        199.7581
2010    17      2       0.6741719       132.5137
2010    17      3       1.092746        176.6474
2010    17      4       0.7773783       142.9428
2010    17      5       0.7401483       139.5439
2010    17      6       0.6154018       123.8742
2010    17      7       0.7604224       142.3209
2010    18      0       0.9292545       161.394
2010    18      1       0.9264889       159.9854
2010    18      2       1.12985         178.355
2010    18      3       0.7999216       146.1778
2010    18      4       0.7380312       138.0357
2010    18      5       0.6423752       126.0726
2010    18      6       0.6876319       131.4064
2010    18      7       0.6411404       126.2804
2010    19      0       0.4634775       100.9777
2010    19      1       0.289086        71.07343
2010    19      2       0.1639276       44.97737
2010    19      3       0.1546123       41.9366
2010    19      4       0.939294        161.681
2010    19      5       1.24118         190.0135
2010    19      6       1.226243        188.7941
2010    19      7       0.8548242       155.9709
2010    20      0       0.6468374       130.7408
2010    20      1       0.4014716       92.10231
2010    20      2       0.5977347       122.8405
2010    20      3       0.550669        116.1085
2010    20      4       0.5181918       110.6086
2010    20      5       0.8173628       148.7363
2010    20      6       0.8732447       155.0099
2010    20      7       0.5658345       117.199
2010    21      0       0.5811455       117.7553
2010    21      1       0.5138303       108.3457
2010    21      2       0.3979725       88.97193
2010    21      3       0.4728277       100.4733
2010    21      4       0.7988121       142.6351
2010    21      5       0.5280889       108.3413
2010    21      6       0.298536        70.75001
2010    21      7       0.1438514       40.05921
2010    22      0       0.1337056       37.13089
2010    22      1       0.2008          50.87332
2010    22      2       0.357672        80.07904
2010    22      3       0.62752         121.685
2010    22      4       0.7997195       143.7175
2010    22      5       0.8813862       152.8974
2010    22      6       0.9139965       156.3045
2010    22      7       0.8767848       153.0223
2010    23      0       0.9993222       165.5878
2010    23      1       1.036174        169.7507
2010    23      2       0.5819549       118.4295
2010    23      3       0.4893094       104.1192
2010    23      4       0.7980191       145.1933
2010    23      5       0.9128885       157.3774
2010    23      6       1.02182         168.0602
2010    23      7       0.978603        164.4754
2010    24      0       0.8358373       149.594
2010    24      1       0.7742589       142.6689
2010    24      2       0.6257172       124.1102
2010    24      3       0.651685        127.3453
2010    24      4       0.9646266       163.2253
2010    24      5       0.9668539       163.2499
2010    24      6       0.8025925       145.5965
2010    24      7       0.8459389       149.9995
2010    25      0       0.9475098       160.408
2010    25      1       1.000192        165.3766
2010    25      2       0.9258157       158.1011
2010    25      3       0.8761635       152.9658
2010    25      4       1.068157        171.4286
2010    25      5       1.006708        165.9289
2010    25      6       0.8349936       148.4164
2010    25      7       0.6756288       129.5583
2010    26      0       0.556872        113.6797
2010    26      1       0.495063        104.7133
2010    26      2       0.4078026       91.06181
2010    26      3       0.3319157       78.05281
2010    26      4       0.3036705       72.60805
2010    26      5       0.3324666       76.61633
2010    26      6       0.8495102       150.0536
2010    26      7       0.9758669       163.9064
2010    27      0       0.8257184       148.9437
2010    27      1       0.4843167       103.3484
2010    27      2       0.7728341       141.2938
2010    27      3       0.814433        145.5442
2010    27      4       0.8257106       145.9298
2010    27      5       0.5161343       106.9989
2010    27      6       0.3880036       86.69305
2010    27      7       0.4150631       91.52063
2010    28      0       0.3044362       72.54974
2010    28      1       0.2658213       65.34556
2010    28      2       0.3291508       76.61314
2010    28      3       0.5454414       111.5082
2010    28      4       0.9377008       160.626
2010    28      5       1.244041        188.6589
2010    28      6       1.361732        197.5947
2010    28      7       1.685566        217.0062
2011    1       0       0.08958187      27.75949
2011    1       1       0.08759768      27.14678
2011    1       2       0.1056119       31.12535
2011    1       3       0.1356401       37.48996
2011    1       4       0.1608784       42.93697
2011    1       5       0.1604189       43.64233
2011    1       6       0.1647344       44.55786
2011    1       7       0.1631105       44.17604
2011    2       0       0.1585937       43.16639
2011    2       1       0.1470027       40.63368
2011    2       2       0.1309689       37.10083
2011    2       3       0.1221546       35.13756
2011    2       4       0.1187441       34.37172
2011    2       5       0.1166526       33.88381
2011    2       6       0.1180716       34.16055
2011    2       7       0.1238001       35.32942
2011    3       0       0.1345539       37.60579
2011    3       1       0.1478863       40.31651
2011    3       2       0.1852093       47.79875
2011    3       3       0.2246214       55.56144
2011    3       4       0.3454356       78.16822
2011    3       5       0.3188813       74.19002
2011    3       6       0.2021477       51.76749
2011    3       7       0.1658738       44.33381
2011    4       0       0.1397931       38.8043
2011    4       1       0.1843669       48.54002
2011    4       2       0.2620451       64.49281
2011    4       3       0.2854883       69.06867
2011    4       4       0.3448298       80.09077
2011    4       5       0.4268038       94.2572
2011    4       6       0.471134        101.101
2011    4       7       0.4506236       97.50084
2011    5       0       0.2743816       67.32249
2011    5       1       0.1713588       46.10814
2011    5       2       0.177568        47.09592
2011    5       3       0.3376678       78.64951
2011    5       4       0.5220579       109.1536
2011    5       5       0.6993185       134.5472
2011    5       6       0.6713396       131.8229
2011    5       7       0.5657454       117.4573
2011    6       0       0.4470663       98.84694
2011    6       1       0.4062855       91.74385
2011    6       2       0.4067055       91.83126
2011    6       3       0.2054413       53.69974
2011    6       4       0.209519        54.28613
2011    6       5       0.2210758       56.84512
2011    6       6       0.2395135       60.58859
2011    6       7       0.5499578       114.7351
2011    7       0       0.5890253       120.2378
2011    7       1       0.5977361       121.4244
2011    7       2       0.4545926       99.89119
2011    7       3       0.2974174       72.35759
2011    7       4       0.2338381       59.67994
2011    7       5       0.1820311       49.11482
2011    7       6       0.1401662       39.88309
2011    7       7       0.158223        43.47718
2011    8       0       0.2032276       52.76785
2011    8       1       0.2021191       52.639
2011    8       2       0.1999784       52.29019
2011    8       3       0.2096519       54.30419
2011    8       4       0.212533        54.91225
2011    8       5       0.2034262       53.25523
2011    8       6       0.1931482       51.1755
2011    8       7       0.1747451       46.99157
2011    9       0       0.1691387       45.75164
2011    9       1       0.1829469       48.48041
2011    9       2       0.1693206       45.66257
2011    9       3       0.1572573       43.26097
2011    9       4       0.1735204       46.59423
2011    9       5       0.2396639       59.91108
2011    9       6       0.2231312       56.34785
2011    9       7       0.2623259       64.13864
2011    10      0       0.2548588       62.95038
2011    10      1       0.2523525       62.53405
2011    10      2       0.20179         52.22282
2011    10      3       0.2061667       52.84367
2011    10      4       0.2883143       68.84392
2011    10      5       0.3967619       88.40934
2011    10      6       0.3540915       81.90249
2011    10      7       0.3219102       76.45524
2011    11      0       0.3488991       81.24165
2011    11      1       0.362323        83.59821
2011    11      2       0.4062952       90.56291
2011    11      3       0.2458806       61.51319
2011    11      4       0.1840788       48.75969
2011    11      5       0.1917143       50.33472
2011    11      6       0.1765956       46.99264
2011    11      7       0.1943007       50.3221
2011    12      0       0.2886477       68.82693
2011    12      1       0.3624805       83.20622
2011    12      2       0.5609181       115.2959
2011    12      3       0.5264705       110.0161
2011    12      4       0.6438348       126.6826
2011    12      5       0.6052546       121.2368
2011    12      6       0.5572062       114.179
2011    12      7       0.3532848       80.72872
2011    13      0       0.3735639       83.69405
2011    13      1       0.5364622       109.4337
2011    13      2       0.6693708       128.113
2011    13      3       0.7058687       133.1307
2011    13      4       0.7283324       135.9497
2011    13      5       0.7369713       136.8828
2011    13      6       0.724562        135.458
2011    13      7       0.6682276       128.316
2011    14      0       0.5240494       108.2119
2011    14      1       0.4645305       99.01817
2011    14      2       0.4158191       91.25148
2011    14      3       0.4310826       94.02346
2011    14      4       0.7495579       139.2132
2011    14      5       0.5353799       110.7599
2011    14      6       0.4670545       100.4945
2011    14      7       0.4652478       100.0957
2011    15      0       0.4401688       96.2838
2011    15      1       0.4261765       93.96637
2011    15      2       0.4113257       91.33943
2011    15      3       0.5488254       112.6821
2011    15      4       0.7367775       137.4306
2011    15      5       0.5878432       118.4058
2011    15      6       0.4953478       104.8453
2011    15      7       0.4717909       101.1536
2011    16      0       0.4930332       104.4369
2011    16      1       0.567987        115.7927
2011    16      2       0.5207729       108.9996
2011    16      3       0.4363782       95.92349
2011    16      4       0.5110389       107.2201
2011    16      5       0.4915579       103.9706
2011    16      6       0.7066504       132.5144
2011    16      7       0.8139562       145.6764
2011    17      0       0.8606697       151.4825
2011    17      1       0.9257908       158.7751
2011    17      2       0.6255948       123.8426
2011    17      3       0.4613484       100.1886
2011    17      4       0.2752686       67.08122
2011    17      5       0.2399406       59.95582
2011    17      6       0.2397565       60.05516
2011    17      7       0.4044156       90.23682
2011    18      0       0.6690963       129.4122
2011    18      1       1.009511        166.1623
2011    18      2       0.9900426       164.38
2011    18      3       0.7844479       143.0607
2011    18      4       0.8414466       149.4513
2011    18      5       0.7235077       136.5449
2011    18      6       0.9226118       158.2845
2011    18      7       1.087727        174.0552
2011    19      0       0.9870483       164.6096
2011    19      1       0.9887962       164.7116
2011    19      2       1.185172        181.6559
2011    19      3       0.9547119       161.84
2011    19      4       0.8626227       152.566
2011    19      5       0.8286053       148.6072
2011    19      6       0.807986        146.1838
2011    19      7       0.7397259       137.6346
2011    20      0       0.7758382       141.3915
2011    20      1       0.8806779       152.7969
2011    20      2       0.7088922       133.815
2011    20      3       0.4914712       104.1609
2011    20      4       0.332571        77.90806
2011    20      5       0.2280326       57.80148
2011    20      6       0.2057829       52.79386
2011    20      7       0.2371853       58.46028
2011    21      0       0.3638291       81.55373
2011    21      1       0.633527        122.9191
2011    21      2       0.7941228       142.8191
2011    21      3       0.8058454       144.1976
2011    21      4       0.6733029       129.3854
2011    21      5       0.7506469       139.0983
2011    21      6       0.7449826       139.2315
2011    21      7       0.6524895       127.2033
2011    22      0       0.9402265       159.2857
2011    22      1       0.9717002       162.436
2011    22      2       0.5565137       114.093
2011    22      3       0.2816816       68.48563
2011    22      4       0.3559273       82.32949
2011    22      5       0.3511742       81.12658
2011    22      6       0.4912606       103.8926
2011    22      7       0.5233959       108.4783
2011    23      0       0.5955429       118.8593
2011    23      1       0.5212584       108.2956
2011    23      2       0.4350833       94.25948
2011    23      3       0.4357732       94.12348
2011    23      4       0.613016        120.7222
2011    23      5       0.4762309       100.5929
2011    23      6       0.3762756       84.24556
2011    23      7       0.3475685       79.61622
2011    24      0       0.3417254       78.49705
2011    24      1       0.3027173       71.13882
2011    24      2       0.3168466       73.06219
2011    24      3       0.3092755       71.88221
2011    24      4       0.3154701       73.48674
2011    24      5       0.2829          68.22569
2011    24      6       0.3215025       75.84401
2011    24      7       0.3371911       78.91859
2011    25      0       0.2791499       68.21346
2011    25      1       0.2738822       67.07693
2011    25      2       0.3753504       85.46534
2011    25      3       0.4964466       104.8314
2011    25      4       0.684184        130.6158
2011    25      5       0.6788748       130.018
2011    25      6       0.6393042       124.8494
2011    25      7       0.5541184       113.1997
2011    26      0       0.5291757       109.5772
2011    26      1       0.6515515       126.3962
2011    26      2       0.6591105       126.9665
2011    26      3       0.5535841       112.5974
2011    26      4       0.5269713       108.8375
2011    26      5       0.5357415       109.9973
2011    26      6       0.5205652       107.6832
2011    26      7       0.4710546       100.3315
2011    27      0       0.428981        93.70471
2011    27      1       0.4178308       91.66117
2011    27      2       0.3982793       88.24236
2011    27      3       0.3848959       85.93944
2011    27      4       0.3902223       86.88721
2011    27      5       0.3942632       87.49348
2011    27      6       0.3921952       86.9952
2011    27      7       0.3909249       86.82061
2011    28      0       0.4322835       93.625
2011    28      1       0.5086048       105.4327
2011    28      2       0.4529752       97.23157
2011    28      3       0.414812        91.14004
2011    28      4       0.4258206       93.08902
2011    28      5       0.3578094       81.54042
2011    28      6       0.3190937       74.59321
2011    28      7       0.311761        73.14119
2012    1       0       0.09626462      28.47706
2012    1       1       0.1122905       31.81454
2012    1       2       0.1355192       36.79824
2012    1       3       0.1662826       43.41028
2012    1       4       0.2080166       51.92492
2012    1       5       0.2647035       62.99271
2012    1       6       0.3775719       83.10763
2012    1       7       0.5823014       114.6934
2012    2       0       0.6394341       122.4273
2012    2       1       0.6059282       118.1389
2012    2       2       0.5932124       116.3379
2012    2       3       0.5472282       109.8738
2012    2       4       0.5031445       103.7839
2012    2       5       0.2751391       65.79168
2012    2       6       0.2518315       60.70881
2012    2       7       0.5168089       105.5895
2012    3       0       0.6204193       120.9668
2012    3       1       0.7166777       133.2487
2012    3       2       0.7063183       131.9393
2012    3       3       0.679039        128.7556
2012    3       4       0.6501765       125.3968
2012    3       5       0.668974        127.8352
2012    3       6       0.4893972       102.0209
2012    3       7       0.4329756       92.81435
2012    4       0       0.5119986       105.8944
2012    4       1       0.5547633       112.5464
2012    4       2       0.5333505       109.4979
2012    4       3       0.4639907       98.97527
2012    4       4       0.5315458       109.7926
2012    4       5       0.532884        110.3621
2012    4       6       0.6202587       122.487
2012    4       7       0.612554        121.1806
2012    5       0       0.6606304       127.5522
2012    5       1       0.7128684       134.1447
2012    5       2       0.7315375       135.9873
2012    5       3       0.6511332       126.1704
2012    5       4       0.6650193       127.9207
2012    5       5       0.9663869       161.39
2012    5       6       0.8228721       146.1602
2012    5       7       0.8513223       149.7802
2012    6       0       0.607814        120.5119
2012    6       1       0.3191603       75.04071
2012    6       2       0.5331524       109.8362
2012    6       3       0.8269023       147.6524
2012    6       4       0.7682096       140.3167
2012    6       5       0.6523388       125.4937
2012    6       6       0.6573356       126.1775
2012    6       7       0.8642454       150.5917
2012    7       0       0.9155509       156.9813
2012    7       1       1.129889        177.1824
2012    7       2       0.5802259       116.3422
2012    7       3       0.5293218       109.0864
2012    7       4       0.622827        122.0731
2012    7       5       0.6730092       128.2853
2012    7       6       0.7479323       136.9766
2012    7       7       0.7083875       131.9537
2012    8       0       0.6790938       128.2958
2012    8       1       0.7160312       133.0037
2012    8       2       0.6956993       130.3263
2012    8       3       0.6524348       124.6119
2012    8       4       0.5688301       113.6394
2012    8       5       0.5715872       113.8563
2012    8       6       0.5737734       113.8741
2012    8       7       0.5552407       111.0559
2012    9       0       0.4896369       101.3998
2012    9       1       0.4633051       97.23842
2012    9       2       0.4300505       91.89216
2012    9       3       0.4480486       94.5349
2012    9       4       0.4808977       99.70397
2012    9       5       0.4766361       99.16436
2012    9       6       0.4975763       102.2838
2012    9       7       0.4616788       96.70117
2012    10      0       0.4230759       90.43384
2012    10      1       0.421528        90.03745
2012    10      2       0.3879067       84.95127
2012    10      3       0.3747612       82.41504
2012    10      4       0.4103103       88.26588
2012    10      5       0.381712        83.70689
2012    10      6       0.3728541       82.35721
2012    10      7       0.52019         105.5574
2012    11      0       0.5981064       117.1466
2012    11      1       0.5419921       109.5547
2012    11      2       0.5010622       103.6295
2012    11      3       0.4570533       96.55329
2012    11      4       0.5641693       112.3917
2012    11      5       0.6013661       117.8339
2012    11      6       0.6144267       119.805
2012    11      7       0.6719826       127.3716
2012    12      0       0.735108        135.7298
2012    12      1       0.5232875       108.082
2012    12      2       0.4093699       90.26533
2012    12      3       0.3618897       82.3554
2012    12      4       0.4378183       95.31273
2012    12      5       0.6410595       125.375
2012    12      6       0.5722031       115.5861
2012    12      7       0.57079         115.2532
2012    13      0       0.604576        120.375
2012    13      1       0.6849349       130.7647
2012    13      2       0.7781461       141.5799
2012    13      3       0.845189        148.5598
2012    13      4       0.5765193       115.2142
2012    13      5       0.3593435       80.89695
2012    13      6       0.3099649       71.95601
2012    13      7       0.2934396       68.91475
2012    14      0       0.1902328       49.03109
2012    14      1       0.1152012       33.02652
2012    14      2       0.1283013       35.59481
2012    14      3       0.185527        47.25599
2012    14      4       0.2271879       55.84332
2012    14      5       0.2358076       57.47339
2012    14      6       0.3135722       71.79108
2012    14      7       0.3047498       70.37542
2012    15      0       0.2503068       60.35149
2012    15      1       0.2456298       59.1978
2012    15      2       0.2960269       68.64181
2012    15      3       0.3379028       76.50667
2012    15      4       0.2411429       58.76692
2012    15      5       0.1588102       41.85886
2012    15      6       0.3846103       83.82749
2012    15      7       0.4202969       89.76813
2012    16      0       0.4035962       87.1309
2012    16      1       0.3089214       70.64005
2012    16      2       0.2663628       62.74713
2012    16      3       0.3749925       81.71444
2012    16      4       0.4159809       88.63335
2012    16      5       0.3821809       83.228
2012    16      6       0.2873703       66.51205
2012    16      7       0.2190116       53.70478
2012    17      0       0.25342         60.34642
2012    17      1       0.2789957       65.20007
2012    17      2       0.2305211       56.28551
2012    17      3       0.2110001       52.60956
2012    17      4       0.2154156       53.61848
2012    17      5       0.2294116       56.35179
2012    17      6       0.2875969       67.22956
2012    17      7       0.437666        93.06993
2012    18      0       0.5672559       112.7041
2012    18      1       0.5465675       109.7939
2012    18      2       0.4742815       98.99266
2012    18      3       0.4356409       93.44696
2012    18      4       0.3994473       87.66672
2012    18      5       0.4799518       100.5358
2012    18      6       0.3012697       70.96586
2012    18      7       0.2152575       54.49425
2012    19      0       0.2309589       57.35043
2012    19      1       0.3108272       72.49936
2012    19      2       0.4645244       98.90085
2012    19      3       0.4700299       100.0483
2012    19      4       0.3795485       85.38457
2012    19      5       0.348774        80.0885
2012    19      6       0.3279517       76.58689
2012    19      7       0.3668009       83.78526
2012    20      0       0.385457        87.04414
2012    20      1       0.3706947       84.40704
2012    20      2       0.3471405       80.13515
2012    20      3       0.3582741       81.93237
2012    20      4       0.4211319       91.97815
2012    20      5       0.4365645       94.18285
2012    20      6       0.4633339       98.10696
2012    20      7       0.4849949       101.3184
2012    21      0       0.4699507       99.15463
2012    21      1       0.4333449       93.75429
2012    21      2       0.4093558       89.90022
2012    21      3       0.4023656       88.77591
2012    21      4       0.4308293       93.39339
2012    21      5       0.481963        101.5221
2012    21      6       0.4880529       102.8027
2012    21      7       0.4768659       101.2227
2012    22      0       0.4371334       95.07622
2012    22      1       0.3995019       88.7519
2012    22      2       0.3917473       87.44057
2012    22      3       0.3873712       86.43446
2012    22      4       0.3864087       86.19208
2012    22      5       0.4196493       91.48767
2012    22      6       0.461562        98.02874
2012    22      7       0.4780372       100.448
2012    23      0       0.3969197       87.60342
2012    23      1       0.3186872       73.95035
2012    23      2       0.2657474       64.29768
2012    23      3       0.206135        52.8533
2012    23      4       0.1610199       43.884
2012    23      5       0.1209757       35.29439
2012    23      6       0.1075054       32.17841
2012    23      7       0.1093876       32.37389
2012    24      0       0.1579601       42.51198
2012    24      1       0.4342791       93.80152
2012    24      2       0.8626263       153.55
2012    24      3       0.605805        120.7915
2012    24      4       0.6879617       132.7629
2012    24      5       0.8027641       147.3869
2012    24      6       0.6953502       134.2495
2012    24      7       0.8408412       152.1959
2012    25      0       0.7121396       136.7847
2012    25      1       0.5997808       120.558
2012    25      2       0.9107443       159.0748
2012    25      3       0.8600861       154.0805
2012    25      4       0.2548182       63.21707
2012    25      5       0.140565        38.95086
2012    25      6       0.2079329       52.76152
2012    25      7       0.3104079       71.91923
2012    26      0       0.4544099       96.46719
2012    26      1       0.4034487       88.21534
2012    26      2       0.5497252       111.3116
2012    26      3       0.6960419       131.1652
2012    26      4       0.7719724       140.5228
2012    26      5       0.860944        150.3487
2012    26      6       0.8691793       150.8228
2012    26      7       0.8242384       145.4061
2012    27      0       0.7892648       141.3102
2012    27      1       0.7919809       141.4241
2012    27      2       0.7430414       135.0772
2012    27      3       0.5840683       115.0346
2012    27      4       0.568623        112.6308
2012    27      5       0.4996387       102.5707
2012    27      6       0.2805454       66.26519
2012    27      7       0.08853028      27.25396
2012    28      0       0.08730243      26.95036
2012    28      1       0.08385806      26.0949
2012    28      2       0.1057266       30.83859
2012    28      3       0.1881848       47.94507
2012    28      4       0.2144541       53.08455
2012    28      5       0.1620642       42.7698
2012    28      6       0.1434013       38.94972
2012    28      7       0.1198229       33.71767
2012    29      0       0.2899687       67.4703
2012    29      1       0.7096192       131.5406
2012    29      2       0.7382186       136.1109
2012    29      3       0.5684907       113.8823
2012    29      4       0.4947054       102.4382
2012    29      5       0.4686384       98.20324
2012    29      6       0.4540499       96.08884
2012    29      7       0.4277328       91.88992
2013    1       0       0.321579        74.2978
2013    1       1       0.3063804       71.29715
2013    1       2       0.3817608       84.28377
2013    1       3       0.5483448       110.6699
2013    1       4       0.5690047       113.7222
2013    1       5       0.5335793       109.1521
2013    1       6       0.5487409       112.2017
2013    1       7       0.6428413       125.1035
2013    2       0       0.8218762       147.3912
2013    2       1       0.9154143       158.2027
2013    2       2       0.8685622       154.14
2013    2       3       0.4386338       96.78165
2013    2       4       0.3026965       72.55113
2013    2       5       0.2814607       68.52738
2013    2       6       0.2551786       63.56122
2013    2       7       0.2450911       61.75852
2013    3       0       0.2421371       61.52085
2013    3       1       0.263318        65.58686
2013    3       2       0.3148715       75.29636
2013    3       3       0.4657609       101.33
2013    3       4       0.7624979       142.3217
2013    3       5       0.99361         165.2242
2013    3       6       0.8832434       153.6771
2013    3       7       0.8226147       147.4964
2013    4       0       0.5815319       116.5581
2013    4       1       0.5699355       114.5819
2013    4       2       0.5372263       109.4045
2013    4       3       0.5708488       114.1782
2013    4       4       0.421249        91.31556
2013    4       5       0.3107911       73.04775
2013    4       6       0.2175121       55.36674
2013    4       7       0.2333261       58.21512
2013    5       0       0.2907275       69.83206
2013    5       1       0.3538706       81.55501
2013    5       2       0.3594285       82.65871
2013    5       3       0.3420226       79.73609
2013    5       4       0.343992        80.03671
2013    5       5       0.3326757       77.87138
2013    5       6       0.3335837       77.73616
2013    5       7       0.3445621       79.12721
2013    6       0       0.3069801       72.33429
2013    6       1       0.3365457       77.72996
2013    6       2       0.3929038       87.65227
2013    6       3       0.5047784       105.578
2013    6       4       0.5832254       116.5948
2013    6       5       0.7088813       132.8097
2013    6       6       0.5687317       114.8656
2013    6       7       0.4203688       92.65838
2013    7       0       0.3876397       87.34541
2013    7       1       0.656022        127.6314
2013    7       2       0.5578388       113.6479
2013    7       3       0.6135163       120.9461
2013    7       4       1.075014        171.9855
2013    7       5       0.7393171       136.4196
2013    7       6       0.8688837       150.7111
2013    7       7       0.9299424       157.1207
2013    8       0       0.7292079       134.3787
2013    8       1       0.7707965       140.4449
2013    8       2       0.5571783       112.905
2013    8       3       0.5938526       117.7362
2013    8       4       0.3340375       77.26502
2013    8       5       0.1659178       44.25557
2013    8       6       0.4309122       92.6668
2013    8       7       0.5924412       116.6184
2013    9       0       0.4326428       92.88013
2013    9       1       0.2532017       61.32105
2013    9       2       0.4159827       90.24989
2013    9       3       0.4354708       93.62716
2013    9       4       0.6426387       123.2317
2013    9       5       0.6025053       117.3658
2013    9       6       0.4730081       99.08343
2013    9       7       0.4770451       100.1536
2013    10      0       0.4836727       101.1866
2013    10      1       0.5820674       115.1814
2013    10      2       0.5918485       116.5623
2013    10      3       0.7380614       135.1641
2013    10      4       0.5913886       116.1899
2013    10      5       0.44381         94.27837
2013    10      6       0.2684919       63.95629
2013    10      7       0.2052908       51.63793
2013    11      0       0.2298524       56.08001
2013    11      1       0.3089637       70.95092
2013    11      2       0.3181976       72.83798
2013    11      3       0.4005676       87.2285
2013    11      4       0.3871132       85.63057
2013    11      5       0.1911527       49.14386
2013    11      6       0.308181        71.65292
2013    11      7       0.448661        96.39222
2013    12      0       0.543508        110.6884
2013    12      1       0.6633627       126.8379
2013    12      2       0.6800176       129.2288
2013    12      3       0.6795913       129.5345
2013    12      4       0.5925265       117.7274
2013    12      5       0.4973074       103.7482
2013    12      6       0.4542294       96.42504
2013    12      7       0.6135173       119.852
2013    13      0       0.5823742       116.112
2013    13      1       0.5287959       108.9321
2013    13      2       0.5126306       106.1041
2013    13      3       0.7383193       136.364
2013    13      4       0.7192237       134.05
2013    13      5       0.7265755       134.9397
2013    13      6       0.6951559       131.1689
2013    13      7       0.6293489       122.3141
2013    14      0       0.7616883       138.8349
2013    14      1       0.8363043       147.3096
2013    14      2       0.8180333       145.763
2013    14      3       0.7986478       143.8215
2013    14      4       0.8888512       153.4472
2013    14      5       0.7754565       140.5264
2013    14      6       0.516902        106.4288
2013    14      7       0.5040876       104.5588
2013    15      0       0.5737368       114.4945
2013    15      1       0.5782168       115.0448
2013    15      2       0.5380223       109.1103
2013    15      3       0.4915093       102.0546
2013    15      4       0.4068712       88.84091
2013    15      5       0.3520566       79.69358
2013    15      6       0.3661216       82.39808
2013    15      7       0.4322638       93.46948
2013    16      0       0.4620395       98.05611
2013    16      1       0.4212463       91.77235
2013    16      2       0.3537887       80.4537
2013    16      3       0.4137605       90.55181
2013    16      4       0.6184287       120.663
2013    16      5       0.4199101       90.70896
2013    16      6       0.3406741       77.33266
2013    16      7       0.308157        71.688
2013    17      0       0.2992911       70.11041
2013    17      1       0.2810583       66.69992
2013    17      2       0.2769929       65.78
2013    17      3       0.2884277       67.75144
2013    17      4       0.4232733       91.37161
2013    17      5       0.3501167       79.09236
2013    17      6       0.3107345       72.09659
2013    17      7       0.3162411       73.06083
2013    18      0       0.3339938       76.25807
2013    18      1       0.3627983       81.34921
2013    18      2       0.4046218       88.39111
2013    18      3       0.4954546       102.8414
2013    18      4       0.6927512       130.1395
2013    18      5       0.4652682       98.22855
2013    18      6       0.4512736       95.83121
2013    18      7       0.4843104       100.7812
2013    19      0       0.5469634       109.9903
2013    19      1       0.6020592       117.7321
2013    19      2       0.6675768       126.6986
2013    19      3       0.7399101       135.8494
2013    19      4       0.8168462       144.6312
2013    19      5       0.8140501       144.6086
2013    19      6       0.717632        133.131
2013    19      7       0.6310651       121.8028
2013    20      0       0.4480144       95.51665
2013    20      1       0.3091071       72.33637
2013    20      2       0.2467232       60.05508
2013    20      3       0.3130848       72.54662
2013    20      4       0.4780428       100.7832
2013    20      5       0.5205545       107.0561
2013    20      6       0.5563041       112.3842
2013    20      7       0.3084826       72.35473
2013    21      0       0.1560925       42.02216
2013    21      1       0.1603398       42.72337
2013    21      2       0.2923166       68.60492
2013    21      3       0.5822066       115.8871
2013    21      4       0.9446572       159.8405
2013    21      5       0.9645641       162.2322
2013    21      6       0.9221556       157.8834
2013    21      7       0.993126        164.6162
2013    22      0       1.002849        165.9819
2013    22      1       0.9648534       162.3518
2013    22      2       0.9581806       161.2941
2013    22      3       0.896667        155.0528
2013    22      4       0.9287675       158.382
2013    22      5       0.9345107       159.2299
2013    22      6       0.8845098       154.188
2013    22      7       0.7752073       142.33
2013    23      0       0.6514304       127.19
2013    23      1       0.5646323       115.122
2013    23      2       0.4390767       96.10619
2013    23      3       0.6318806       124.1736
2013    23      4       0.7898063       144.3062
2013    23      5       0.6146603       123.0098
2013    23      6       0.5246172       110.7113
2013    23      7       0.5376467       111.9428
2013    24      0       0.6802341       131.2075
2013    24      1       0.7750558       143.6418
2013    24      2       0.7488089       140.6297
2013    24      3       0.7599514       141.7042
2013    24      4       0.7703002       142.697
2013    24      5       0.7506395       139.8071
2013    24      6       0.8186033       147.5949
2013    24      7       0.7351604       138.0369
2013    25      0       0.7266642       137.3034
2013    25      1       0.8119921       146.7378
2013    25      2       0.940173        160.3369
2013    25      3       0.8391625       149.9925
2013    25      4       0.9038227       156.3414
2013    25      5       0.8350256       149.0811
2013    25      6       0.808991        146.1085
2013    25      7       0.9891874       164.1733
2013    26      0       0.8976286       155.8846
2013    26      1       0.7076723       133.9638
2013    26      2       0.6024619       119.6705
2013    26      3       0.5358706       110.0213
2013    26      4       0.5946577       117.7455
2013    26      5       0.5105203       105.7806
2013    26      6       0.3966899       87.8031
2013    26      7       0.4086592       89.88717
2013    27      0       0.4559722       97.56452
2013    27      1       0.4836704       101.7082
2013    27      2       0.5495672       111.2599
2013    27      3       0.5754815       115.1583
2013    27      4       0.7285536       134.9101
2013    27      5       0.6392468       123.0675
2013    27      6       0.5654051       112.7193
2013    27      7       0.6932051       129.8991
2013    28      0       0.681596        128.6436
2013    28      1       0.6026074       118.6033
2013    28      2       0.5712752       114.4921
2013    28      3       0.54541         111.0817
2013    28      4       0.5262829       108.5577
2013    28      5       0.4638501       99.09838
2013    28      6       0.3732787       84.30768
2013    28      7       0.3056344       72.39508
2014    1       0       0.731653        137.9962
2014    1       1       0.6582582       128.8262
2014    1       2       0.6468562       127.4036
2014    1       3       0.6275199       125.0764
2014    1       4       0.7040798       135.4728
2014    1       5       0.7004666       135.0772
2014    1       6       0.6293253       125.6268
2014    1       7       0.5778733       118.4207
2014    2       0       0.4794025       103.6706
2014    2       1       0.5372935       112.1961
2014    2       2       0.3335239       78.51511
2014    2       3       0.1575778       43.16272
2014    2       4       0.105237        31.33166
2014    2       5       0.09265824      28.65182
2014    2       6       0.09962372      30.4126
2014    2       7       0.121208        35.37598
2014    3       0       0.1196183       35.03244
2014    3       1       0.1215018       35.37719
2014    3       2       0.1562189       42.81338
2014    3       3       0.1330132       37.92568
2014    3       4       0.1439475       40.14902
2014    3       5       0.1239167       35.65007
2014    3       6       0.08584858      26.84904
2014    3       7       0.08300031      26.31108
2014    4       0       0.08682141      27.17584
2014    4       1       0.1148111       33.608
2014    4       2       0.1641791       44.42407
2014    4       3       0.2370136       59.46318
2014    4       4       0.3067598       72.9188
2014    4       5       0.3322118       77.51325
2014    4       6       0.2893148       69.74574
2014    4       7       0.2261736       57.38768
2014    5       0       0.3132575       73.93682
2014    5       1       0.4997931       105.0564
2014    5       2       0.4689263       100.1211
2014    5       3       0.3587208       81.91188
2014    5       4       0.2985171       71.12948
2014    5       5       0.3722507       84.52147
2014    5       6       0.4201398       92.77723
2014    5       7       0.4074233       90.83955
2014    6       0       0.3444327       79.90783
2014    6       1       0.3331372       77.74046
2014    6       2       0.4048797       89.8588
2014    6       3       0.4921473       103.5544
2014    6       4       0.5752364       115.6139
2014    6       5       0.6836103       130.0421
2014    6       6       0.7051065       133.0901
2014    6       7       0.6816845       130.7269
2014    7       0       0.5907651       119.1581
2014    7       1       0.491245        104.8515
2014    7       2       0.3265399       77.47136
2014    7       3       0.27724         67.86125
2014    7       4       0.2880367       69.65062
2014    7       5       0.3327553       77.96896
2014    7       6       0.3696702       85.22457
2014    7       7       0.4490452       99.32321
2014    8       0       0.4828303       105.1069
2014    8       1       0.502938        107.9688
2014    8       2       0.5630621       116.896
2014    8       3       0.6615178       130.6705
2014    8       4       0.7497668       141.6889
2014    8       5       1.023667        170.441
2014    8       6       1.041874        171.2134
2014    8       7       0.9310302       160.5956
2014    9       0       0.8450968       151.5889
2014    9       1       0.5506545       114.399
2014    9       2       0.4959776       105.6694
2014    9       3       0.8356539       149.8011
2014    9       4       0.8436349       151.6067
2014    9       5       0.8727564       153.9176
2014    9       6       1.202707        183.11
2014    9       7       0.9262676       159.7192
2014    10      0       0.6730644       131.0667
2014    10      1       0.3410081       79.91571
2014    10      2       0.2233319       56.69962
2014    10      3       0.2740777       67.21265
2014    10      4       0.5114131       108.2094
2014    10      5       0.8321297       150.1599
2014    10      6       1.237359        188.4831
2014    10      7       1.247008        189.8794
2014    11      0       1.22465         187.844
2014    11      1       1.256931        190.6475
2014    11      2       0.8487368       154.1551
2014    11      3       0.7300572       140.8754
2014    11      4       0.4918692       106.1966
2014    11      5       0.4611008       100.5123
2014    11      6       0.4984868       106.2714
2014    11      7       0.4869104       105.1224
2014    12      0       0.4836872       104.6975
2014    12      1       0.405648        91.85355
2014    12      2       0.3634651       84.46606
2014    12      3       0.3511827       82.24327
2014    12      4       0.437975        97.15957
2014    12      5       0.5307069       111.3343
2014    12      6       0.8629118       153.0646
2014    12      7       0.9879503       164.8166
2014    13      0       0.5296774       110.4064
2014    13      1       0.4636125       100.0942
2014    13      2       0.4869862       103.7883
2014    13      3       0.5391689       112.032
2014    13      4       0.8010142       146.3086
2014    13      5       0.5161544       108.3422
2014    13      6       0.3624719       83.14518
2014    13      7       0.2900437       69.92612
2014    14      0       0.2481327       61.99626
2014    14      1       0.1576274       43.40063
2014    14      2       0.1718657       45.90679
2014    14      3       0.2469365       60.59521
2014    14      4       0.3998784       87.99227
2014    14      5       0.5349591       109.3956
2014    14      6       0.5105391       106.1371
2014    14      7       0.4603062       98.82184
2014    15      0       0.4313492       94.81072
2014    15      1       0.3951455       89.31183
2014    15      2       0.3246657       77.12136
2014    15      3       0.2462731       62.27734
2014    15      4       0.2806698       68.91563
2014    15      5       0.4046668       91.1771
2014    15      6       0.4541475       99.62473
2014    15      7       0.6202872       125.2132
2014    16      0       0.6372456       128.3407
2014    16      1       0.2650728       66.4011
2014    16      2       0.2188327       57.11409
2014    16      3       0.2210573       57.58722
2014    16      4       0.2549977       64.39349
2014    16      5       0.2401318       61.29576
2014    16      6       0.223767        57.8125
2014    16      7       0.2891832       70.81226
2014    17      0       0.2961442       71.83897
2014    17      1       0.2808107       68.98033
2014    17      2       0.3117138       74.82653
2014    17      3       0.353533        82.36262
2014    17      4       0.3958456       89.40229
2014    17      5       0.4223845       93.59797
2014    17      6       0.4739321       102.034
2014    17      7       0.4771325       102.8081
2014    18      0       0.5031591       106.8466
2014    18      1       0.5375494       112.0242
2014    18      2       0.5209701       109.7061
2014    18      3       0.4546468       99.4082
2014    18      4       0.4547663       99.44987
2014    18      5       0.4195085       94.00114
2014    18      6       0.276014        67.74863
2014    18      7       0.2303852       58.01278
2014    19      0       0.2921263       69.64688
2014    19      1       0.294925        70.71721
2014    19      2       0.2657527       65.73895
2014    19      3       0.225361        57.61883
2014    19      4       0.2560721       63.68046
2014    19      5       0.3614149       83.35768
2014    19      6       0.5127764       108.9487
2014    19      7       0.6054193       122.4303
2014    20      0       0.6598985       128.8276
2014    20      1       0.5166603       107.7879
2014    20      2       0.5116701       107.0188
2014    20      3       0.4404745       96.27296
2014    20      4       0.5158522       108.1304
2014    20      5       0.4715426       100.868
2014    20      6       0.4880144       102.6744
2014    20      7       0.4488445       96.35618
2014    21      0       0.806684        144.8464
2014    21      1       0.6365452       124.1881
2014    21      2       0.5148472       106.9501
2014    21      3       0.9535605       160.9303
2014    21      4       0.6274546       122.9899
2014    21      5       0.7473008       138.7472
2014    21      6       0.4520503       97.34464
2014    21      7       0.4753324       100.0684
2014    22      0       0.5519239       112.1817
2014    22      1       0.6099445       120.9705
2014    22      2       0.5739392       116.0085
2014    22      3       0.4661995       99.95115
2014    22      4       0.4214054       92.74161
2014    22      5       0.6607425       128.3384
2014    22      6       0.8016607       145.7695
2014    22      7       0.9473102       160.7683
2014    23      0       0.9712676       163.0094
2014    23      1       1.012574        166.7041
2014    23      2       0.9845018       163.4243
2014    23      3       0.8905355       153.9301
2014    23      4       0.8773745       152.7371
2014    23      5       0.7199234       134.9491
2014    23      6       0.5985499       118.8559
2014    23      7       0.6118697       120.7345
2014    24      0       0.6020719       119.4586
2014    24      1       0.6618894       127.2637
2014    24      2       0.7417271       137.2243
2014    24      3       0.711347        133.8474
2014    24      4       0.6434811       125.2076
2014    24      5       0.6048146       119.9263
2014    24      6       0.6229857       122.3276
2014    24      7       0.6267087       122.7321
2014    25      0       0.5717286       115.0851
2014    25      1       0.5330431       109.417
2014    25      2       0.4950187       103.7423
2014    25      3       0.4956471       103.83
2014    25      4       0.5350859       109.9923
2014    25      5       0.4676882       99.84309
2014    25      6       0.4614962       98.93841
2014    25      7       0.4823572       102.0356
2014    26      0       0.474287        100.7453
2014    26      1       0.4611803       98.65823
2014    26      2       0.4561174       97.83401
2014    26      3       0.4254274       93.1054
2014    26      4       0.4167727       91.88988
2014    26      5       0.3610906       82.37792
2014    26      6       0.3560347       81.46193
2014    26      7       0.3432993       79.20808
2014    27      0       0.3180888       74.70631
2014    27      1       0.2874999       69.02878
2014    27      2       0.2539348       62.47599
2014    27      3       0.2306268       57.76789
2014    27      4       0.2175515       54.98954
2014    27      5       0.2537477       62.05896
2014    27      6       0.2747446       65.75615
2014    27      7       0.3030118       70.65271
2014    28      0       0.302696        70.91802
2014    28      1       0.3248479       74.67198
2014    28      2       0.481992        101.0221
2014    28      3       0.8210748       145.9685
2014    28      4       0.9958077       164.7431
2014    28      5       0.7116726       134.1989
2014    28      6       0.7015458       132.2714
2014    28      7       0.6661836       127.9853
2015    1       0       1.15638         183.5386
2015    1       1       1.263103        190.542
2015    1       2       0.9985906       168.2738
2015    1       3       0.6808748       131.9901
2015    1       4       0.8507186       150.303
2015    1       5       1.025001        166.1015
2015    1       6       0.8397          147.1491
2015    1       7       0.7014941       131.3135
2015    2       0       1.069692        170.4664
2015    2       1       0.7773596       140.8209
2015    2       2       0.4885912       102.1995
2015    2       3       0.3131329       73.16607
2015    2       4       0.3502912       79.51926
2015    2       5       0.5850583       115.6522
2015    2       6       0.7239658       133.5908
2015    2       7       0.7355536       135.3111
2015    3       0       0.583665        115.225
2015    3       1       0.4600841       97.17901
2015    3       2       0.3333456       76.2703
2015    3       3       0.1357082       37.68063
2015    3       4       0.1360236       37.50424
2015    3       5       0.183764        47.16904
2015    3       6       0.2175245       54.09402
2015    3       7       0.2533995       61.44686
2015    4       0       0.3600027       80.51
2015    4       1       0.4782113       100.0725
2015    4       2       0.5203206       107.3904
2015    4       3       0.7362476       136.2232
2015    4       4       0.6462834       125.7082
2015    4       5       0.7902352       143.4377
2015    4       6       0.6089439       120.7512
2015    4       7       0.6033328       119.7169
2015    5       0       0.6243681       123.0082
2015    5       1       0.534446        110.6199
2015    5       2       0.4611095       99.26771
2015    5       3       0.467063        100.4969
2015    5       4       0.7141215       136.1512
2015    5       5       0.7454007       140.331
2015    5       6       0.6922553       133.9563
2015    5       7       0.6340376       126.566
2015    6       0       0.5175986       109.9106
2015    6       1       0.4962433       106.5811
2015    6       2       0.8461639       151.7409
2015    6       3       0.8070639       146.841
2015    6       4       0.8660387       154.2539
2015    6       5       1.10261         176.4925
2015    6       6       0.5540833       112.655
2015    6       7       0.3810892       85.80983
2015    7       0       0.4207429       91.86755
2015    7       1       0.4194149       91.8163
2015    7       2       0.4029232       89.01571
2015    7       3       0.3812421       85.58207
2015    7       4       0.3790277       85.32925
2015    7       5       0.3115946       73.34733
2015    7       6       0.3679279       83.23892
2015    7       7       0.46267         98.79015
2015    8       0       0.4926666       103.4759
2015    8       1       0.5500464       111.8716
2015    8       2       0.6297959       122.6906
2015    8       3       0.5969058       118.0024
2015    8       4       0.5279357       108.0909
2015    8       5       0.490845        102.1277
2015    8       6       0.4822899       100.4022
2015    8       7       0.4746297       98.79972
2015    9       0       0.4815349       99.8234
2015    9       1       0.5048641       103.0891
2015    9       2       0.5250619       105.7298
2015    9       3       0.4775605       98.58549
2015    9       4       0.4412678       93.23519
2015    9       5       0.409205        88.36197
2015    9       6       0.3883387       84.67405
2015    9       7       0.2045729       51.34945
2015    10      0       0.157854        42.06939
2015    10      1       0.2196415       54.44702
2015    10      2       0.1813905       46.79651
2015    10      3       0.1377875       37.89155
2015    10      4       0.1172017       33.54917
2015    10      5       0.09979341      29.75382
2015    10      6       0.0872152       26.90325
2015    10      7       0.08376677      26.09449
2015    11      0       0.0893067       27.39185
2015    11      1       0.08328375      25.99178
2015    11      2       0.08708316      26.79011
2015    11      3       0.09481834      28.58926
2015    11      4       0.07951699      25.16446
2015    11      5       0.1050687       30.86323
2015    11      6       0.2956905       69.34168
2015    11      7       0.4350262       92.98085
2015    12      0       0.4471089       95.55428
2015    12      1       0.3785023       85.03779
2015    12      2       0.3685674       83.07818
2015    12      3       0.4048553       89.28892
2015    12      4       0.4135213       91.22301
2015    12      5       0.3867382       86.81784
2015    12      6       0.3447372       79.51654
2015    12      7       0.4351471       94.31314
2015    13      0       0.4420307       95.37364
2015    13      1       0.3576817       81.38671
2015    13      2       0.2981493       70.65471
2015    13      3       0.2432923       60.1794
2015    13      4       0.1887145       49.14964
2015    13      5       0.1894282       49.37858
2015    13      6       0.2110111       53.82724
2015    13      7       0.2155099       54.73483
2015    14      0       0.1987073       51.43111
2015    14      1       0.1816332       47.89275
2015    14      2       0.1839825       48.30294
2015    14      3       0.1858383       48.72327
2015    14      4       0.1882769       49.2466
2015    14      5       0.1899697       49.59163
2015    14      6       0.1887315       49.34845
2015    14      7       0.1886505       49.23617
2015    15      0       0.2114501       53.74424
2015    15      1       0.2409086       59.56115
2015    15      2       0.2470801       60.81168
2015    15      3       0.2307438       57.60836
2015    15      4       0.2230715       56.13227
2015    15      5       0.1919452       49.97716
2015    15      6       0.1978873       51.117
2015    15      7       0.2175059       54.99745
2015    16      0       0.2163882       54.7498
2015    16      1       0.2115407       53.74987
2015    16      2       0.2058175       52.61339
2015    16      3       0.203744        52.28655
2015    16      4       0.2045657       52.4448
2015    16      5       0.1943872       50.43035
2015    16      6       0.1918556       49.97118
2015    16      7       0.1856454       48.63809
2015    17      0       0.1869381       48.8153
2015    17      1       0.1731698       45.80406
2015    17      2       0.1184526       34.13928
2015    17      3       0.07959591      25.33437
2015    17      4       0.07078485      23.2563
2015    17      5       0.08612998      26.59222
2015    17      6       0.1066204       31.23229
2015    17      7       0.1268829       35.70394
2015    18      0       0.146133        39.94794
2015    18      1       0.145296        39.84447
2015    18      2       0.1368799       38.02396
2015    18      3       0.1402329       38.75307
2015    18      4       0.143746        39.54543
2015    18      5       0.1596764       42.93953
2015    18      6       0.1433822       39.48018
2015    18      7       0.1642365       43.95458
2015    19      0       0.1431753       39.4955
2015    19      1       0.1344062       37.47249
2015    19      2       0.1284992       35.88897
2015    19      3       0.2200065       54.57943
2015    19      4       0.5347739       108.358
2015    19      5       0.6447767       124.7926
2015    19      6       0.8644778       151.012
2015    19      7       0.970707        162.219
2015    20      0       0.7849357       143.9162
2015    20      1       0.7443285       139.2948
2015    20      2       0.7606065       141.1326
2015    20      3       0.7315968       138.2157
2015    20      4       0.7164026       136.7219
2015    20      5       0.6995339       134.8843
2015    20      6       0.5686615       117.4912
2015    20      7       0.5444322       113.9096
2015    21      0       0.4905048       105.6949
2015    21      1       0.4685653       101.915
2015    21      2       0.5260973       110.6041
2015    21      3       0.5979997       120.8838
2015    21      4       0.6145365       122.9246
2015    21      5       0.5054391       106.9269
2015    21      6       0.5002711       105.836
2015    21      7       0.40808         91.10251
2015    22      0       0.4795743       103.0493
2015    22      1       0.6394667       126.0858
2015    22      2       0.844058        151.537
2015    22      3       1.128307        178.2951
2015    22      4       1.164245        181.2195
2015    22      5       1.322404        192.8221
2015    22      6       1.22829         186.7586
2015    22      7       1.164513        181.5358
2015    23      0       1.174973        181.8019
2015    23      1       1.116435        177.056
2015    23      2       0.8386066       150.7119
2015    23      3       0.543097        113.1633
2015    23      4       0.5262446       109.7661
2015    23      5       0.6065655       120.9109
2015    23      6       0.6278847       123.9041
2015    23      7       0.6444142       126.1474
2015    24      0       0.7887076       143.81
2015    24      1       0.8861641       154.4477
2015    24      2       0.8325339       148.8381
2015    24      3       0.7971002       145.0224
2015    24      4       0.7700082       141.9684
2015    24      5       0.8246653       148.317
2015    24      6       0.8176412       146.6338
2015    24      7       0.7809075       142.1691
2015    25      0       0.6641338       128.021
2015    25      1       0.8727842       151.8539
2015    25      2       0.6798912       129.2606
2015    25      3       0.8112801       145.5605
2015    25      4       0.9512347       160.5536
2015    25      5       0.8546412       149.7854
2015    25      6       0.7587337       138.7614
2015    25      7       0.5980975       118.6782
2015    26      0       0.3260726       76.0408
2015    26      1       0.2959745       70.26022
2015    26      2       0.2932322       69.12407
2015    26      3       0.4149438       90.59012
2015    26      4       0.7946181       143.2371
2015    26      5       0.6087503       120.687
2015    26      6       0.4706973       100.0465
2015    26      7       0.6599386       126.8775
2015    27      0       0.8091096       146.0663
2015    27      1       0.911044        156.5632
2015    27      2       0.8596645       150.8075
2015    27      3       0.7908651       143.3966
2015    27      4       0.8096794       145.7165
2015    27      5       0.8731103       152.5802
2015    27      6       0.8239547       146.9382
2015    27      7       0.8808315       153.5805
2015    28      0       0.7834147       142.6198
2015    28      1       0.796186        144.2237
2015    28      2       0.8040929       144.9572
2015    28      3       0.7020328       132.9949
2015    28      4       0.721643        135.7224
2015    28      5       0.7381151       137.5952
2015    28      6       0.6623737       128.0532
2015    28      7       0.6139665       121.5499
2016    1       0       0.8798676       153.6801
2016    1       1       0.6733074       129.9351
2016    1       2       0.7739497       141.9257
2016    1       3       0.8576756       152.0231
2016    1       4       0.8373594       151.1831
2016    1       5       0.7136267       136.6711
2016    1       6       0.6757422       132.4669
2016    1       7       0.6212697       125.5762
2016    2       0       0.6304587       126.793
2016    2       1       0.6039782       122.7218
2016    2       2       0.7080311       135.8728
2016    2       3       0.652235        128.411
2016    2       4       0.6095958       123.5687
2016    2       5       0.3999453       90.25767
2016    2       6       0.3929494       87.83938
2016    2       7       0.5507526       114.7732
2016    3       0       0.5407099       113.9545
2016    3       1       0.590423        121.5075
2016    3       2       0.7633932       144.8148
2016    3       3       0.8830823       158.8859
2016    3       4       0.8706518       157.8082
2016    3       5       0.7869576       148.3427
2016    3       6       0.6381683       128.9692
2016    3       7       0.5679939       118.8018
2016    4       0       0.4513323       100.4247
2016    4       1       0.4390709       97.97409
2016    4       2       0.5040135       107.3667
2016    4       3       0.7012075       134.5245
2016    4       4       0.9235423       159.0857
2016    4       5       1.125714        177.1625
2016    4       6       1.11468         175.6466
2016    4       7       1.079659        173.0416
2016    5       0       1.100936        175.2574
2016    5       1       0.9291451       158.4641
2016    5       2       0.7665071       140.0086
2016    5       3       0.7461329       136.6072
2016    5       4       0.672009        126.9367
2016    5       5       0.5655496       112.2405
2016    5       6       0.4450033       93.91434
2016    5       7       0.3612301       80.24004
2016    6       0       0.2528778       61.0511
2016    6       1       0.1194772       34.15507
2016    6       2       0.1096641       32.01896
2016    6       3       0.1636121       43.96752
2016    6       4       0.2558474       62.86266
2016    6       5       0.2831123       68.40552
2016    6       6       0.2399533       60.24089
2016    6       7       0.2017672       52.56399
2016    7       0       0.2009486       52.32305
2016    7       1       0.2172173       55.61314
2016    7       2       0.2257057       57.32415
2016    7       3       0.2296071       58.18107
2016    7       4       0.2329121       58.95214
2016    7       5       0.2322691       58.84844
2016    7       6       0.2427953       60.68738
2016    7       7       0.2673157       65.30584
2016    8       0       0.264965        64.73844
2016    8       1       0.2913363       69.4575
2016    8       2       0.3554689       80.77919
2016    8       3       0.4098946       89.9645
2016    8       4       0.4589377       98.06364
2016    8       5       0.505255        105.3277
2016    8       6       0.5310719       109.3904
2016    8       7       0.5618869       114.2412
2016    9       0       0.498176        104.6517
2016    9       1       0.5103673       106.7057
2016    9       2       0.6106486       122.2893
2016    9       3       0.5858836       119.0996
2016    9       4       0.4615408       100.1078
2016    9       5       0.3337827       78.74791
2016    9       6       0.2627697       65.33096
2016    9       7       0.1959259       51.47742
2016    10      0       0.1927847       50.77802
2016    10      1       0.270485        65.76958
2016    10      2       0.4829544       102.948
2016    10      3       1.044305        171.0179
2016    10      4       0.9375999       161.6116
2016    10      5       0.7462032       141.3787
2016    10      6       0.7796225       145.4463
2016    10      7       0.8263222       150.2861
2016    11      0       0.5798475       118.4919
2016    11      1       0.3539167       81.65137
2016    11      2       0.2306364       57.52023
2016    11      3       0.3351879       77.0017
2016    11      4       0.7121412       133.2359
2016    11      5       0.9404313       158.9216
2016    11      6       0.9128137       157.572
2016    11      7       0.6722511       130.4202
2016    12      0       0.3561101       81.92103
2016    12      1       0.3081085       73.53284
2016    12      2       0.3030606       72.5291
2016    12      3       0.4501989       97.64957
2016    12      4       0.8443775       150.1123
2016    12      5       1.075549        173.1795
2016    12      6       1.331816        193.6045
2016    12      7       1.157382        181.0333
2016    13      0       0.9569302       163.0608
2016    13      1       0.7034          135.7947
2016    13      2       0.4691157       100.9236
2016    13      3       0.7446216       139.6544
2016    13      4       1.108697        178.6259
2016    13      5       1.183368        183.3488
2016    13      6       0.2903532       70.83765
2016    13      7       0.2172499       55.20852
2016    14      0       0.3773656       86.07755
2016    14      1       0.6973657       134.9118
2016    14      2       0.4339739       96.53725
2016    14      3       0.4903802       105.3582
2016    14      4       0.5165862       109.63
2016    14      5       0.5377293       113.0338
2016    14      6       1.012563        169.9828
2016    14      7       1.507169        206.7556
2016    15      0       1.342226        197.0675
2016    15      1       0.9808382       168.4106
2016    15      2       1.138016        182.0219
2016    15      3       1.291394        193.4611
2016    15      4       0.8519542       154.9152
2016    15      5       0.1554251       43.35564
2016    15      6       0.3912376       89.71304
2016    15      7       0.8266077       151.3267
2016    16      0       0.8123071       149.2149
2016    16      1       1.017411        170.3266
2016    16      2       0.9672074       165.2765
2016    16      3       0.860869        154.4439
2016    16      4       0.6874115       133.9107
2016    16      5       0.5330603       112.0682
2016    16      6       0.4228567       93.69676
2016    16      7       0.4632096       100.006
2016    17      0       0.6433961       126.3944
2016    17      1       1.210622        185.9399
2016    17      2       1.391173        198.1376
2016    17      3       0.7167294       135.5132
2016    17      4       0.6234873       122.4229
2016    17      5       0.5542963       113.241
2016    17      6       0.4534957       98.47045
2016    17      7       0.6253211       123.3412
2016    18      0       1.278333        190.8246
2016    18      1       0.8721577       154.0493
2016    18      2       0.8732493       154.0725
2016    18      3       1.066072        172.9143
2016    18      4       0.8671258       154.3184
2016    18      5       0.8111983       146.7192
2016    18      6       0.9553185       161.2241
2016    18      7       1.109885        176.6992
2016    19      0       1.262614        188.3154
2016    19      1       1.041645        170.4632
2016    19      2       0.8599686       152.7299
2016    19      3       0.7884936       144.901
2016    19      4       0.7204044       137.593
2016    19      5       0.3724221       86.07304
2016    19      6       0.3208028       76.10498
2016    19      7       0.3694908       84.36069
2016    20      0       0.4692808       100.6913
2016    20      1       0.664055        127.9779
2016    20      2       0.7828875       142.5257
2016    20      3       0.8596759       151.2127
2016    20      4       1.10695         174.4322
2016    20      5       0.9011416       154.9265
2016    20      6       0.7454971       137.2289
2016    20      7       0.3202314       74.8522
2016    21      0       0.15971         43.06219
2016    21      1       0.2671137       63.81813
2016    21      2       0.8271179       146.5194
2016    21      3       0.9758018       163.2381
2016    21      4       0.9892624       165.2677
2016    21      5       1.02734         169.2264
2016    21      6       0.9849936       166.0465
2016    21      7       1.119538        178.9893
2016    22      0       1.153221        182.9093
2016    22      1       1.064643        175.8437
2016    22      2       0.4778009       105.075
2016    22      3       0.3437784       81.45104
2016    22      4       0.3270303       77.73454
2016    22      5       0.4612897       100.7385
2016    22      6       0.5612863       116.0149
2016    22      7       0.883562        155.694
2016    23      0       1.186735        185.0249
2016    23      1       1.01147         171.6296
2016    23      2       0.8894651       159.5084
2016    23      3       1.065738        176.7675
2016    23      4       0.9181758       162.8843
2016    23      5       1.054709        175.1807
2016    23      6       1.145992        182.9203
2016    23      7       1.650847        215.0599
2016    24      0       1.791546        221.1075
2016    24      1       1.316681        194.224
2016    24      2       1.376539        197.3763
2016    24      3       1.257394        189.104
2016    24      4       1.397924        198.5521
2016    24      5       0.9900771       166.5432
2016    24      6       0.6098169       122.956
2016    24      7       0.29679         72.28795
2016    25      0       0.1766479       47.26564
2016    25      1       0.2398686       59.37559
2016    25      2       0.3089643       72.45705
2016    25      3       0.3656218       83.21552
2016    25      4       0.4224365       93.69722
2016    25      5       0.4562194       99.2365
2016    25      6       0.4175395       92.31424
2016    25      7       0.3978567       88.79733
2016    26      0       0.4002987       89.54255
2016    26      1       0.4106899       91.6408
2016    26      2       0.3771087       85.75501
2016    26      3       0.3462654       80.2571
2016    26      4       0.6446906       127.1698
2016    26      5       0.8583086       151.1532
2016    26      6       0.8243028       147.7003
2016    26      7       0.9011644       156.2777
2016    27      0       0.8784046       154.7019
2016    27      1       0.7177256       136.4387
2016    27      2       0.5297656       110.794
2016    27      3       0.7076641       135.2702
2016    27      4       0.8202889       148.5446
2016    27      5       0.6793942       131.4665
2016    27      6       0.4853108       103.3838
2016    27      7       0.5488328       112.8637
2016    28      0       0.5851256       118.289
2016    28      1       0.5327295       110.8723
2016    28      2       0.5656662       115.2834
2016    28      3       0.4268565       94.57044
2016    28      4       0.2644523       65.39824
2016    28      5       0.2460099       61.60549
2016    28      6       0.3310082       78.10463
2016    28      7       0.8563652       154.3514
2016    29      0       0.9465646       164.8473
2016    29      1       0.6195083       125.9932
2016    29      2       0.6973051       136.7072
2016    29      3       0.7412721       142.6435
2016    29      4       0.9237186       163.1292
2016    29      5       1.115166        180.3315
2016    29      6       1.02168         171.822
2016    29      7       1.079633        176.3064
2017    1       0       0.3164651       74.11687
2017    1       1       0.3767141       84.89339
2017    1       2       0.4710513       100.5602
2017    1       3       0.5545321       113.1159
2017    1       4       0.6471769       126.0315
2017    1       5       0.6497306       127.0566
2017    1       6       0.6658342       129.8067
2017    1       7       0.6634073       129.8515
2017    2       0       0.6945259       133.5409
2017    2       1       0.7172428       136.2765
2017    2       2       0.740241        139.4198
2017    2       3       0.7875059       145.266
2017    2       4       0.7924734       145.9242
2017    2       5       0.7146497       136.3543
2017    2       6       0.6424094       126.9688
2017    2       7       0.6061905       122.261
2017    3       0       0.644052        127.3392
2017    3       1       0.7742897       143.3039
2017    3       2       0.8920283       155.5571
2017    3       3       1.007019        166.9672
2017    3       4       0.8866281       154.8756
2017    3       5       0.7145276       134.5781
2017    3       6       0.7000535       132.6971
2017    3       7       0.7807066       142.6482
2017    4       0       0.8439107       150.2573
2017    4       1       0.5516617       114.2837
2017    4       2       0.4819748       103.3172
2017    4       3       0.5690826       116.0383
2017    4       4       0.8961535       155.4845
2017    4       5       0.8427741       149.6008
2017    4       6       0.6496847       127.5993
2017    4       7       0.6813992       131.1917
2017    5       0       1.054589        171.4726
2017    5       1       1.105582        175.9993
2017    5       2       0.8703323       153.9289
2017    5       3       0.5822349       118.8115
2017    5       4       0.2238028       57.64196
2017    5       5       0.2292252       57.43842
2017    5       6       0.3515377       80.3815
2017    5       7       0.7211654       136.5607
2017    6       0       0.9014925       157.6207
2017    6       1       1.059502        172.0466
2017    6       2       1.161407        181.1724
2017    6       3       0.5988276       119.6519
2017    6       4       0.3670535       84.02289
2017    6       5       0.4569043       99.07702
2017    6       6       0.7582104       141.4065
2017    6       7       0.9761079       164.2201
2017    7       0       0.9955233       165.3463
2017    7       1       1.15075         178.9853
2017    7       2       1.144943        178.4858
2017    7       3       0.8771389       153.0283
2017    7       4       0.723828        135.3191
2017    7       5       0.6777972       129.762
2017    7       6       0.6941389       131.4212
2017    7       7       0.757519        138.7512
2017    8       0       0.7275866       135.205
2017    8       1       0.6899981       130.54
2017    8       2       0.5799809       116.1601
2017    8       3       0.4674314       99.82771
2017    8       4       0.4327823       94.32585
2017    8       5       0.3845202       86.30132
2017    8       6       0.350331        80.2805
2017    8       7       0.3095208       72.94444
2017    9       0       0.2550148       62.76124
2017    9       1       0.2390994       59.57801
2017    9       2       0.2569601       62.91106
2017    9       3       0.3039065       71.69374
2017    9       4       0.3586578       81.47058
2017    9       5       0.3902852       86.84066
2017    9       6       0.4072509       89.60516
2017    9       7       0.409924        90.03814
2017    10      0       0.4136694       90.77826
2017    10      1       0.4098108       89.97691
2017    10      2       0.4402862       94.95389
2017    10      3       0.4843059       101.9848
2017    10      4       0.5193016       107.4154
2017    10      5       0.5294317       109.019
2017    10      6       0.5260121       108.5659
2017    10      7       0.5144696       107.0016
2017    11      0       0.4844944       102.6022
2017    11      1       0.4573729       98.42782
2017    11      2       0.4263469       93.48113
2017    11      3       0.4176506       91.92458
2017    11      4       0.4149537       91.31947
2017    11      5       0.4245616       92.63818
2017    11      6       0.4645939       98.71739
2017    11      7       0.4767713       100.5716
2017    12      0       0.4652183       98.7205
2017    12      1       0.478827        100.6857
2017    12      2       0.4867316       101.9104
2017    12      3       0.4858435       101.8098
2017    12      4       0.4627006       98.3427
2017    12      5       0.4326358       93.66235
2017    12      6       0.3249429       75.64005
2017    12      7       0.232033        58.03232
2017    13      0       0.1986959       51.31846
2017    13      1       0.2003645       51.53048
2017    13      2       0.2554859       62.08566
2017    13      3       0.3147609       73.03104
2017    13      4       0.3182586       73.71809
2017    13      5       0.2760602       65.95128
2017    13      6       0.1609107       43.22927
2017    13      7       0.09851374      29.55547
2017    14      0       0.08611797      26.60287
2017    14      1       0.1029603       30.03615
2017    14      2       0.1731595       44.68719
2017    14      3       0.2536753       60.88472
2017    14      4       0.3329705       76.28766
2017    14      5       0.459987        98.18942
2017    14      6       0.5595983       113.8188
2017    14      7       0.4889854       104.0711
2017    15      0       0.4710403       101.1123
2017    15      1       0.5769346       116.8058
2017    15      2       0.6448272       126.8638
2017    15      3       0.5074737       107.4036
2017    15      4       0.5786415       118.4047
2017    15      5       0.4798046       103.7731
2017    15      6       0.3448719       81.02145
2017    15      7       0.2418693       61.17316
2017    16      0       0.163353        44.45597
2017    16      1       0.1297265       36.59504
2017    16      2       0.1486246       40.70099
2017    16      3       0.171018        45.60032
2017    16      4       0.2065008       53.03545
2017    16      5       0.2489956       61.69314
2017    16      6       0.2788776       67.56825
2017    16      7       0.2984592       71.35371
2017    17      0       0.3090141       73.41415
2017    17      1       0.3235992       76.00671
2017    17      2       0.3161973       74.48334
2017    17      3       0.2964456       70.63952
2017    17      4       0.2671523       64.94818
2017    17      5       0.2639695       64.85357
2017    17      6       0.4494822       97.16108
2017    17      7       0.485715        103.0011
2017    18      0       0.4233164       93.10742
2017    18      1       0.3811604       85.74919
2017    18      2       0.4446222       95.75742
2017    18      3       0.3820613       85.70718
2017    18      4       0.4364263       95.01352
2017    18      5       0.4630756       98.93334
2017    18      6       0.4846856       102.1355
2017    18      7       0.506584        105.3697
2017    19      0       0.4918303       102.8344
2017    19      1       0.5832312       115.8975
2017    19      2       0.6481603       124.9084
2017    19      3       0.9235509       156.9626
2017    19      4       0.7083963       133.3629
2017    19      5       0.5485446       111.4044
2017    19      6       0.3636763       82.73268
2017    19      7       0.2969112       70.57877
2017    20      0       0.334615        77.10436
2017    20      1       0.2938463       69.43566
2017    20      2       0.2431891       59.9957
2017    20      3       0.151339        41.36207
2017    20      4       0.1245276       35.56359
2017    20      5       0.1279518       36.29053
2017    20      6       0.138647        38.63111
2017    20      7       0.1515594       41.3976
2017    21      0       0.1358758       38.0148
2017    21      1       0.1146776       33.38529
2017    21      2       0.09869417      29.72216
2017    21      3       0.1051715       31.23749
2017    21      4       0.1576755       42.85374
2017    21      5       0.2105547       53.81648
2017    21      6       0.7993739       145.368
2017    21      7       0.9707052       162.9774
2017    22      0       1.178312        181.4141
2017    22      1       0.6722392       130.7917
2017    22      2       0.3117377       74.54229
2017    22      3       0.26739         65.51753
2017    22      4       0.2810214       67.97395
2017    22      5       0.3191995       75.03118
2017    22      6       0.4880094       103.4971
2017    22      7       0.7270635       136.8763
2017    23      0       0.7968096       145.9513
2017    23      1       0.7439749       140.324
2017    23      2       0.682597        132.7405
2017    23      3       0.638077        126.9539
2017    23      4       0.5900401       120.5066
2017    23      5       0.5572562       115.7616
2017    23      6       0.4876536       105.0414
2017    23      7       0.4532324       99.18126
2017    24      0       0.5699598       116.8748
2017    24      1       0.5231231       110.2666
2017    24      2       0.4480763       98.75495
2017    24      3       0.284469        69.42035
2017    24      4       0.3582035       83.1932
2017    24      5       0.7168228       137.2409
2017    24      6       0.8886076       157.6561
2017    24      7       0.7987855       147.8467
2017    25      0       0.8526578       153.2122
2017    25      1       1.007663        169.6037
2017    25      2       1.240049        188.8184
2017    25      3       1.276088        191.0655
2017    25      4       1.457018        202.4444
2017    25      5       1.283529        190.5028
2017    25      6       1.190177        183.6817
2017    25      7       0.7681062       143.9674
2017    26      0       0.8054972       147.5086
2017    26      1       0.8419536       151.2093
2017    26      2       0.7248105       137.9221
2017    26      3       0.7703685       143.9052
2017    26      4       0.9307874       161.3466
2017    26      5       1.000225        168.2482
2017    26      6       0.9080041       159.1222
2017    26      7       0.8477244       152.8387
2017    27      0       0.8285127       150.5704
2017    27      1       0.8289055       150.3462
2017    27      2       0.7985227       147.1507
2017    27      3       0.8142271       149.3269
2017    27      4       1.161375        183.0675
2017    27      5       1.075859        175.5956
2017    27      6       0.8612812       154.7307
2017    27      7       0.7679719       144.1035
2017    28      0       0.7221269       138.4805
2017    28      1       0.7155973       137.4463
2017    28      2       0.7130734       137.0
2017    28      3       0.6634765       130.5684
2017    28      4       0.7537958       142.4552
2017    28      5       0.559636        116.254
2017    28      6       0.4003834       90.74189
2017    28      7       0.3357466       79.55119
2018    1       0       0.2021598       52.8644
2018    1       1       0.1522201       41.9687
2018    1       2       0.1732564       46.25929
2018    1       3       0.2249813       57.24224
2018    1       4       0.2564814       63.5651
2018    1       5       0.2898958       69.86105
2018    1       6       0.42503         92.4176
2018    1       7       0.7708319       142.3725
2018    2       0       0.9379342       160.528
2018    2       1       1.398447        198.528
2018    2       2       1.078363        175.1826
2018    2       3       1.031604        171.0213
2018    2       4       0.7258549       138.879
2018    2       5       0.6753061       132.5648
2018    2       6       0.4680658       101.4182
2018    2       7       0.4475462       98.90449
2018    3       0       0.2827099       69.1952
2018    3       1       0.7858313       144.6089
2018    3       2       1.080696        175.4963
2018    3       3       0.8664472       156.0652
2018    3       4       1.027752        171.272
2018    3       5       1.015182        170.0237
2018    3       6       1.002326        169.1927
2018    3       7       1.365654        198.1006
2018    4       0       1.28686         191.6751
2018    4       1       1.27663         189.6093
2018    4       2       1.391804        196.8725
2018    4       3       1.062169        172.2242
2018    4       4       1.003069        165.8463
2018    4       5       0.4698219       100.7846
2018    4       6       0.214817        55.27905
2018    4       7       0.2084838       53.82574
2018    5       0       0.2148636       55.17441
2018    5       1       0.2060846       53.2327
2018    5       2       0.18779         49.7231
2018    5       3       0.1736032       46.53205
2018    5       4       0.2084188       53.66347
2018    5       5       0.2391595       59.63688
2018    5       6       0.2642601       64.40736
2018    5       7       0.2910474       69.48181
2018    6       0       0.2824966       68.18638
2018    6       1       0.2644351       64.85955
2018    6       2       0.2502497       62.15853
2018    6       3       0.220706        56.34794
2018    6       4       0.2416571       60.15071
2018    6       5       0.3652875       82.67623
2018    6       6       0.4391223       95.81888
2018    6       7       0.3759279       85.71253
2018    7       0       0.2285212       58.36225
2018    7       1       0.7595474       141.6019
2018    7       2       0.8420715       152.8446
2018    7       3       0.3646878       84.56039
2018    7       4       0.5006232       107.3804
2018    7       5       0.4948533       105.8213
2018    7       6       0.8212246       149.3265
2018    7       7       0.7116626       136.2626
2018    8       0       0.5372896       111.9834
2018    8       1       0.4610841       100.1187
2018    8       2       0.2920949       69.96587
2018    8       3       0.3466848       79.5565
2018    8       4       0.5612003       113.7644
2018    8       5       0.4591618       98.89039
2018    8       6       0.4309284       94.40043
2018    8       7       0.2633492       64.85131
2018    9       0       0.1472227       40.49083
2018    9       1       0.1892667       49.37829
2018    9       2       0.2107963       53.90204
2018    9       3       0.2361601       59.06056
2018    9       4       0.2398984       59.94118
2018    9       5       0.2344442       58.81278
2018    9       6       0.2665853       65.01517
2018    9       7       0.2856872       68.59244
2018    10      0       0.3564805       81.24805
2018    10      1       0.595553        118.1161
2018    10      2       0.962782        160.8239
2018    10      3       1.111166        175.2387
2018    10      4       1.250287        186.8308
2018    10      5       1.235397        186.2066
2018    10      6       1.296692        190.6923
2018    10      7       1.19079         182.7145
2018    11      0       1.19509         183.26
2018    11      1       0.8272762       148.656
2018    11      2       0.5931392       118.7416
2018    11      3       0.6870921       130.6862
2018    11      4       0.7318706       136.593
2018    11      5       0.7704769       141.3682
2018    11      6       0.7960918       143.9025
2018    11      7       0.7696314       140.5325
2018    12      0       0.7121607       133.371
2018    12      1       0.6313589       122.9877
2018    12      2       0.6275511       122.3176
2018    12      3       0.6154537       120.5384
2018    12      4       0.6046102       119.077
2018    12      5       0.575315        115.0948
2018    12      6       0.4969956       104.0315
2018    12      7       0.4178692       91.58492
2018    13      0       0.3766251       84.2295
2018    13      1       0.3406961       77.81366
2018    13      2       0.3588048       82.02484
2018    13      3       0.6299791       122.7374
2018    13      4       0.7282306       136.1635
2018    13      5       0.7812267       142.5969
2018    13      6       0.8132602       145.5702
2018    13      7       0.7110965       134.2755
2018    14      0       0.7357197       136.9879
2018    14      1       0.6829751       129.4981
2018    14      2       0.5414001       110.8222
2018    14      3       0.5938214       118.112
2018    14      4       0.5007507       104.4512
2018    14      5       0.2143872       54.64591
2018    14      6       0.1211678       34.27656
2018    14      7       0.1444825       39.41939
2018    15      0       0.1470057       40.08196
2018    15      1       0.1596286       42.61571
2018    15      2       0.2034989       51.9142
2018    15      3       0.3044386       71.21215
2018    15      4       0.470124        98.94492
2018    15      5       0.5341457       109.4953
2018    15      6       0.5939102       118.4117
2018    15      7       0.5409506       110.8376
2018    16      0       0.4930301       103.9756
2018    16      1       0.4439711       96.68908
2018    16      2       0.3951128       88.6629
2018    16      3       0.3306018       77.37756
2018    16      4       0.3165694       74.49848
2018    16      5       0.3536902       80.90089
2018    16      6       0.4205427       92.16147
2018    16      7       0.4723773       100.9444
2018    17      0       0.491734        104.0329
2018    17      1       0.7083938       133.8175
2018    17      2       0.728524        136.8463
2018    17      3       0.5591282       114.4797
2018    17      4       0.4308742       95.36976
2018    17      5       0.4049914       91.17866
2018    17      6       0.4145804       92.7004
2018    17      7       0.5967395       120.5297
2018    18      0       0.8140985       147.6057
2018    18      1       0.8947715       156.4961
2018    18      2       0.9443365       161.1262
2018    18      3       0.8230162       147.8578
2018    18      4       0.7873184       143.4521
2018    18      5       0.7707522       141.2601
2018    18      6       0.6862637       130.4529
2018    18      7       0.6792497       129.5703
2018    19      0       0.6932077       131.2236
2018    19      1       0.6731045       128.5772
2018    19      2       0.8396392       148.0947
2018    19      3       0.8943792       154.2304
2018    19      4       0.8807696       152.833
2018    19      5       0.8271011       147.0007
2018    19      6       0.7749319       141.2015
2018    19      7       0.7508265       138.5196
2018    20      0       0.7690054       140.6015
2018    20      1       0.7553471       139.0404
2018    20      2       0.7232565       135.3024
2018    20      3       0.6795745       130.2727
2018    20      4       0.6042339       120.8498
2018    20      5       0.5683439       115.7799
2018    20      6       0.6204948       122.7246
2018    20      7       0.8435474       149.3298
2018    21      0       0.8059162       145.6874
2018    21      1       0.8863503       153.8589
2018    21      2       0.7958633       143.8631
2018    21      3       0.6667019       128.4195
2018    21      4       0.6578918       127.7062
2018    21      5       0.5326058       109.5149
2018    21      6       0.7931366       143.3656
2018    21      7       0.8495811       150.2852
2018    22      0       0.9029268       156.1483
2018    22      1       0.9058778       156.6113
2018    22      2       0.8808036       154.226
2018    22      3       0.6627986       128.4471
2018    22      4       0.5877325       118.3859
2018    22      5       0.5335631       110.9294
2018    22      6       0.4640569       100.1588
2018    22      7       0.4633571       100.0552
2018    23      0       0.410233        91.38423
2018    23      1       0.3438406       79.60802
2018    23      2       0.3272855       76.09567
2018    23      3       0.374996        84.30619
2018    23      4       0.5644103       114.8545
2018    23      5       0.6530942       127.3985
2018    23      6       0.6516245       127.177
2018    23      7       0.6071657       121.2878
2018    24      0       0.5459517       112.208
2018    24      1       0.4774513       101.2363
2018    24      2       0.4619479       98.996
2018    24      3       0.481212        102.3735
2018    24      4       0.6237197       122.7094
2018    24      5       0.6921672       131.202
2018    24      6       0.6471657       125.3608
2018    24      7       0.5923167       117.7377
2018    25      0       0.5071582       105.5165
2018    25      1       0.4691533       99.79423
2018    25      2       0.4894292       102.7517
2018    25      3       0.6436533       124.0186
2018    25      4       0.6991463       131.1872
2018    25      5       0.6865095       129.7354
2018    25      6       0.6841006       129.5528
2018    25      7       0.6889174       130.2245
2018    26      0       0.8059987       144.0858
2018    26      1       0.8293147       146.9913
2018    26      2       0.8916558       153.7816
2018    26      3       0.8809848       152.4508
2018    26      4       0.859647        150.0456
2018    26      5       0.7926205       142.3068
2018    26      6       0.6335816       122.7225
2018    26      7       0.5317013       108.0844
2018    27      0       0.5264354       107.9422
2018    27      1       0.4238333       92.00246
2018    27      2       0.443948        94.87029
2018    27      3       0.3055183       71.16937
2018    27      4       0.2687358       64.51434
2018    27      5       0.3440008       78.10918
2018    27      6       0.4482112       95.75811
2018    27      7       0.8223138       145.5801
2018    28      0       0.6708882       127.9233
2018    28      1       0.2261231       56.79303
2018    28      2       0.1088011       31.84915
2018    28      3       0.1756217       45.98443
2018    28      4       0.3005157       69.85155
2018    28      5       0.1944134       49.65981
2018    28      6       0.1554789       41.77225
2018    28      7       0.1370159       37.83398
