####################################################################################################
# Month: 11Nov                                                                                     #
# Station: JCMT                                                                                    #
# Frequency: 345 GHz                                                                               #
# Columns are: year    day     tau     Tb (K)                                                      #
####################################################################################################
2009    1       0.21312906      54.88286375
2009    2       0.2170152       56.08215875
2009    3       0.20987292      54.00034375
2009    4       0.222703        56.47139875
2009    5       0.21868154      55.33405125
2009    6       0.13357472      38.6425775
2009    7       0.13749228      39.73508375
2009    8       0.16072408      43.6312475
2009    9       0.24848123      60.07346
2009    10      0.97855395      165.1581125
2009    11      0.72973155      137.37087375
2009    12      0.48791495      101.43051875
2009    13      1.26464375      189.20665
2009    14      1.17188292      183.5998875
2009    15      1.2038238       184.19375
2009    16      0.64822685      129.4589875
2009    17      0.57151551      118.4673275
2009    18      0.35932899      83.81165875
2009    19      0.17759226      48.47110125
2009    20      0.16866706      46.22079
2009    21      0.25018765      61.4034625
2009    22      0.18529756      47.3771175
2009    23      0.06770567      23.23922
2009    24      0.10579935      32.43798125
2009    25      0.19147101      51.255865
2009    26      0.33912715      80.49841875
2009    27      0.31570512      74.97508375
2009    28      0.08811622      28.11947375
2009    29      0.14208122      40.2936225
2009    30      0.57414109      114.5881325
2010    1       0.10559775      31.917895
2010    2       0.17426471      46.3627825
2010    3       0.18659634      50.4370725
2010    4       0.25864283      65.45517875
2010    5       0.12196358      35.97795
2010    6       0.09439935      29.56769375
2010    7       0.09169674      28.92458375
2010    8       0.09047612      28.540275
2010    9       0.08573061      27.29505625
2010    10      0.10660496      32.109775
2010    11      0.15668244      42.32314625
2010    12      0.2362855       58.347665
2010    13      0.32683651      75.05903875
2010    14      0.22847135      58.11418
2010    15      0.25075611      63.17665375
2010    16      0.21854844      56.28294125
2010    17      0.29837339      70.655485
2010    18      0.8295735       150.968875
2010    19      0.64928466      128.5735625
2010    20      0.42870676      93.068765
2010    21      0.28410211      69.27901
2010    22      0.51373251      108.9368275
2010    23      0.41147176      93.21107875
2010    24      0.43042475      96.122005
2010    25      0.34051341      80.58467625
2010    26      0.09547509      29.322875
2010    27      0.0934527       28.92048375
2010    28      0.18035749      48.32258875
2010    29      0.29547864      70.4686175
2010    30      0.35423032      82.299805
2011    1       1.2153589       184.448275
2011    2       1.4753055       204.736625
2011    3       1.40810612      200.5067875
2011    4       1.07968012      173.1459375
2011    5       0.94479916      161.706975
2011    6       0.91629111      158.6439875
2011    7       0.67803496      130.9765625
2011    8       0.62627802      124.233625
2011    9       0.39097201      87.89731375
2011    10      0.34290142      80.55675875
2011    11      0.42284025      94.07085125
2011    12      0.44013446      96.83488
2011    13      0.28522008      68.93186
2011    14      0.25959176      65.5181375
2011    15      0.23686998      60.94407625
2011    16      0.45260221      97.722965
2011    17      0.9789292       161.415375
2011    18      1.23241275      187.52305
2011    19      1.36212325      197.5244875
2011    20      1.29191312      193.2381625
2011    21      1.09675439      177.386075
2011    22      0.72769359      136.6756
2011    23      0.47149529      102.20644375
2011    24      0.85188939      152.602425
2011    25      0.93107382      161.07955
2011    26      0.70665542      136.2471625
2011    27      0.10978581      32.40050875
2011    28      0.12069708      35.57771125
2011    29      0.23415619      58.72028125
2011    30      0.37978196      86.59328625
2012    1       0.27350871      67.96215625
2012    2       0.2438465       63.01572125
2012    3       0.20332403      54.141105
2012    4       0.29162676      70.45964375
2012    5       0.21999205      57.114855
2012    6       0.12398054      36.73531375
2012    7       0.08837702      28.09319625
2012    8       0.07305731      24.41980125
2012    9       0.0910666       28.667445
2012    10      0.08463278      27.14726875
2012    11      0.1227465       36.20041125
2012    12      0.16141308      45.01440625
2012    13      0.15956357      44.19551875
2012    14      0.09077082      28.86654875
2012    15      0.10452387      31.691375
2012    16      0.13856078      38.7409675
2012    17      0.2788904       64.75902125
2012    18      0.86449238      151.423575
2012    19      1.15372956      181.0100125
2012    20      0.63306506      126.5733875
2012    21      1.1019749       176.211325
2012    22      1.54166588      208.1643125
2012    23      1.17059962      183.0417375
2012    24      0.71030964      125.96627
2012    25      0.16723143      45.50342625
2012    26      0.32126644      74.46321125
2012    27      0.24306984      59.23152125
2012    28      0.09822161      30.25316875
2012    29      0.22914868      57.71029
2012    30      0.6986893       130.492325
2013    1       0.42717299      95.19398375
2013    2       0.22075488      57.3339625
2013    3       0.38956785      87.7958675
2013    4       0.61732195      121.17339375
2013    5       0.52300248      111.26428125
2013    6       0.40607342      91.9388275
2013    7       0.47514605      102.1310125
2013    8       1.21226074      185.2726
2013    9       1.40229838      200.16865
2013    10      1.33691162      194.2814875
2013    11      0.49277302      99.702345
2013    12      0.49745389      104.89462125
2013    13      0.41975395      90.48517875
2013    14      0.63116032      125.44041625
2013    15      0.7688056       144.298275
2013    16      0.43378683      95.71462625
2013    17      0.27152821      66.61245125
2013    18      0.22043118      56.592895
2013    19      0.24016452      60.90389375
2013    20      0.38242781      87.19226875
2013    21      0.90658466      143.10366875
2013    22      0.60523589      108.5312425
2013    23      0.1788522       48.8849625
2013    24      0.17484702      47.94686375
2013    25      0.27125124      68.238095
2013    26      0.21811739      57.67773
2013    27      0.14365052      41.06804375
2013    28      0.13437614      38.2128375
2013    29      0.15483146      42.05248125
2013    30      0.36285048      81.5530125
2014    1       0.29321968      70.76163375
2014    2       0.45012982      97.21975125
2014    3       0.92318575      159.325125
2014    4       1.24219598      186.5002625
2014    5       1.08176354      173.919925
2014    6       0.54339735      114.7923875
2014    7       0.46777338      102.70116
2014    8       0.35370074      81.76326
2014    9       0.19963996      53.15142125
2014    10      0.2294245       59.343425
2014    11      0.18858988      50.99673
2014    12      0.33463779      77.9641525
2014    13      0.36533159      85.38894625
2014    14      0.60844735      123.09318375
2014    15      0.5062907       107.2407875
2014    16      0.2117551       55.17994125
2014    17      0.29067369      71.36363875
2014    18      0.15663661      44.127605
2014    19      0.1406707       40.17432
2014    20      0.17159998      46.932345
2014    21      0.22728035      58.65909625
2014    22      0.12660226      36.8262625
2014    23      0.15391675      43.200685
2014    24      0.12390201      36.5417025
2014    25      0.18205235      49.9263475
2014    26      0.2035927       54.69170125
2014    27      0.20077258      54.14204375
2014    28      0.18550542      50.59392875
2014    29      0.19671899      52.02312375
2014    30      0.18787571      50.6436175
2015    1       0.2572487       64.44559
2015    2       0.17181355      47.09779375
2015    3       0.16920069      46.1679125
2015    4       0.10396264      30.8666925
2015    5       0.1746703       47.1551475
2015    6       0.1241488       36.35486875
2015    7       0.20166851      52.38883625
2015    8       0.27732428      67.24051625
2015    9       0.23710015      59.78690875
2015    10      0.26993444      66.6699675
2015    11      0.32224239      77.0624975
2015    12      0.28454102      70.37671125
2015    13      0.35525315      83.723005
2015    14      0.358105        83.44604125
2015    15      0.14227836      40.0897525
2015    16      0.07253281      24.4651175
2015    17      0.11639701      33.93516375
2015    18      0.2771099       67.812565
2015    19      0.79613911      143.6887475
2015    20      1.699492        218.2738
2015    21      0.92009587      162.27125
2015    22      0.73665109      142.19925
2015    23      0.92175288      163.6014125
2015    24      0.717795        138.8236
2015    25      0.87898358      157.0196375
2015    26      0.47994422      104.1247775
2015    27      0.39453232      89.7506025
2015    28      0.54868429      111.32776125
2015    29      0.17214658      46.8284875
2015    30      0.2168554       57.22205125
2016    1       0.60247451      120.1384875
2016    2       0.17412884      46.16252125
2016    3       0.21013726      55.83799375
2016    4       0.19092749      51.62834125
2016    5       0.13467758      39.3835525
2016    6       0.10732787      32.69429625
2016    7       0.12508421      36.47035
2016    8       0.72483912      135.781245
2016    9       1.08361524      177.78075
2016    10      1.07977625      178.3851125
2016    11      0.71045962      137.28456375
2016    12      0.26441686      66.51158375
2016    13      0.17490546      47.319655
2016    14      0.18193695      48.77049
2016    15      0.12130002      35.96635625
2016    16      0.10635013      32.49431125
2016    17      0.17326182      47.12836
2016    18      0.22884566      58.38881375
2016    19      0.21492712      54.7702525
2016    20      0.31014244      72.19601
2016    21      0.42752415      93.23541125
2016    22      0.48149489      104.03726375
2016    23      0.60913161      123.0056625
2016    24      0.3876276       88.3147625
2016    25      0.09957739      30.09257125
2016    26      0.13851404      38.80948125
2016    27      0.29097815      69.622605
2016    28      0.27775929      68.10064
2016    29      0.29566811      69.49037625
2016    30      0.5902407       115.671785
2017    1       0.81590029      146.8149125
2017    2       0.62259168      124.23725
2017    3       0.72954652      139.7428
2017    4       0.68072062      133.81675
2017    5       0.25100428      62.9463375
2017    6       0.19326168      52.1557675
2017    7       0.1930942       52.242975
2017    8       0.19586313      51.882365
2017    9       0.22548696      58.59704125
2017    10      0.20806511      54.8539975
2017    11      0.24496332      60.2525875
2017    12      0.96344474      160.3953625
2017    13      0.50677991      106.657525
2017    14      0.43808056      97.945395
2017    15      0.42065381      94.284015
2017    16      0.23932735      60.4668875
2017    17      0.15358719      42.402605
2017    18      0.14961994      41.05392875
2017    19      0.50432014      102.39172875
2017    20      0.07926832      25.69770875
2017    21      0.10518058      31.95292
2017    22      0.08290619      26.6665075
2017    23      0.1356417       38.4425075
2017    24      0.10471236      31.19358875
2017    25      0.20793531      52.45797375
2017    26      0.32977395      76.873955
2017    27      0.45785414      95.2595225
2017    28      1.00936886      169.1586375
2017    29      1.07870733      175.63005
2017    30      0.97181819      165.7121625
2018    1       0.30978875      75.11061
2018    2       0.28081191      69.748715
2018    3       0.60795405      120.41624375
2018    4       0.63982106      127.02915
2018    5       0.37217906      84.7892225
2018    6       0.15406682      43.5252025
2018    7       0.53574422      110.60342125
2018    8       0.23838119      60.72923625
2018    9       0.29677841      73.20430875
2018    10      0.45418781      99.43115
2018    11      0.40725776      79.41198625
2018    12      0.07490623      24.6514525
2018    13      0.1227725       35.31281125
2018    14      0.21396631      54.74328875
2018    15      0.25884629      62.61401625
2018    16      0.46311019      97.55407125
2018    17      0.8171157       147.0691625
2018    18      0.67320066      129.97075
2018    19      0.65404826      127.6607375
2018    20      0.24890258      61.74186125
2018    21      0.13424053      38.43688625
2018    22      0.1095932       32.3506775
2018    23      0.25884168      61.6518225
2018    24      0.5299363       110.685765
2018    25      0.21660565      54.97174375
2018    26      0.17784402      48.572695
2018    27      0.20032281      53.4769
2018    28      0.16459778      45.44819625
2018    29      0.16165632      44.8185975
2018    30      0.36032261      80.62144375
