####################################################################################################
# Month: 12Dec                                                                                     #
# Station: SUF                                                                                     #
# Frequency: 230 GHz                                                                               #
# Columns are: year    day     segment         tau     Tb (K)                                      #
####################################################################################################
2009    1       0       0.5374769       111.9054
2009    1       1       0.4592207       99.87344
2009    1       2       0.5803386       118.3668
2009    1       3       0.4951495       105.2645
2009    1       4       0.4316449       95.21452
2009    1       5       0.3624119       83.23179
2009    1       6       0.3416829       79.54868
2009    1       7       0.3699597       84.762
2009    2       0       0.4268587       94.56405
2009    2       1       0.4279871       94.83327
2009    2       2       0.3701399       84.9772
2009    2       3       0.4625108       100.3218
2009    2       4       0.4554621       98.97917
2009    2       5       0.3807137       86.39701
2009    2       6       0.3158943       74.58109
2009    2       7       0.3953923       88.4984
2009    3       0       0.5120339       107.0523
2009    3       1       0.5019339       105.2789
2009    3       2       0.4571128       98.11636
2009    3       3       0.4857862       102.869
2009    3       4       0.51734         107.7873
2009    3       5       0.4620915       99.24709
2009    3       6       0.394875        87.97268
2009    3       7       0.4180941       91.68231
2009    4       0       0.3507375       79.7351
2009    4       1       0.2837779       67.28993
2009    4       2       0.2449621       59.69495
2009    4       3       0.2860268       67.52032
2009    4       4       0.2613385       62.62409
2009    4       5       0.206446        51.63862
2009    4       6       0.1786921       46.03977
2009    4       7       0.1556521       41.27073
2009    5       0       0.1543796       40.96358
2009    5       1       0.1545459       40.96176
2009    5       2       0.1370493       37.19119
2009    5       3       0.1301719       35.73385
2009    5       4       0.1211348       33.82424
2009    5       5       0.09694344      28.35272
2009    5       6       0.08532139      25.62093
2009    5       7       0.08929678      26.5709
2009    6       0       0.08162547      24.74564
2009    6       1       0.06920989      21.71136
2009    6       2       0.06562499      20.82005
2009    6       3       0.07107442      22.21469
2009    6       4       0.08384779      25.30695
2009    6       5       0.09089697      27.02916
2009    6       6       0.09065081      26.96124
2009    6       7       0.08947972      26.6164
2009    7       0       0.09081708      26.64328
2009    7       1       0.131677        35.60122
2009    7       2       0.1485049       39.5907
2009    7       3       0.2372589       57.87826
2009    7       4       0.3773733       84.2692
2009    7       5       0.4878159       102.9047
2009    7       6       0.5108184       106.6465
2009    7       7       0.526808        109.0464
2009    8       0       0.490817        103.7893
2009    8       1       0.3957097       88.43043
2009    8       2       0.3515713       80.85505
2009    8       3       0.3536234       81.30029
2009    8       4       0.5164948       107.5533
2009    8       5       0.6286721       123.9927
2009    8       6       0.6428848       125.8783
2009    8       7       0.5088096       107.4028
2009    9       0       0.4571868       99.13472
2009    9       1       0.3869714       87.29741
2009    9       2       0.4010766       89.30677
2009    9       3       0.4741147       101.2151
2009    9       4       0.4541628       97.90718
2009    9       5       0.4180919       91.87313
2009    9       6       0.3577488       81.56221
2009    9       7       0.3378105       77.68627
2009    10      0       0.2689305       64.20771
2009    10      1       0.1968864       49.65774
2009    10      2       0.1575881       41.24174
2009    10      3       0.1208251       32.84105
2009    10      4       0.1248798       33.91871
2009    10      5       0.1333183       35.79777
2009    10      6       0.1713501       43.82761
2009    10      7       0.1997072       49.76945
2009    11      0       0.1854491       47.22166
2009    11      1       0.1875281       47.89368
2009    11      2       0.2186508       54.58574
2009    11      3       0.2435542       59.65569
2009    11      4       0.2408807       59.01791
2009    11      5       0.2861077       67.5419
2009    11      6       0.3748202       83.58702
2009    11      7       0.4674656       98.95036
2009    12      0       0.4865655       101.9709
2009    12      1       0.4123966       90.09243
2009    12      2       0.282271        67.07989
2009    12      3       0.1802753       46.67916
2009    12      4       0.1308738       35.95029
2009    12      5       0.1077927       30.72787
2009    12      6       0.0944385       27.65539
2009    12      7       0.08049845      24.32645
2009    13      0       0.08379182      24.99285
2009    13      1       0.07878963      23.83109
2009    13      2       0.08567846      25.5038
2009    13      3       0.08009662      24.35913
2009    13      4       0.08653966      26.01154
2009    13      5       0.09972231      29.12249
2009    13      6       0.1056106       30.45833
2009    13      7       0.1254016       35.01344
2009    14      0       0.2441713       60.20086
2009    14      1       0.3103592       73.32111
2009    14      2       0.2817075       67.96177
2009    14      3       0.258596        63.27461
2009    14      4       0.4687266       99.94774
2009    14      5       0.4442089       96.07655
2009    14      6       0.3128007       73.65501
2009    14      7       0.2712461       65.86788
2009    15      0       0.2315046       57.98296
2009    15      1       0.2263721       56.95616
2009    15      2       0.2514482       61.91749
2009    15      3       0.4005228       89.32426
2009    15      4       0.3711919       84.44578
2009    15      5       0.4006968       89.38505
2009    15      6       0.5533718       113.5698
2009    15      7       0.5871227       118.5074
2009    16      0       0.5883093       118.2659
2009    16      1       0.4935361       103.2856
2009    16      2       0.2888807       67.70176
2009    16      3       0.06877864      21.60441
2009    16      4       0.09932729      28.44733
2009    16      5       0.1299086       35.33329
2009    16      6       0.1507763       40.12917
2009    16      7       0.1501381       40.11584
2009    17      0       0.1552667       41.21193
2009    17      1       0.1537128       40.94535
2009    17      2       0.134036        36.81587
2009    17      3       0.1249476       34.73889
2009    17      4       0.1242853       34.50849
2009    17      5       0.1243115       34.38721
2009    17      6       0.1109992       31.20616
2009    17      7       0.1070786       30.17412
2009    18      0       0.1128891       31.85157
2009    18      1       0.1505134       40.8972
2009    18      2       0.1636378       43.66371
2009    18      3       0.2643142       63.72773
2009    18      4       0.3783151       84.41969
2009    18      5       0.4965642       104.3795
2009    18      6       0.4269958       93.53595
2009    18      7       0.414977        91.45986
2009    19      0       0.3998286       88.68116
2009    19      1       0.4360768       94.66715
2009    19      2       0.3467666       79.22293
2009    19      3       0.3212292       74.49312
2009    19      4       0.318461        74.04495
2009    19      5       0.4107626       90.63137
2009    19      6       0.4642786       100.1141
2009    19      7       0.3750359       85.0257
2009    20      0       0.270615        65.77536
2009    20      1       0.2827048       67.89261
2009    20      2       0.3355971       77.52164
2009    20      3       0.4257924       93.38798
2009    20      4       0.5661873       115.3158
2009    20      5       0.3344039       77.6114
2009    20      6       0.2812918       67.73383
2009    20      7       0.368868        83.14738
2009    21      0       0.3350487       77.27405
2009    21      1       0.3557227       81.16553
2009    21      2       0.3613269       82.29687
2009    21      3       0.4010268       89.28015
2009    21      4       0.3179253       74.32559
2009    21      5       0.3332885       76.93316
2009    21      6       0.5118429       107.4038
2009    21      7       0.5263625       110.1853
2009    22      0       0.4464681       96.81022
2009    22      1       0.5267168       109.2609
2009    22      2       0.5282372       109.8596
2009    22      3       0.4355538       95.65647
2009    22      4       0.1876965       49.15132
2009    22      5       0.07057586      22.29724
2009    22      6       0.04858389      16.87693
2009    22      7       0.04738677      16.57701
2009    23      0       0.04121228      14.96383
2009    23      1       0.03614904      13.62523
2009    23      2       0.04503271      15.91192
2009    23      3       0.05449186      18.23703
2009    23      4       0.05801777      19.07221
2009    23      5       0.06250718      20.15506
2009    23      6       0.06518585      20.56057
2009    23      7       0.1028187       29.27335
2009    24      0       0.1736763       45.09932
2009    24      1       0.2711904       65.60978
2009    24      2       0.3636512       83.07302
2009    24      3       0.4552654       98.74584
2009    24      4       0.5044235       106.941
2009    24      5       0.3911502       88.47892
2009    24      6       0.2925573       70.5151
2009    24      7       0.2315688       58.49294
2009    25      0       0.1884843       49.50855
2009    25      1       0.1551252       42.26525
2009    25      2       0.1436896       39.7139
2009    25      3       0.1519547       41.42201
2009    25      4       0.1791938       47.17923
2009    25      5       0.2103074       53.55257
2009    25      6       0.243586        60.30234
2009    25      7       0.2969765       70.74409
2009    26      0       0.4219245       92.79408
2009    26      1       0.4058205       90.0692
2009    26      2       0.445921        96.55191
2009    26      3       0.3573013       81.97112
2009    26      4       0.5595207       114.2119
2009    26      5       0.4540223       98.46255
2009    26      6       0.2810555       67.80933
2009    26      7       0.2434889       60.25294
2009    27      0       0.245159        60.37287
2009    27      1       0.2424753       59.71121
2009    27      2       0.260073        63.19601
2009    27      3       0.298744        70.80018
2009    27      4       0.2857073       68.44339
2009    27      5       0.2532527       62.21922
2009    27      6       0.2631438       63.93126
2009    27      7       0.2954263       69.98663
2009    28      0       0.2842765       68.06859
2009    28      1       0.3263217       75.89316
2009    28      2       0.3636236       82.69444
2009    28      3       0.4699673       100.5148
2009    28      4       0.4473099       96.94025
2009    28      5       0.3581623       81.84144
2009    28      6       0.2947046       70.40842
2009    28      7       0.2878926       69.22781
2009    29      0       0.2716674       66.04483
2009    29      1       0.1987932       51.30635
2009    29      2       0.1420238       39.10493
2009    29      3       0.1361035       37.93571
2009    29      4       0.1235736       34.89598
2009    29      5       0.1317701       36.45845
2009    29      6       0.1254706       35.00399
2009    29      7       0.1020588       29.72983
2009    30      0       0.0871666       26.46363
2009    30      1       0.07899958      24.5269
2009    30      2       0.07727953      23.97339
2009    30      3       0.08039497      24.71851
2009    30      4       0.1188585       33.5783
2009    30      5       0.1722008       45.35237
2009    30      6       0.27967         67.44481
2009    30      7       0.3263083       76.66384
2009    31      0       0.3698664       84.57225
2009    31      1       0.4900562       104.5098
2009    31      2       0.5231909       109.9653
2009    31      3       0.3582652       82.93571
2009    31      4       0.3237418       76.69196
2009    31      5       0.3302379       77.99664
2009    31      6       0.2970883       71.93069
2009    31      7       0.2793955       68.51989
2010    1       0       0.2081143       53.57004
2010    1       1       0.1843938       48.55897
2010    1       2       0.158066        42.75732
2010    1       3       0.1375584       38.18175
2010    1       4       0.1377843       38.38302
2010    1       5       0.1402591       38.77217
2010    1       6       0.1660982       44.08993
2010    1       7       0.1799556       46.92113
2010    2       0       0.1566402       41.87346
2010    2       1       0.1534051       41.20632
2010    2       2       0.234228        58.51811
2010    2       3       0.3064796       73.35933
2010    2       4       0.3121063       74.67827
2010    2       5       0.3153448       75.31067
2010    2       6       0.331264        78.04966
2010    2       7       0.3654319       84.18581
2010    3       0       0.3677055       84.40832
2010    3       1       0.4480785       97.05753
2010    3       2       0.5425524       112.1218
2010    3       3       0.5637337       116.6599
2010    3       4       0.5875598       120.3615
2010    3       5       0.3986369       90.19599
2010    3       6       0.1769898       46.58936
2010    3       7       0.06571667      20.81896
2010    4       0       0.05151909      17.2801
2010    4       1       0.0406142       14.64884
2010    4       2       0.03244887      12.59266
2010    4       3       0.03206525      12.4679
2010    4       4       0.03327629      12.7366
2010    4       5       0.04474992      15.5039
2010    4       6       0.07789014      23.23967
2010    4       7       0.1030321       29.07571
2010    5       0       0.118409        32.49997
2010    5       1       0.1431967       37.78216
2010    5       2       0.1325601       35.70267
2010    5       3       0.1146621       31.99507
2010    5       4       0.1092695       30.87343
2010    5       5       0.09849386      28.56624
2010    5       6       0.07933016      24.19542
2010    5       7       0.06523905      20.82852
2010    6       0       0.0728618       22.64417
2010    6       1       0.09430906      27.71137
2010    6       2       0.1694387       44.52643
2010    6       3       0.196222        50.37779
2010    6       4       0.2238755       56.04805
2010    6       5       0.1926198       49.93305
2010    6       6       0.229292        57.0862
2010    6       7       0.2775872       66.66041
2010    7       0       0.2240492       56.71212
2010    7       1       0.2427608       60.64433
2010    7       2       0.2681255       65.47755
2010    7       3       0.288221        69.3143
2010    7       4       0.2802632       67.74923
2010    7       5       0.2443644       60.81015
2010    7       6       0.2265683       57.2386
2010    7       7       0.208764        53.59371
2010    8       0       0.1601139       43.15641
2010    8       1       0.1260685       35.55673
2010    8       2       0.1064736       31.11183
2010    8       3       0.09236363      27.75897
2010    8       4       0.0823665       25.27172
2010    8       5       0.08328893      25.35369
2010    8       6       0.08974         26.77672
2010    8       7       0.09720227      28.50614
2010    9       0       0.1006893       29.27908
2010    9       1       0.09933067      28.92528
2010    9       2       0.09591823      28.0958
2010    9       3       0.09732139      28.44108
2010    9       4       0.101263        29.4138
2010    9       5       0.1047768       30.29143
2010    9       6       0.106877        30.87312
2010    9       7       0.09982451      29.11903
2010    10      0       0.09141318      26.96397
2010    10      1       0.0929898       27.3146
2010    10      2       0.09840341      28.75984
2010    10      3       0.1070946       30.93846
2010    10      4       0.1117974       32.18376
2010    10      5       0.1168318       33.35798
2010    10      6       0.1097222       31.83447
2010    10      7       0.101062        29.76393
2010    11      0       0.1030533       30.25056
2010    11      1       0.1061117       30.89056
2010    11      2       0.1126414       32.32558
2010    11      3       0.1171156       33.26272
2010    11      4       0.124243        34.86621
2010    11      5       0.1457417       39.68389
2010    11      6       0.173164        45.63156
2010    11      7       0.1768527       46.34441
2010    12      0       0.1944537       50.11264
2010    12      1       0.2187306       55.56644
2010    12      2       0.2445565       61.17625
2010    12      3       0.2574359       63.88088
2010    12      4       0.2622095       64.93331
2010    12      5       0.2560251       63.77537
2010    12      6       0.2506954       62.71221
2010    12      7       0.2746403       67.24939
2010    13      0       0.269219        66.29223
2010    13      1       0.250556        62.45818
2010    13      2       0.2379136       59.67018
2010    13      3       0.2290081       57.8071
2010    13      4       0.2313802       58.38377
2010    13      5       0.2295744       58.1554
2010    13      6       0.2115435       54.60613
2010    13      7       0.1844927       49.02167
2010    14      0       0.1699944       45.90658
2010    14      1       0.1606474       43.82921
2010    14      2       0.1359142       38.27116
2010    14      3       0.1201465       34.74372
2010    14      4       0.1475158       40.66913
2010    14      5       0.204276        52.49829
2010    14      6       0.2180118       55.47603
2010    14      7       0.278097        67.07006
2010    15      0       0.324589        75.71677
2010    15      1       0.267149        65.31723
2010    15      2       0.3254343       76.89165
2010    15      3       0.4676848       101.658
2010    15      4       0.4687213       100.4295
2010    15      5       0.4323118       93.97732
2010    15      6       0.2553274       62.2562
2010    15      7       0.3074259       71.78462
2010    16      0       0.3156808       73.40491
2010    16      1       0.3106758       72.39424
2010    16      2       0.352367        79.4474
2010    16      3       0.3688718       82.25573
2010    16      4       0.2842685       67.13319
2010    16      5       0.2144725       53.74251
2010    16      6       0.1738571       45.21786
2010    16      7       0.1907727       48.62877
2010    17      0       0.2479706       60.00956
2010    17      1       0.3096325       71.72547
2010    17      2       0.226457        56.28947
2010    17      3       0.1555189       41.79806
2010    17      4       0.1662734       44.18342
2010    17      5       0.1748154       46.12016
2010    17      6       0.1924843       49.96595
2010    17      7       0.1839357       48.10471
2010    18      0       0.1288013       35.85095
2010    18      1       0.1076351       30.86793
2010    18      2       0.1083692       31.14329
2010    18      3       0.1005293       29.35155
2010    18      4       0.09822539      28.82864
2010    18      5       0.1156951       32.85103
2010    18      6       0.1353138       37.08681
2010    18      7       0.1623476       42.84242
2010    19      0       0.2561741       61.9554
2010    19      1       0.2109055       53.03556
2010    19      2       0.2735734       65.07873
2010    19      3       0.2658997       63.83702
2010    19      4       0.4075229       89.58312
2010    19      5       0.3238008       76.03868
2010    19      6       0.2746472       67.0996
2010    19      7       0.2395669       60.35185
2010    20      0       0.1570033       42.57579
2010    20      1       0.2505102       62.22738
2010    20      2       0.378429        86.36699
2010    20      3       0.4473397       98.16162
2010    20      4       0.4566124       99.58129
2010    20      5       0.2855562       69.01103
2010    20      6       0.2332753       58.6491
2010    20      7       0.2045875       52.60505
2010    21      0       0.18287         47.87657
2010    21      1       0.1738817       45.6947
2010    21      2       0.174264        45.56903
2010    21      3       0.1507515       40.41473
2010    21      4       0.1388407       37.57687
2010    21      5       0.129961        35.57332
2010    21      6       0.1437765       38.76079
2010    21      7       0.1676114       43.85535
2010    22      0       0.1194162       33.39281
2010    22      1       0.08583575      25.49884
2010    22      2       0.09588959      27.81199
2010    22      3       0.06679352      21.06783
2010    22      4       0.04777494      16.40263
2010    22      5       0.03862611      14.14404
2010    22      6       0.03365289      12.84112
2010    22      7       0.03882887      14.13966
2010    23      0       0.05223459      17.41697
2010    23      1       0.06143326      19.67029
2010    23      2       0.07902181      23.90308
2010    23      3       0.09658355      28.11253
2010    23      4       0.11303         31.98688
2010    23      5       0.126795        35.253
2010    23      6       0.1251692       34.98099
2010    23      7       0.1167771       33.1059
2010    24      0       0.108063        31.10101
2010    24      1       0.09809269      28.79358
2010    24      2       0.08767797      26.3376
2010    24      3       0.08251789      25.10286
2010    24      4       0.0834536       25.33159
2010    24      5       0.08472042      25.63336
2010    24      6       0.08227301      25.03801
2010    24      7       0.08178988      24.9079
2010    25      0       0.08922952      26.64435
2010    25      1       0.1058361       30.52742
2010    25      2       0.1173523       33.21772
2010    25      3       0.1169856       33.13899
2010    25      4       0.1145457       32.53062
2010    25      5       0.1084069       31.09473
2010    25      6       0.1019143       29.51612
2010    25      7       0.1017844       29.46222
2010    26      0       0.1020832       29.62181
2010    26      1       0.09712631      28.56468
2010    26      2       0.09769849      28.75463
2010    26      3       0.1020137       29.79312
2010    26      4       0.1046062       30.43782
2010    26      5       0.1053552       30.65279
2010    26      6       0.1019694       29.84932
2010    26      7       0.09961522      29.25342
2010    27      0       0.09109395      27.20634
2010    27      1       0.08068963      24.68443
2010    27      2       0.07568146      23.47127
2010    27      3       0.07598918      23.53438
2010    27      4       0.07560715      23.42916
2010    27      5       0.07359767      22.93654
2010    27      6       0.07105931      22.33765
2010    27      7       0.06811959      21.65633
2010    28      0       0.06281948      20.33461
2010    28      1       0.06218379      20.19067
2010    28      2       0.06890401      21.85494
2010    28      3       0.07576183      23.52595
2010    28      4       0.08379209      25.4203
2010    28      5       0.08847215      26.49743
2010    28      6       0.08864997      26.48216
2010    28      7       0.09364308      27.59867
2010    29      0       0.09835688      28.62564
2010    29      1       0.0998493       28.90319
2010    29      2       0.09947374      28.75985
2010    29      3       0.09901684      28.61076
2010    29      4       0.1012161       29.11392
2010    29      5       0.1080725       30.71301
2010    29      6       0.1188867       33.1814
2010    29      7       0.1283691       35.32366
2010    30      0       0.1311301       36.08975
2010    30      1       0.1183685       33.53789
2010    30      2       0.1042356       30.18636
2010    30      3       0.1048593       30.16936
2010    30      4       0.130732        36.10065
2010    30      5       0.1286405       36.00164
2010    30      6       0.1116391       32.34513
2010    30      7       0.08246173      25.26942
2010    31      0       0.066474        21.05638
2010    31      1       0.06815292      21.21076
2010    31      2       0.06415558      20.22101
2010    31      3       0.0596257       19.16567
2010    31      4       0.05474236      18.09607
2010    31      5       0.0504023       17.18104
2010    31      6       0.05334162      18.00144
2010    31      7       0.05814579      19.14202
2011    1       0       0.1976323       51.74301
2011    1       1       0.1644548       44.3586
2011    1       2       0.2444462       60.56282
2011    1       3       0.4270015       93.78141
2011    1       4       0.4906685       105.1171
2011    1       5       0.4324857       95.95579
2011    1       6       0.4303947       95.46548
2011    1       7       0.4320532       95.4744
2011    2       0       0.3367937       78.57033
2011    2       1       0.5210167       108.8514
2011    2       2       0.5752561       116.9638
2011    2       3       0.5379949       110.9955
2011    2       4       0.3862768       86.19619
2011    2       5       0.2126824       53.71758
2011    2       6       0.1733913       45.47245
2011    2       7       0.1099138       31.42666
2011    3       0       0.08275211      25.04261
2011    3       1       0.06835186      21.49014
2011    3       2       0.06675688      21.05414
2011    3       3       0.07287267      22.58181
2011    3       4       0.1055474       30.45879
2011    3       5       0.1332938       36.84761
2011    3       6       0.1476099       40.09713
2011    3       7       0.1731217       45.64717
2011    4       0       0.1924537       49.65101
2011    4       1       0.2013252       51.34992
2011    4       2       0.2243353       55.96189
2011    4       3       0.3325958       76.6455
2011    4       4       0.3262797       75.21791
2011    4       5       0.2686649       64.14416
2011    4       6       0.2860021       66.98422
2011    4       7       0.3364659       76.11471
2011    5       0       0.3363932       75.97832
2011    5       1       0.2815241       65.78568
2011    5       2       0.2300775       55.77601
2011    5       3       0.1796993       45.74355
2011    5       4       0.157232        41.05094
2011    5       5       0.1451254       38.45347
2011    5       6       0.1373797       36.73327
2011    5       7       0.1165158       32.15606
2011    6       0       0.1068666       30.02338
2011    6       1       0.09836106      28.11776
2011    6       2       0.08743051      25.64749
2011    6       3       0.08231387      24.48791
2011    6       4       0.08364309      24.8336
2011    6       5       0.08155599      24.38953
2011    6       6       0.07097685      21.92235
2011    6       7       0.06837673      21.33682
2011    7       0       0.06143294      19.71519
2011    7       1       0.05402984      17.91278
2011    7       2       0.05402135      17.91014
2011    7       3       0.05645516      18.53271
2011    7       4       0.05669818      18.62821
2011    7       5       0.06254691      20.04635
2011    7       6       0.06358017      20.29032
2011    7       7       0.06016632      19.44458
2011    8       0       0.0576085       18.82124
2011    8       1       0.05715739      18.71532
2011    8       2       0.05431825      17.99839
2011    8       3       0.05457677      18.05023
2011    8       4       0.05299237      17.65816
2011    8       5       0.05154267      17.32483
2011    8       6       0.04853229      16.65993
2011    8       7       0.04496116      15.81764
2011    9       0       0.04542832      15.95014
2011    9       1       0.04340232      15.44333
2011    9       2       0.04262028      15.22598
2011    9       3       0.05109286      17.3334
2011    9       4       0.07234662      22.57032
2011    9       5       0.07225319      22.55502
2011    9       6       0.07101667      22.29185
2011    9       7       0.07963224      24.42984
2011    10      0       0.07621971      23.57627
2011    10      1       0.1003063       28.90795
2011    10      2       0.1022847       29.40642
2011    10      3       0.09305274      27.45938
2011    10      4       0.09521705      28.1142
2011    10      5       0.09575262      28.28171
2011    10      6       0.0917284       27.32568
2011    10      7       0.08509749      25.82673
2011    11      0       0.08215743      25.16824
2011    11      1       0.08235173      25.15563
2011    11      2       0.08786915      26.40595
2011    11      3       0.1034266       29.92139
2011    11      4       0.1385594       37.79116
2011    11      5       0.1735592       45.13034
2011    11      6       0.1806005       46.59028
2011    11      7       0.2220398       55.03908
2011    12      0       0.3064629       71.02418
2011    12      1       0.3881732       85.38294
2011    12      2       0.3869863       85.47761
2011    12      3       0.3107542       71.92353
2011    12      4       0.3193856       73.31955
2011    12      5       0.2876136       67.58479
2011    12      6       0.2282104       56.26097
2011    12      7       0.1170698       32.76033
2011    13      0       0.08130887      24.28908
2011    13      1       0.1034403       29.25408
2011    13      2       0.1198225       32.88443
2011    13      3       0.1068394       30.04744
2011    13      4       0.116753        32.21278
2011    13      5       0.12309         33.60135
2011    13      6       0.1206601       33.12954
2011    13      7       0.0966835       27.69576
2011    14      0       0.1231154       33.82684
2011    14      1       0.08971421      26.43991
2011    14      2       0.09559377      27.86063
2011    14      3       0.1016457       29.28229
2011    14      4       0.09790401      28.39139
2011    14      5       0.09647799      28.06971
2011    14      6       0.1025353       29.50323
2011    14      7       0.1116869       31.64475
2011    15      0       0.1158657       32.61948
2011    15      1       0.1084321       30.81027
2011    15      2       0.1091705       30.86802
2011    15      3       0.1008042       28.96318
2011    15      4       0.09337767      27.21559
2011    15      5       0.08820857      25.95025
2011    15      6       0.09055794      26.46
2011    15      7       0.07401145      22.61456
2011    16      0       0.06120201      19.57786
2011    16      1       0.04987918      16.84075
2011    16      2       0.04067109      14.59716
2011    16      3       0.03597192      13.43945
2011    16      4       0.03648891      13.54707
2011    16      5       0.03984037      14.34482
2011    16      6       0.04715709      16.10089
2011    16      7       0.05587274      18.21745
2011    17      0       0.06950926      21.40103
2011    17      1       0.078943        23.59042
2011    17      2       0.0965736       27.66972
2011    17      3       0.1582725       41.2585
2011    17      4       0.1713711       44.26286
2011    17      5       0.1969285       49.71135
2011    17      6       0.2163326       53.32962
2011    17      7       0.2186222       53.76465
2011    18      0       0.2516635       60.41697
2011    18      1       0.2344217       57.20325
2011    18      2       0.2109367       52.48959
2011    18      3       0.2368912       57.51885
2011    18      4       0.2318201       56.6759
2011    18      5       0.1397582       37.59135
2011    18      6       0.0762184       23.27005
2011    18      7       0.0440657       15.48966
2011    19      0       0.03389387      12.89977
2011    19      1       0.0334109       12.74042
2011    19      2       0.03038931      11.95152
2011    19      3       0.03291652      12.57863
2011    19      4       0.03861097      13.96354
2011    19      5       0.04352696      15.11815
2011    19      6       0.04430421      15.28827
2011    19      7       0.04942512      16.52839
2011    20      0       0.05727166      18.35399
2011    20      1       0.05938018      18.83036
2011    20      2       0.06185275      19.39855
2011    20      3       0.07145041      21.62548
2011    20      4       0.07830033      23.17081
2011    20      5       0.07957911      23.46846
2011    20      6       0.07195335      21.74106
2011    20      7       0.06413458      19.89556
2011    21      0       0.05701386      18.25736
2011    21      1       0.055921        18.01723
2011    21      2       0.07757664      22.99155
2011    21      3       0.09634241      27.35644
2011    21      4       0.1056155       29.551
2011    21      5       0.09633076      27.54589
2011    21      6       0.07263113      22.22009
2011    21      7       0.08095387      24.25051
2011    22      0       0.09340967      27.23172
2011    22      1       0.08400406      25.12576
2011    22      2       0.0786988       23.96292
2011    22      3       0.09471581      27.77423
2011    22      4       0.1098653       31.36067
2011    22      5       0.1085088       31.18985
2011    22      6       0.1005872       29.35246
2011    22      7       0.08784918      26.34474
2011    23      0       0.06763886      21.51251
2011    23      1       0.06049884      19.73159
2011    23      2       0.05975056      19.56901
2011    23      3       0.05612936      18.74948
2011    23      4       0.05988701      19.70238
2011    23      5       0.05411404      18.16754
2011    23      6       0.05225672      17.59996
2011    23      7       0.05579351      18.40678
2011    24      0       0.05900884      19.18713
2011    24      1       0.07065086      21.92433
2011    24      2       0.1248015       34.11294
2011    24      3       0.2142817       53.23316
2011    24      4       0.3622135       81.81909
2011    24      5       0.3621501       82.25724
2011    24      6       0.4013535       89.01198
2011    24      7       0.4690369       100.2234
2011    25      0       0.5347319       110.5003
2011    25      1       0.609568        121.8956
2011    25      2       0.483122        102.844
2011    25      3       0.3762363       84.58713
2011    25      4       0.4895146       103.5116
2011    25      5       0.4349172       94.64898
2011    25      6       0.3741114       84.8667
2011    25      7       0.3147464       74.16465
2011    26      0       0.4268608       93.42811
2011    26      1       0.5111014       106.9305
2011    26      2       0.5158569       107.4675
2011    26      3       0.522444        108.4102
2011    26      4       0.5196432       108.0102
2011    26      5       0.5156441       107.3879
2011    26      6       0.4132142       91.08014
2011    26      7       0.4663003       99.37484
2011    27      0       0.3664876       82.49325
2011    27      1       0.1890459       48.54509
2011    27      2       0.1409296       38.07353
2011    27      3       0.1209201       33.60444
2011    27      4       0.115105        32.30535
2011    27      5       0.1222618       33.82135
2011    27      6       0.1413915       37.97688
2011    27      7       0.2299311       56.01466
2011    28      0       0.2846734       66.59753
2011    28      1       0.2356908       57.41557
2011    28      2       0.2359398       57.53698
2011    28      3       0.3814379       84.3368
2011    28      4       0.3905038       85.75752
2011    28      5       0.2722502       64.62167
2011    28      6       0.145105        39.0019
2011    28      7       0.1124386       31.52086
2011    29      0       0.1591804       41.63079
2011    29      1       0.2103704       52.65548
2011    29      2       0.2184896       54.63909
2011    29      3       0.2234525       55.72527
2011    29      4       0.2706552       64.88644
2011    29      5       0.3144928       72.9066
2011    29      6       0.2745264       65.55289
2011    29      7       0.2563073       62.31647
2011    30      0       0.2942335       69.37118
2011    30      1       0.3773673       84.04507
2011    30      2       0.2785915       65.79156
2011    30      3       0.1755933       45.45207
2011    30      4       0.05502929      18.16096
2011    30      5       0.03563147      13.29971
2011    30      6       0.03485203      13.1124
2011    30      7       0.03608912      13.46238
2011    31      0       0.04874617      16.69697
2011    31      1       0.05490258      18.24177
2011    31      2       0.06327043      20.37474
2011    31      3       0.07435576      23.16215
2011    31      4       0.1219209       34.30007
2011    31      5       0.1507855       40.78919
2011    31      6       0.1426169       39.01249
2011    31      7       0.1429986       39.0336
2012    1       0       0.1664965       44.59439
2012    1       1       0.1589162       42.94892
2012    1       2       0.1405516       38.92058
2012    1       3       0.1264406       35.76407
2012    1       4       0.1187954       34.02133
2012    1       5       0.1101768       32.02643
2012    1       6       0.09830653      29.24484
2012    1       7       0.08755552      26.71964
2012    2       0       0.08038967      25.00347
2012    2       1       0.07669546      24.10397
2012    2       2       0.07857749      24.57853
2012    2       3       0.07872228      24.61416
2012    2       4       0.08064225      25.07137
2012    2       5       0.0789976       24.6736
2012    2       6       0.07290129      23.18171
2012    2       7       0.07038138      22.55282
2012    3       0       0.07492187      23.65237
2012    3       1       0.07867297      24.53217
2012    3       2       0.07640735      23.95896
2012    3       3       0.07418717      23.40093
2012    3       4       0.07864494      24.50576
2012    3       5       0.08286504      25.57356
2012    3       6       0.08271906      25.43685
2012    3       7       0.1136195       32.3331
2012    4       0       0.1296164       35.72105
2012    4       1       0.1515796       40.65557
2012    4       2       0.1645259       43.65319
2012    4       3       0.1666403       44.23658
2012    4       4       0.1624141       43.46034
2012    4       5       0.1636368       43.72578
2012    4       6       0.152112        41.24643
2012    4       7       0.1509665       40.90594
2012    5       0       0.1942598       49.85327
2012    5       1       0.2146019       54.04717
2012    5       2       0.1799708       47.24534
2012    5       3       0.1539226       41.92611
2012    5       4       0.1668711       44.85236
2012    5       5       0.1748587       46.70123
2012    5       6       0.1713714       46.01817
2012    5       7       0.1965441       51.51175
2012    6       0       0.2491307       62.38931
2012    6       1       0.2459792       61.77948
2012    6       2       0.2393375       60.3909
2012    6       3       0.2631511       64.79497
2012    6       4       0.3820986       85.91551
2012    6       5       0.2992804       71.37836
2012    6       6       0.2650984       65.21474
2012    6       7       0.2365278       60.00254
2012    7       0       0.2607392       64.79364
2012    7       1       0.2993509       72.07765
2012    7       2       0.3212222       75.51235
2012    7       3       0.4158692       91.99169
2012    7       4       0.4376843       95.9582
2012    7       5       0.569122        116.2943
2012    7       6       0.5649381       116.0914
2012    7       7       0.5347903       112.4286
2012    8       0       0.3313742       77.56334
2012    8       1       0.418987        93.18102
2012    8       2       0.1788161       47.66244
2012    8       3       0.2202155       56.33366
2012    8       4       0.227664        57.7661
2012    8       5       0.1816684       48.07287
2012    8       6       0.09611005      28.60906
2012    8       7       0.07457296      23.4005
2012    9       0       0.07402468      23.2315
2012    9       1       0.06750502      21.57545
2012    9       2       0.06009864      19.64933
2012    9       3       0.05948614      19.30499
2012    9       4       0.08868037      26.14926
2012    9       5       0.1309776       35.93905
2012    9       6       0.1579596       41.77687
2012    9       7       0.1435139       38.89959
2012    10      0       0.1591002       42.3573
2012    10      1       0.1920872       49.42615
2012    10      2       0.21119         53.47348
2012    10      3       0.2549835       62.43515
2012    10      4       0.3233247       75.46903
2012    10      5       0.3921943       87.62495
2012    10      6       0.4200853       92.34641
2012    10      7       0.4815636       102.2355
2012    11      0       0.5371519       111.0339
2012    11      1       0.2946424       70.02502
2012    11      2       0.3223142       74.72414
2012    11      3       0.4350334       94.7796
2012    11      4       0.3908694       88.13161
2012    11      5       0.3272698       76.49034
2012    11      6       0.3425339       79.15682
2012    11      7       0.2017781       51.82181
2012    12      0       0.1448322       39.43175
2012    12      1       0.1466326       39.68504
2012    12      2       0.1643154       43.61295
2012    12      3       0.1523033       40.93488
2012    12      4       0.1223301       34.13349
2012    12      5       0.1140326       32.2702
2012    12      6       0.07779724      23.81853
2012    12      7       0.05317108      17.77711
2012    13      0       0.0589716       19.22467
2012    13      1       0.05696001      18.70727
2012    13      2       0.05689995      18.69082
2012    13      3       0.06242841      20.00817
2012    13      4       0.07141628      22.17991
2012    13      5       0.07197937      22.32885
2012    13      6       0.07150267      22.191
2012    13      7       0.06914846      21.56641
2012    14      0       0.06793541      21.24431
2012    14      1       0.07182883      22.16818
2012    14      2       0.07539357      22.99848
2012    14      3       0.08724251      25.74669
2012    14      4       0.0859832       25.40726
2012    14      5       0.07866006      23.6429
2012    14      6       0.08117195      24.14548
2012    14      7       0.09656775      27.66937
2012    15      0       0.1213943       33.19973
2012    15      1       0.1662449       42.87625
2012    15      2       0.2126366       52.41919
2012    15      3       0.2340473       56.62545
2012    15      4       0.2378044       57.58093
2012    15      5       0.2483127       59.65767
2012    15      6       0.2624318       62.53717
2012    15      7       0.2806902       66.12914
2012    16      0       0.3418344       77.11286
2012    16      1       0.3363889       76.0922
2012    16      2       0.2941736       68.53309
2012    16      3       0.2911634       67.98186
2012    16      4       0.2991055       69.47269
2012    16      5       0.3045742       70.52869
2012    16      6       0.2460679       59.53833
2012    16      7       0.2146378       53.49569
2012    17      0       0.2146995       53.45798
2012    17      1       0.2145543       53.44624
2012    17      2       0.2048426       51.5252
2012    17      3       0.2911163       68.48925
2012    17      4       0.4384459       94.29602
2012    17      5       0.4306293       93.09552
2012    17      6       0.4523087       96.74499
2012    17      7       0.3676958       82.58151
2012    18      0       0.2630414       63.07516
2012    18      1       0.2470181       59.49751
2012    18      2       0.1929031       48.62626
2012    18      3       0.1654564       42.96059
2012    18      4       0.2490443       59.59111
2012    18      5       0.2771409       65.04795
2012    18      6       0.2157408       53.19406
2012    18      7       0.1505033       39.79215
2012    19      0       0.1097733       30.77422
2012    19      1       0.09148284      26.58652
2012    19      2       0.06714507      20.97926
2012    19      3       0.05801139      18.89736
2012    19      4       0.04328774      15.25572
2012    19      5       0.0380701       13.9054
2012    19      6       0.04178506      14.75742
2012    19      7       0.05213511      17.21045
2012    20      0       0.06274065      19.80998
2012    20      1       0.06507876      20.46558
2012    20      2       0.06602124      20.75202
2012    20      3       0.07506188      22.98145
2012    20      4       0.07864547      23.88135
2012    20      5       0.07821313      23.77249
2012    20      6       0.1026328       29.51983
2012    20      7       0.1487276       39.93515
2012    21      0       0.2538243       61.97638
2012    21      1       0.2900328       69.61807
2012    21      2       0.2919806       70.29121
2012    21      3       0.2752467       67.45684
2012    21      4       0.2488722       62.41006
2012    21      5       0.2275115       57.98562
2012    21      6       0.1973223       51.67711
2012    21      7       0.2151365       55.42088
2012    22      0       0.218646        55.99419
2012    22      1       0.1949484       51.11117
2012    22      2       0.2166577       55.55926
2012    22      3       0.329762        77.83086
2012    22      4       0.4458259       98.28854
2012    22      5       0.6095104       123.4684
2012    22      6       0.5585318       115.6376
2012    22      7       0.7283449       138.5488
2012    23      0       0.6034394       122.3879
2012    23      1       0.3231187       75.60898
2012    23      2       0.2099321       53.45264
2012    23      3       0.2150969       54.71137
2012    23      4       0.200331        51.5433
2012    23      5       0.2008118       51.51395
2012    23      6       0.2176672       54.93876
2012    23      7       0.2031852       51.94823
2012    24      0       0.1995387       51.17145
2012    24      1       0.1767625       46.46053
2012    24      2       0.1645711       43.83621
2012    24      3       0.1737832       45.8873
2012    24      4       0.1744413       46.17106
2012    24      5       0.1612183       43.26189
2012    24      6       0.1690564       44.82811
2012    24      7       0.1777102       46.62049
2012    25      0       0.1863573       47.99316
2012    25      1       0.2909938       68.31114
2012    25      2       0.3884428       86.13485
2012    25      3       0.5409183       111.0482
2012    25      4       0.4999647       105.1158
2012    25      5       0.5434732       111.6089
2012    25      6       0.4706539       100.5461
2012    25      7       0.1854501       47.97727
2012    26      0       0.1440634       38.69756
2012    26      1       0.1387429       37.26402
2012    26      2       0.1369006       36.76674
2012    26      3       0.1703127       43.86119
2012    26      4       0.2011708       50.45574
2012    26      5       0.2367262       57.8385
2012    26      6       0.2525338       61.07657
2012    26      7       0.3523747       79.39377
2012    27      0       0.4076099       88.91181
2012    27      1       0.3903429       86.09915
2012    27      2       0.4347864       93.77511
2012    27      3       0.4971506       103.3708
2012    27      4       0.4052766       88.35821
2012    27      5       0.3373163       76.21079
2012    27      6       0.1858664       47.23554
2012    27      7       0.09279963      26.89729
2012    28      0       0.04844159      16.4729
2012    28      1       0.03426702      13.05644
2012    28      2       0.03249149      12.63165
2012    28      3       0.04039314      14.71435
2012    28      4       0.04802264      16.70265
2012    28      5       0.04826533      16.79538
2012    28      6       0.0471369       16.47833
2012    28      7       0.04268243      15.40436
2012    29      0       0.04076607      14.91225
2012    29      1       0.0399221       14.65034
2012    29      2       0.03710651      13.86268
2012    29      3       0.03494955      13.29178
2012    29      4       0.03266683      12.71941
2012    29      5       0.03119807      12.33693
2012    29      6       0.03360127      12.9901
2012    29      7       0.03697788      13.86954
2012    30      0       0.04150958      15.0139
2012    30      1       0.04695391      16.38171
2012    30      2       0.04746192      16.53933
2012    30      3       0.04642226      16.29045
2012    30      4       0.04638364      16.2693
2012    30      5       0.04998004      17.17026
2012    30      6       0.05346177      18.01236
2012    30      7       0.05500548      18.41048
2012    31      0       0.06116896      20.02527
2012    31      1       0.06772287      21.64935
2012    31      2       0.07405218      23.14691
2012    31      3       0.0790584       24.21747
2012    31      4       0.09006053      26.7819
2012    31      5       0.1099331       31.40572
2012    31      6       0.1287907       35.49948
2012    31      7       0.1522101       40.49938
2013    1       0       0.6235621       125.0168
2013    1       1       0.6324548       126.3025
2013    1       2       0.4468466       98.58393
2013    1       3       0.6551403       129.5674
2013    1       4       0.3306486       76.21243
2013    1       5       0.1178329       33.24097
2013    1       6       0.07783669      24.08466
2013    1       7       0.07793178      24.13613
2013    2       0       0.07543108      23.3622
2013    2       1       0.06313572      20.24675
2013    2       2       0.05973134      19.3641
2013    2       3       0.09319102      27.48162
2013    2       4       0.1856247       47.78866
2013    2       5       0.1706261       44.35921
2013    2       6       0.162098        42.48173
2013    2       7       0.1453239       38.99182
2013    3       0       0.1287151       35.59839
2013    3       1       0.1290172       35.78483
2013    3       2       0.1164284       33.19874
2013    3       3       0.1155271       33.20851
2013    3       4       0.1270836       36.0155
2013    3       5       0.1545747       42.07537
2013    3       6       0.2073128       53.08561
2013    3       7       0.2853262       68.5404
2013    4       0       0.4957306       105.2755
2013    4       1       0.424862        94.09214
2013    4       2       0.3179451       75.4609
2013    4       3       0.355595        82.1065
2013    4       4       0.5133375       107.971
2013    4       5       0.5806945       118.1018
2013    4       6       0.6430583       126.5325
2013    4       7       0.5886117       117.8901
2013    5       0       0.389418        86.41885
2013    5       1       0.0802341       24.41404
2013    5       2       0.05989904      19.38969
2013    5       3       0.06001294      19.42737
2013    5       4       0.0744348       22.85431
2013    5       5       0.0764693       23.19015
2013    5       6       0.07905906      23.78129
2013    5       7       0.1350707       36.6776
2013    6       0       0.2420104       59.37278
2013    6       1       0.3371178       78.2113
2013    6       2       0.6207151       124.1862
2013    6       3       0.730917        139.0085
2013    6       4       0.7913683       146.7715
2013    6       5       0.6826283       134.7227
2013    6       6       0.7105411       137.9945
2013    6       7       0.5850412       119.836
2013    7       0       0.8274703       151.3529
2013    7       1       0.5791756       118.2176
2013    7       2       0.4041634       90.32377
2013    7       3       0.3317032       77.69853
2013    7       4       0.3049395       72.68046
2013    7       5       0.2665881       65.43755
2013    7       6       0.2231616       56.83921
2013    7       7       0.1901532       49.9038
2013    8       0       0.1780553       47.29101
2013    8       1       0.18698         49.28465
2013    8       2       0.194993        51.06346
2013    8       3       0.1967329       51.41548
2013    8       4       0.2200901       56.27244
2013    8       5       0.2359252       59.27115
2013    8       6       0.2576839       63.26283
2013    8       7       0.2457146       61.00477
2013    9       0       0.2079897       53.28079
2013    9       1       0.1492081       40.75618
2013    9       2       0.1590478       43.11352
2013    9       3       0.1955855       51.21372
2013    9       4       0.2064353       53.54616
2013    9       5       0.2067525       53.53223
2013    9       6       0.2069695       53.43379
2013    9       7       0.2592011       63.97157
2013    10      0       0.2773609       67.34958
2013    10      1       0.2420752       60.59113
2013    10      2       0.232863        58.86318
2013    10      3       0.3001078       71.92396
2013    10      4       0.4121342       91.21343
2013    10      5       0.4916314       104.0051
2013    10      6       0.5746285       116.7233
2013    10      7       0.341392        79.5868
2013    11      0       0.2925484       70.25715
2013    11      1       0.3161255       74.50611
2013    11      2       0.1771023       46.65762
2013    11      3       0.132238        36.51231
2013    11      4       0.1553546       41.36765
2013    11      5       0.1478871       39.64955
2013    11      6       0.1783111       45.82713
2013    11      7       0.2131735       53.25286
2013    12      0       0.2134601       53.61042
2013    12      1       0.1886153       48.52317
2013    12      2       0.1298659       35.88537
2013    12      3       0.07070035      22.26465
2013    12      4       0.06094319      19.79476
2013    12      5       0.06057398      19.45158
2013    12      6       0.07541038      22.97219
2013    12      7       0.1193949       32.87049
2013    13      0       0.1925372       48.884
2013    13      1       0.2546256       61.59637
2013    13      2       0.3259767       75.65892
2013    13      3       0.3282581       76.82968
2013    13      4       0.3508426       81.00665
2013    13      5       0.3027572       72.45519
2013    13      6       0.3489785       81.36036
2013    13      7       0.401555        90.96935
2013    14      0       0.4983266       106.3292
2013    14      1       0.6550669       129.3142
2013    14      2       0.594332        121.1507
2013    14      3       0.7032032       135.844
2013    14      4       0.7991789       148.2604
2013    14      5       0.7360677       141.5345
2013    14      6       0.6072945       124.3884
2013    14      7       0.640665        127.7042
2013    15      0       0.811467        149.9195
2013    15      1       0.5764744       119.6775
2013    15      2       0.4391376       98.98892
2013    15      3       0.4818253       106.1854
2013    15      4       0.5590086       117.1942
2013    15      5       0.396311        90.27141
2013    15      6       0.5527727       115.2142
2013    15      7       0.6109803       122.0545
2013    16      0       0.5460636       111.8305
2013    16      1       0.490536        103.0025
2013    16      2       0.3219509       74.22071
2013    16      3       0.3387          78.16238
2013    16      4       0.1679053       44.23516
2013    16      5       0.11027         31.36177
2013    16      6       0.1023829       29.44725
2013    16      7       0.1006047       28.89834
2013    17      0       0.0989339       28.41653
2013    17      1       0.08405215      24.86659
2013    17      2       0.0824353       24.43092
2013    17      3       0.09935377      28.35738
2013    17      4       0.1099399       30.76991
2013    17      5       0.1211395       33.30177
2013    17      6       0.1246641       33.94984
2013    17      7       0.1208637       33.01781
2013    18      0       0.1146471       31.63378
2013    18      1       0.1166038       31.97886
2013    18      2       0.1216114       33.00558
2013    18      3       0.142729        37.58416
2013    18      4       0.134586        35.89419
2013    18      5       0.106048        29.8826
2013    18      6       0.09621332      27.77753
2013    18      7       0.1015732       28.94192
2013    19      0       0.1045018       29.69075
2013    19      1       0.1037927       29.54787
2013    19      2       0.1120171       31.48968
2013    19      3       0.1154043       32.31749
2013    19      4       0.1170688       32.75307
2013    19      5       0.1090294       31.13933
2013    19      6       0.1043535       30.15188
2013    19      7       0.09651392      28.32356
2013    20      0       0.06915353      21.83872
2013    20      1       0.0692588       21.71993
2013    20      2       0.08233811      24.80583
2013    20      3       0.1020322       29.24799
2013    20      4       0.1102576       31.05145
2013    20      5       0.1590843       41.47849
2013    20      6       0.238299        57.52036
2013    20      7       0.293755        68.2879
2013    21      0       0.2895653       67.68507
2013    21      1       0.2440265       59.18743
2013    21      2       0.1698648       44.0842
2013    21      3       0.1519162       40.16261
2013    21      4       0.1457945       38.61626
2013    21      5       0.147829        38.92024
2013    21      6       0.1289508       34.81312
2013    21      7       0.1047462       29.50307
2013    22      0       0.07732522      23.28158
2013    22      1       0.05611346      18.27422
2013    22      2       0.04609635      15.83607
2013    22      3       0.0466701       15.9552
2013    22      4       0.05408216      17.72909
2013    22      5       0.06896145      21.306
2013    22      6       0.07577841      22.89036
2013    22      7       0.07770932      23.28777
2013    23      0       0.08188441      24.31184
2013    23      1       0.0801893       23.93569
2013    23      2       0.08071257      24.05838
2013    23      3       0.08625759      25.34741
2013    23      4       0.1252495       34.25597
2013    23      5       0.1560124       40.84708
2013    23      6       0.1875978       47.19173
2013    23      7       0.1844886       46.49727
2013    24      0       0.176722        44.96682
2013    24      1       0.1767696       45.05007
2013    24      2       0.1408194       37.55314
2013    24      3       0.1598774       41.79648
2013    24      4       0.1390436       37.36896
2013    24      5       0.1266264       34.64839
2013    24      6       0.1086995       30.63013
2013    24      7       0.1127612       31.50572
2013    25      0       0.1280692       34.89766
2013    25      1       0.1356368       36.59487
2013    25      2       0.1466359       39.05208
2013    25      3       0.1782745       45.81657
2013    25      4       0.204423        51.32623
2013    25      5       0.2439089       59.20208
2013    25      6       0.2694474       64.26573
2013    25      7       0.2067618       51.81986
2013    26      0       0.1667641       43.47131
2013    26      1       0.1793058       45.98884
2013    26      2       0.242661        58.54176
2013    26      3       0.2800064       65.81877
2013    26      4       0.2777741       65.30655
2013    26      5       0.2483539       59.78861
2013    26      6       0.2064719       51.6368
2013    26      7       0.19952         50.12513
2013    27      0       0.2054391       51.23168
2013    27      1       0.1980151       49.75515
2013    27      2       0.1828285       46.69645
2013    27      3       0.350648        78.35633
2013    27      4       0.2969561       68.36065
2013    27      5       0.2484606       59.19322
2013    27      6       0.265803        62.6757
2013    27      7       0.2815309       65.51329
2013    28      0       0.2617095       61.73405
2013    28      1       0.2345188       56.47569
2013    28      2       0.204813        50.56782
2013    28      3       0.2205025       53.70962
2013    28      4       0.1881489       47.3777
2013    28      5       0.1569865       40.88663
2013    28      6       0.1776714       44.97187
2013    28      7       0.1598807       41.36614
2013    29      0       0.1481249       38.99793
2013    29      1       0.1382243       37.02311
2013    29      2       0.1470111       39.00568
2013    29      3       0.1518067       40.09266
2013    29      4       0.1682308       43.58355
2013    29      5       0.1757647       45.17165
2013    29      6       0.1723784       44.49916
2013    29      7       0.1593975       41.83009
2013    30      0       0.1381315       37.18667
2013    30      1       0.1217086       33.58783
2013    30      2       0.1187275       33.00189
2013    30      3       0.1292009       35.31554
2013    30      4       0.1383253       37.25701
2013    30      5       0.1349572       36.50116
2013    30      6       0.1286207       35.2178
2013    30      7       0.1212521       33.77498
2013    31      0       0.1149077       32.38955
2013    31      1       0.1102118       31.3334
2013    31      2       0.1077883       30.64649
2013    31      3       0.1036545       29.69876
2013    31      4       0.1026811       29.46859
2013    31      5       0.1027317       29.48443
2013    31      6       0.09938867      28.72719
2013    31      7       0.09004807      26.60378
2014    1       0       0.4797365       101.4778
2014    1       1       0.3493462       80.02868
2014    1       2       0.2286014       57.17357
2014    1       3       0.2716675       66.22622
2014    1       4       0.1129202       32.34905
2014    1       5       0.09565201      28.09711
2014    1       6       0.08601531      25.92328
2014    1       7       0.06982198      21.96057
2014    2       0       0.09415936      27.8664
2014    2       1       0.2249937       56.6319
2014    2       2       0.2449637       60.89837
2014    2       3       0.2363687       59.60955
2014    2       4       0.2936614       70.74336
2014    2       5       0.2786797       67.40738
2014    2       6       0.3498177       79.97517
2014    2       7       0.4531893       97.72937
2014    3       0       0.5364253       110.9045
2014    3       1       0.4530826       97.51363
2014    3       2       0.2289311       56.9033
2014    3       3       0.2117179       53.03222
2014    3       4       0.1883234       47.93999
2014    3       5       0.2059838       51.23783
2014    3       6       0.2498883       60.03235
2014    3       7       0.3398684       76.76706
2014    4       0       0.3165526       72.40726
2014    4       1       0.2435443       58.87907
2014    4       2       0.1295379       35.50465
2014    4       3       0.1148887       32.13157
2014    4       4       0.09086516      26.56877
2014    4       5       0.09728957      27.98438
2014    4       6       0.1037867       29.40017
2014    4       7       0.1160225       32.17897
2014    5       0       0.1127179       31.55663
2014    5       1       0.08737009      25.89577
2014    5       2       0.07314499      22.5864
2014    5       3       0.08928992      26.39129
2014    5       4       0.1204166       33.63753
2014    5       5       0.1098149       31.42732
2014    5       6       0.108198        31.23665
2014    5       7       0.09817614      28.95675
2014    6       0       0.09050195      27.03736
2014    6       1       0.127955        35.64708
2014    6       2       0.2172402       54.45445
2014    6       3       0.2981877       69.72099
2014    6       4       0.274508        64.87063
2014    6       5       0.3789417       84.3635
2014    6       6       0.3178787       73.2103
2014    6       7       0.2234136       55.03195
2014    7       0       0.07111971      22.01467
2014    7       1       0.03640784      13.51377
2014    7       2       0.03224406      12.40626
2014    7       3       0.03186366      12.29558
2014    7       4       0.03009476      11.84919
2014    7       5       0.02991259      11.80556
2014    7       6       0.03253959      12.47434
2014    7       7       0.03838074      13.91843
2014    8       0       0.04635594      15.88277
2014    8       1       0.05678383      18.42539
2014    8       2       0.07146388      22.0052
2014    8       3       0.08817675      26.01109
2014    8       4       0.09354834      27.37617
2014    8       5       0.08839823      26.29143
2014    8       6       0.07810246      23.88025
2014    8       7       0.07255728      22.52108
2014    9       0       0.07517021      23.13013
2014    9       1       0.07246749      22.47806
2014    9       2       0.0716649       22.25049
2014    9       3       0.0734284       22.72161
2014    9       4       0.07575688      23.36324
2014    9       5       0.06702573      21.37349
2014    9       6       0.05751818      19.04202
2014    9       7       0.05317247      17.91662
2014    10      0       0.04847118      16.65831
2014    10      1       0.04448489      15.56407
2014    10      2       0.04476527      15.61599
2014    10      3       0.05217608      17.49549
2014    10      4       0.05982989      19.35327
2014    10      5       0.05761688      18.6713
2014    10      6       0.0588562       18.90442
2014    10      7       0.06431566      20.30213
2014    11      0       0.06364848      20.16284
2014    11      1       0.05810953      18.77212
2014    11      2       0.05358294      17.72179
2014    11      3       0.05086361      17.08858
2014    11      4       0.04790942      16.35598
2014    11      5       0.04605186      15.94339
2014    11      6       0.04745149      16.31513
2014    11      7       0.0522217       17.49093
2014    12      0       0.05951609      19.28802
2014    12      1       0.0608812       19.65877
2014    12      2       0.06321721      20.25191
2014    12      3       0.06668692      21.05566
2014    12      4       0.06906207      21.55854
2014    12      5       0.07429772      22.749
2014    12      6       0.08162128      24.43728
2014    12      7       0.08743344      25.83578
2014    13      0       0.10072         28.98431
2014    13      1       0.1457178       39.39138
2014    13      2       0.13084         36.27748
2014    13      3       0.1189871       33.70497
2014    13      4       0.1123533       32.28321
2014    13      5       0.09656388      28.6446
2014    13      6       0.08108902      24.92625
2014    13      7       0.07109179      22.48743
2014    14      0       0.070471        22.33161
2014    14      1       0.06369641      20.61655
2014    14      2       0.06836743      21.7138
2014    14      3       0.06940268      21.93824
2014    14      4       0.06557181      20.94104
2014    14      5       0.07019369      21.84245
2014    14      6       0.08531787      25.38751
2014    14      7       0.0859887       25.70892
2014    15      0       0.07916875      24.25144
2014    15      1       0.07010601      22.14933
2014    15      2       0.07143946      22.29581
2014    15      3       0.07730468      23.59483
2014    15      4       0.08126856      24.52386
2014    15      5       0.08272696      24.90721
2014    15      6       0.09740819      28.31691
2014    15      7       0.1140447       32.14337
2014    16      0       0.1343518       36.74672
2014    16      1       0.1532519       41.02058
2014    16      2       0.1487047       40.27999
2014    16      3       0.1499383       40.49757
2014    16      4       0.1523412       40.94702
2014    16      5       0.1658579       43.98284
2014    16      6       0.1885862       48.95871
2014    16      7       0.2024068       51.83324
2014    17      0       0.2159307       54.247
2014    17      1       0.217869        54.52742
2014    17      2       0.199429        50.93432
2014    17      3       0.204878        52.00047
2014    17      4       0.2354314       57.9712
2014    17      5       0.3116894       72.73468
2014    17      6       0.4261255       93.54653
2014    17      7       0.3341024       77.32563
2014    18      0       0.2732967       66.43758
2014    18      1       0.2454149       60.13327
2014    18      2       0.3209982       74.32314
2014    18      3       0.3679552       82.74872
2014    18      4       0.3263236       75.88818
2014    18      5       0.3635038       82.79158
2014    18      6       0.477868        101.1922
2014    18      7       0.4364877       95.06614
2014    19      0       0.3519366       80.79158
2014    19      1       0.3133909       73.24503
2014    19      2       0.2941918       69.4551
2014    19      3       0.2878352       68.49188
2014    19      4       0.1923249       49.85448
2014    19      5       0.1492672       40.52571
2014    19      6       0.1432845       38.94458
2014    19      7       0.246385        60.07038
2014    20      0       0.292263        69.02897
2014    20      1       0.2754142       65.99695
2014    20      2       0.2577168       62.69463
2014    20      3       0.2921818       69.25007
2014    20      4       0.3742789       84.05634
2014    20      5       0.382377        85.56296
2014    20      6       0.4788537       101.3964
2014    20      7       0.4917315       103.4727
2014    21      0       0.5034733       105.5933
2014    21      1       0.4897679       103.5279
2014    21      2       0.3482688       79.83701
2014    21      3       0.3516269       80.41985
2014    21      4       0.3329163       77.18746
2014    21      5       0.3363451       78.0953
2014    21      6       0.4259215       93.38283
2014    21      7       0.4910194       103.7816
2014    22      0       0.4992579       105.0618
2014    22      1       0.4423581       95.97995
2014    22      2       0.4098306       90.71767
2014    22      3       0.4403148       96.03308
2014    22      4       0.4506179       97.50088
2014    22      5       0.4366067       95.16893
2014    22      6       0.3632017       82.78003
2014    22      7       0.3669704       83.49098
2014    23      0       0.3282998       76.65718
2014    23      1       0.2989014       71.2618
2014    23      2       0.2756735       66.94236
2014    23      3       0.2980651       71.4723
2014    23      4       0.2419715       60.68266
2014    23      5       0.1796574       47.34756
2014    23      6       0.1452762       39.50563
2014    23      7       0.1513879       40.78733
2014    24      0       0.1671369       44.39336
2014    24      1       0.1967196       50.77907
2014    24      2       0.255732        62.53739
2014    24      3       0.3563379       80.87873
2014    24      4       0.4415279       95.13825
2014    24      5       0.3540933       80.78981
2014    24      6       0.2524288       61.83607
2014    24      7       0.1985379       50.77276
2014    25      0       0.2050805       51.9902
2014    25      1       0.2644813       63.46655
2014    25      2       0.310698        72.36493
2014    25      3       0.2543344       62.25216
2014    25      4       0.2556027       61.63181
2014    25      5       0.1942704       50.0547
2014    25      6       0.08993772      26.30284
2014    25      7       0.09197475      26.55637
2014    26      0       0.1093804       30.61333
2014    26      1       0.1308053       35.38865
2014    26      2       0.1353884       36.52017
2014    26      3       0.1225794       34.1487
2014    26      4       0.110227        31.52296
2014    26      5       0.07526034      23.38758
2014    26      6       0.07323052      22.96354
2014    26      7       0.0762808       23.74348
2014    27      0       0.07572423      23.63771
2014    27      1       0.07115217      22.53606
2014    27      2       0.06346889      20.68589
2014    27      3       0.05874904      19.55092
2014    27      4       0.0584788       19.4926
2014    27      5       0.05981439      19.82406
2014    27      6       0.05932758      19.70541
2014    27      7       0.06029621      19.89027
2014    28      0       0.06751996      21.58797
2014    28      1       0.0738645       23.01401
2014    28      2       0.07712811      23.71873
2014    28      3       0.08313006      25.14445
2014    28      4       0.1033097       29.80409
2014    28      5       0.1344751       36.93397
2014    28      6       0.1459988       39.5973
2014    28      7       0.1636918       43.38409
2014    29      0       0.1734723       45.64804
2014    29      1       0.1827204       47.60208
2014    29      2       0.2189599       54.88107
2014    29      3       0.2237419       55.89882
2014    29      4       0.2651108       64.23919
2014    29      5       0.2589472       63.0251
2014    29      6       0.2866115       68.21472
2014    29      7       0.3764531       84.49532
2014    30      0       0.364996        82.66951
2014    30      1       0.3317454       76.75756
2014    30      2       0.2980729       70.59867
2014    30      3       0.289602        69.04633
2014    30      4       0.2440236       60.35253
2014    30      5       0.2153919       54.63344
2014    30      6       0.1897157       49.32159
2014    30      7       0.1706434       45.3118
2014    31      0       0.1460662       39.98659
2014    31      1       0.1185529       33.76512
2014    31      2       0.102764        30.11517
2014    31      3       0.1037004       30.34169
2014    31      4       0.09994455      29.43531
2014    31      5       0.09312553      27.71976
2014    31      6       0.10186         29.75024
2014    31      7       0.09304589      27.49966
2015    1       0       0.23839         59.44642
2015    1       1       0.2274326       57.42733
2015    1       2       0.2010889       51.99881
2015    1       3       0.198493        51.58372
2015    1       4       0.2159983       55.33455
2015    1       5       0.2210024       56.35758
2015    1       6       0.2006399       52.10423
2015    1       7       0.203613        52.80866
2015    2       0       0.2302386       58.14454
2015    2       1       0.2762548       66.91194
2015    2       2       0.3019019       71.82861
2015    2       3       0.3339987       77.97962
2015    2       4       0.5039889       107.0528
2015    2       5       0.6311029       126.2511
2015    2       6       0.5784351       119.2134
2015    2       7       0.811051        149.7465
2015    3       0       0.7818245       146.1061
2015    3       1       0.5905506       121.1973
2015    3       2       0.6263555       125.4302
2015    3       3       0.6142726       123.6644
2015    3       4       0.7251297       139.1515
2015    3       5       0.6237209       126.0139
2015    3       6       0.6727689       131.995
2015    3       7       0.7530718       142.008
2015    4       0       0.5094617       109.9015
2015    4       1       0.4818856       106.2657
2015    4       2       0.4062588       93.75302
2015    4       3       0.3749174       87.62729
2015    4       4       0.4215026       95.59915
2015    4       5       0.5664502       118.8817
2015    4       6       0.4081731       93.81323
2015    4       7       0.3649495       85.71362
2015    5       0       0.3714316       86.58507
2015    5       1       0.5181096       110.0911
2015    5       2       0.5071665       109.2276
2015    5       3       0.4688976       103.012
2015    5       4       0.402987        91.05247
2015    5       5       0.2778216       67.92548
2015    5       6       0.2157231       55.01686
2015    5       7       0.1622037       43.37023
2015    6       0       0.1312933       36.36954
2015    6       1       0.1208296       34.02321
2015    6       2       0.1108439       31.71879
2015    6       3       0.1057861       30.61381
2015    6       4       0.1142628       32.58586
2015    6       5       0.1224023       34.41329
2015    6       6       0.1257054       35.09728
2015    6       7       0.1257468       35.10961
2015    7       0       0.1313363       36.27982
2015    7       1       0.1569747       41.99453
2015    7       2       0.1904306       49.52664
2015    7       3       0.2603143       63.6713
2015    7       4       0.29763         70.76448
2015    7       5       0.3164025       74.13565
2015    7       6       0.3828045       86.23463
2015    7       7       0.4367743       96.32622
2015    8       0       0.3554042       82.6509
2015    8       1       0.2912351       70.96554
2015    8       2       0.2947529       71.62883
2015    8       3       0.3444302       80.77617
2015    8       4       0.4731794       102.5289
2015    8       5       0.555614        115.1443
2015    8       6       0.5435418       113.7436
2015    8       7       0.4121652       92.24758
2015    9       0       0.3683053       84.2274
2015    9       1       0.3266369       76.37749
2015    9       2       0.2490991       61.19718
2015    9       3       0.1471095       39.3735
2015    9       4       0.3263726       74.4264
2015    9       5       0.3638979       80.77868
2015    9       6       0.2688644       63.07653
2015    9       7       0.2577517       61.35064
2015    10      0       0.1938298       48.5576
2015    10      1       0.1551186       40.49613
2015    10      2       0.1793596       45.68472
2015    10      3       0.1817874       46.25159
2015    10      4       0.1796873       45.79482
2015    10      5       0.1423296       37.83055
2015    10      6       0.1075171       30.1877
2015    10      7       0.06603394      20.69524
2015    11      0       0.04463488      15.5055
2015    11      1       0.05062075      16.94525
2015    11      2       0.04405423      15.37552
2015    11      3       0.04516459      15.63122
2015    11      4       0.0514015       17.1005
2015    11      5       0.05746453      18.57287
2015    11      6       0.07261926      22.13916
2015    11      7       0.09106261      26.46664
2015    12      0       0.1041782       29.64819
2015    12      1       0.1213089       33.73298
2015    12      2       0.1213771       34.02676
2015    12      3       0.1131042       32.25416
2015    12      4       0.1060213       30.6898
2015    12      5       0.09577261      28.35842
2015    12      6       0.07659085      23.75064
2015    12      7       0.06143242      19.98065
2015    13      0       0.05732994      18.92684
2015    13      1       0.05347962      17.99881
2015    13      2       0.05040512      17.27927
2015    13      3       0.05051993      17.32342
2015    13      4       0.0457475       16.12291
2015    13      5       0.04071319      14.84047
2015    13      6       0.04202559      15.19071
2015    13      7       0.04385143      15.65396
2015    14      0       0.04581627      16.14375
2015    14      1       0.04724642      16.50846
2015    14      2       0.04548393      16.07477
2015    14      3       0.0446154       15.85273
2015    14      4       0.04506931      15.96509
2015    14      5       0.04491686      15.91744
2015    14      6       0.04524044      15.98246
2015    14      7       0.04933854      16.97817
2015    15      0       0.05287092      17.7687
2015    15      1       0.05576872      18.38372
2015    15      2       0.05496218      18.21997
2015    15      3       0.05540988      18.39993
2015    15      4       0.05409493      18.08109
2015    15      5       0.054545        18.14678
2015    15      6       0.05666316      18.64538
2015    15      7       0.08520934      25.25577
2015    16      0       0.1435003       38.24553
2015    16      1       0.1674827       43.39819
2015    16      2       0.1864128       47.52438
2015    16      3       0.2521859       61.13413
2015    16      4       0.3517608       79.70533
2015    16      5       0.4190564       91.23341
2015    16      6       0.3759851       84.07292
2015    16      7       0.3016354       70.73869
2015    17      0       0.267004        64.34323
2015    17      1       0.2030491       51.6277
2015    17      2       0.1788974       46.45532
2015    17      3       0.2029723       51.37522
2015    17      4       0.2488641       60.63568
2015    17      5       0.2288076       56.61979
2015    17      6       0.2161548       53.89266
2015    17      7       0.2506027       60.69902
2015    18      0       0.2376725       58.03592
2015    18      1       0.2153823       53.80339
2015    18      2       0.2174836       54.22515
2015    18      3       0.2305683       56.76675
2015    18      4       0.3000943       70.02933
2015    18      5       0.2988985       69.83761
2015    18      6       0.25324         61.00567
2015    18      7       0.2173813       53.95772
2015    19      0       0.2184194       54.2345
2015    19      1       0.2063339       51.60937
2015    19      2       0.2623588       62.55435
2015    19      3       0.4135127       89.81475
2015    19      4       0.398339        87.37113
2015    19      5       0.3881535       85.28674
2015    19      6       0.2983867       69.38296
2015    19      7       0.1700875       43.81255
2015    20      0       0.1654998       42.98254
2015    20      1       0.2177036       53.97909
2015    20      2       0.1730585       44.69103
2015    20      3       0.2359229       57.56643
2015    20      4       0.2496345       60.14653
2015    20      5       0.2284698       56.27043
2015    20      6       0.2260584       55.96438
2015    20      7       0.2159485       53.75974
2015    21      0       0.1953491       49.18706
2015    21      1       0.1276357       35.12448
2015    21      2       0.1055269       30.26418
2015    21      3       0.113636        31.95491
2015    21      4       0.1550476       41.07117
2015    21      5       0.2037461       51.20409
2015    21      6       0.3397197       77.05535
2015    21      7       0.2055777       51.51469
2015    22      0       0.1685954       43.45818
2015    22      1       0.2692245       63.48805
2015    22      2       0.225395        55.43183
2015    22      3       0.300222        69.97834
2015    22      4       0.2565503       61.44072
2015    22      5       0.3389181       76.2906
2015    22      6       0.279155        65.19242
2015    22      7       0.1871991       47.56475
2015    23      0       0.1481779       39.5314
2015    23      1       0.1742964       45.16779
2015    23      2       0.1845898       47.42034
2015    23      3       0.191259        48.82235
2015    23      4       0.2363839       58.17475
2015    23      5       0.2384242       58.91508
2015    23      6       0.2021638       51.84777
2015    23      7       0.1789926       47.1291
2015    24      0       0.1813273       47.52797
2015    24      1       0.1599587       42.80597
2015    24      2       0.1542618       41.49601
2015    24      3       0.1392535       38.30432
2015    24      4       0.1272563       35.55738
2015    24      5       0.165347        43.55438
2015    24      6       0.2403535       58.868
2015    24      7       0.4802692       101.2976
2015    25      0       0.5035651       104.9892
2015    25      1       0.4651516       99.04734
2015    25      2       0.4683128       99.70424
2015    25      3       0.4441181       95.92838
2015    25      4       0.3578879       81.52401
2015    25      5       0.286889        68.53347
2015    25      6       0.2332689       58.01547
2015    25      7       0.2117699       53.63451
2015    26      0       0.234988        58.13212
2015    26      1       0.2576077       62.40245
2015    26      2       0.2563246       62.18772
2015    26      3       0.3656335       82.70656
2015    26      4       0.2746281       65.78867
2015    26      5       0.1401161       38.06217
2015    26      6       0.06664397      21.12111
2015    26      7       0.06385465      20.28855
2015    27      0       0.07182786      22.0553
2015    27      1       0.09854533      28.29586
2015    27      2       0.1183982       32.92955
2015    27      3       0.1181577       32.97213
2015    27      4       0.1165064       32.62526
2015    27      5       0.1078095       30.70298
2015    27      6       0.1056861       30.2271
2015    27      7       0.100901        29.13472
2015    28      0       0.08911137      26.3854
2015    28      1       0.07805024      23.81677
2015    28      2       0.07304065      22.64466
2015    28      3       0.07592269      23.26162
2015    28      4       0.0942953       27.59887
2015    28      5       0.1123319       31.69248
2015    28      6       0.1364437       37.10691
2015    28      7       0.1791602       46.29387
2015    29      0       0.2477881       60.10014
2015    29      1       0.2853672       67.61991
2015    29      2       0.2348132       58.0876
2015    29      3       0.2157449       54.2835
2015    29      4       0.2105455       53.21303
2015    29      5       0.2064173       52.28534
2015    29      6       0.2207864       55.23296
2015    29      7       0.2221762       55.57129
2015    30      0       0.1957699       50.20994
2015    30      1       0.1826719       47.41857
2015    30      2       0.1665143       43.94582
2015    30      3       0.1292003       35.96043
2015    30      4       0.1194697       33.80803
2015    30      5       0.118734        33.56014
2015    30      6       0.1293429       35.82077
2015    30      7       0.1157604       32.71544
2015    31      0       0.1350729       36.78493
2015    31      1       0.170313        44.01413
2015    31      2       0.274847        64.97807
2015    31      3       0.3013723       70.37634
2015    31      4       0.4483842       97.26306
2015    31      5       0.6251597       124.3106
2015    31      6       0.3627049       83.24855
2015    31      7       0.2849654       69.12648
2016    1       0       0.05519809      18.48109
2016    1       1       0.06458693      20.80884
2016    1       2       0.07776575      24.0659
2016    1       3       0.1024878       29.76088
2016    1       4       0.1097407       31.5994
2016    1       5       0.1173795       33.34629
2016    1       6       0.1118204       32.2668
2016    1       7       0.1274153       36.18017
2016    2       0       0.2499383       62.59615
2016    2       1       0.4401617       96.64379
2016    2       2       0.5378422       112.6712
2016    2       3       0.6027846       122.2896
2016    2       4       0.587493        121.6026
2016    2       5       0.617224        126.1861
2016    2       6       0.6242118       127.0212
2016    2       7       0.653174        131.1006
2016    3       0       0.9079277       162.7621
2016    3       1       0.8577139       157.5431
2016    3       2       0.7233755       141.7263
2016    3       3       0.7418445       144.1058
2016    3       4       1.142607        185.6185
2016    3       5       0.7917514       149.7338
2016    3       6       0.3640607       85.74505
2016    3       7       0.5378493       113.8633
2016    4       0       0.3407709       80.79215
2016    4       1       0.3129066       75.45404
2016    4       2       0.287272        70.55086
2016    4       3       0.2501957       63.2064
2016    4       4       0.2079591       54.33623
2016    4       5       0.188187        50.00501
2016    4       6       0.1513826       41.77807
2016    4       7       0.1479956       40.96679
2016    5       0       0.149499        41.13547
2016    5       1       0.1907135       49.97322
2016    5       2       0.2506849       62.93203
2016    5       3       0.2457305       62.29005
2016    5       4       0.3421334       80.80249
2016    5       5       0.3934285       89.79863
2016    5       6       0.3540125       82.67572
2016    5       7       0.3908454       89.34682
2016    6       0       0.4636244       101.8094
2016    6       1       0.4410146       98.25317
2016    6       2       0.5151432       109.4791
2016    6       3       0.5736261       118.1967
2016    6       4       0.8289615       151.9243
2016    6       5       0.6695757       134.1464
2016    6       6       0.5204021       112.1656
2016    6       7       0.589063        121.3233
2016    7       0       0.5607793       116.4828
2016    7       1       0.5304534       112.0329
2016    7       2       0.531049        112.9098
2016    7       3       0.6408819       127.7529
2016    7       4       0.6084157       122.7511
2016    7       5       0.4615861       99.93004
2016    7       6       0.3856702       86.41778
2016    7       7       0.3426655       78.43017
2016    8       0       0.2179329       54.40457
2016    8       1       0.1013967       29.9192
2016    8       2       0.1315464       37.17267
2016    8       3       0.3250063       77.36205
2016    8       4       0.3147552       75.20753
2016    8       5       0.1810064       47.74799
2016    8       6       0.1456838       39.57209
2016    8       7       0.1310545       35.80347
2016    9       0       0.2004322       50.11725
2016    9       1       0.2327708       56.84457
2016    9       2       0.2339176       57.59212
2016    9       3       0.3193049       74.14405
2016    9       4       0.4633683       98.21556
2016    9       5       0.4485755       95.98038
2016    9       6       0.5160394       106.9592
2016    9       7       0.3972407       88.2744
2016    10      0       0.315188        73.63818
2016    10      1       0.3632623       82.18155
2016    10      2       0.2589468       62.67519
2016    10      3       0.2615705       63.54995
2016    10      4       0.2755927       65.97033
2016    10      5       0.2838336       67.16503
2016    10      6       0.3241484       74.48778
2016    10      7       0.2217659       55.17139
2016    11      0       0.179548        46.52883
2016    11      1       0.156516        41.644
2016    11      2       0.1475365       39.77789
2016    11      3       0.1665974       43.96786
2016    11      4       0.2087141       52.74212
2016    11      5       0.2688568       64.229
2016    11      6       0.2127547       53.45842
2016    11      7       0.1802083       46.80304
2016    12      0       0.2235937       55.68544
2016    12      1       0.3063092       71.43158
2016    12      2       0.3558186       80.56681
2016    12      3       0.4278579       92.78485
2016    12      4       0.4535086       96.86981
2016    12      5       0.260648        62.90307
2016    12      6       0.2082712       52.74121
2016    12      7       0.1612482       43.05744
2016    13      0       0.1331745       36.88226
2016    13      1       0.1088769       31.29706
2016    13      2       0.105826        30.69686
2016    13      3       0.1088837       31.58135
2016    13      4       0.1004548       29.64345
2016    13      5       0.08669835      26.23702
2016    13      6       0.09516042      27.86965
2016    13      7       0.1134655       32.19243
2016    14      0       0.1665834       43.97415
2016    14      1       0.2434368       60.10244
2016    14      2       0.2842904       67.79611
2016    14      3       0.2946967       69.54876
2016    14      4       0.3111932       72.73807
2016    14      5       0.2647218       64.38348
2016    14      6       0.2210929       55.87421
2016    14      7       0.1976201       51.1765
2016    15      0       0.1795213       47.38396
2016    15      1       0.1775077       46.91713
2016    15      2       0.179156        47.27575
2016    15      3       0.1711986       45.72744
2016    15      4       0.1832486       48.40425
2016    15      5       0.1791011       47.51412
2016    15      6       0.1540586       42.14985
2016    15      7       0.2047793       53.09917
2016    16      0       0.2781483       67.94915
2016    16      1       0.3190685       75.60898
2016    16      2       0.2884613       69.68903
2016    16      3       0.3151041       74.41192
2016    16      4       0.5047509       106.1813
2016    16      5       0.2221466       55.92688
2016    16      6       0.1877847       48.82854
2016    16      7       0.1741685       45.91918
2016    17      0       0.156919        42.0922
2016    17      1       0.1735561       45.54106
2016    17      2       0.2246436       56.10805
2016    17      3       0.2704404       65.12156
2016    17      4       0.3249889       75.18531
2016    17      5       0.3133204       72.80641
2016    17      6       0.2987936       69.84233
2016    17      7       0.3053284       70.77309
2016    18      0       0.3158395       72.58745
2016    18      1       0.312062        72.09747
2016    18      2       0.3072129       71.3031
2016    18      3       0.3268782       74.94512
2016    18      4       0.3468461       78.51767
2016    18      5       0.3757335       83.5629
2016    18      6       0.4057384       88.4253
2016    18      7       0.3735656       82.63455
2016    19      0       0.3208913       73.23229
2016    19      1       0.1784082       45.63444
2016    19      2       0.1335931       36.23935
2016    19      3       0.1718488       44.72912
2016    19      4       0.1323172       36.14069
2016    19      5       0.1157479       32.47683
2016    19      6       0.09292541      27.30544
2016    19      7       0.07724139      23.69759
2016    20      0       0.08029775      24.35148
2016    20      1       0.09460915      27.6546
2016    20      2       0.1062867       30.52056
2016    20      3       0.1213607       34.18026
2016    20      4       0.1457957       39.77796
2016    20      5       0.1625856       43.55676
2016    20      6       0.1728175       45.88505
2016    20      7       0.1974075       50.8591
2016    21      0       0.22398         56.19198
2016    21      1       0.2431895       60.15209
2016    21      2       0.2573035       62.82495
2016    21      3       0.2965309       70.06519
2016    21      4       0.3936848       87.04491
2016    21      5       0.5219181       108.1712
2016    21      6       0.4754409       101.5142
2016    21      7       0.441829        95.81184
2016    22      0       0.4073473       90.10185
2016    22      1       0.3094315       72.76077
2016    22      2       0.2505571       61.30686
2016    22      3       0.2364166       58.37337
2016    22      4       0.2432569       59.65075
2016    22      5       0.1759482       46.01391
2016    22      6       0.1555133       41.63358
2016    22      7       0.1297079       35.86716
2016    23      0       0.1069912       30.58751
2016    23      1       0.1034456       29.58931
2016    23      2       0.1137562       31.8452
2016    23      3       0.1373814       37.17344
2016    23      4       0.1734893       44.94403
2016    23      5       0.1190087       33.1755
2016    23      6       0.08901974      26.31686
2016    23      7       0.07220423      22.30239
2016    24      0       0.05472164      18.04072
2016    24      1       0.05743829      18.64454
2016    24      2       0.06825905      21.24185
2016    24      3       0.07599791      23.13232
2016    24      4       0.07793217      23.67329
2016    24      5       0.08620916      25.74302
2016    24      6       0.08702276      26.04106
2016    24      7       0.08458257      25.51078
2016    25      0       0.08627303      25.97899
2016    25      1       0.08701695      26.2053
2016    25      2       0.09222766      27.73028
2016    25      3       0.09189984      27.05696
2016    25      4       0.1246169       34.31223
2016    25      5       0.2542004       61.36012
2016    25      6       0.1662714       43.83945
2016    25      7       0.2627581       63.43359
2016    26      0       0.4562596       98.61374
2016    26      1       0.608356        123.2149
2016    26      2       0.553494        115.7525
2016    26      3       0.6084632       124.0091
2016    26      4       0.6156967       125.4733
2016    26      5       0.6664197       131.7482
2016    26      6       0.8327684       152.5535
2016    26      7       0.8220613       151.9156
2016    27      0       0.6824167       133.1176
2016    27      1       0.391564        88.52261
2016    27      2       0.1102517       31.93393
2016    27      3       0.1002689       29.47736
2016    27      4       0.1160781       33.09784
2016    27      5       0.1273668       35.6009
2016    27      6       0.1059487       30.67146
2016    27      7       0.08860611      26.57018
2016    28      0       0.07508039      23.2987
2016    28      1       0.07427218      23.04444
2016    28      2       0.1006074       29.45165
2016    28      3       0.2333703       58.5348
2016    28      4       0.4959326       105.6326
2016    28      5       0.7715844       144.9018
2016    28      6       0.7125858       138.1947
2016    28      7       0.6669003       131.4381
2016    29      0       0.3639433       85.04138
2016    29      1       0.3327897       78.38775
2016    29      2       0.09102709      27.42792
2016    29      3       0.05918744      19.57061
2016    29      4       0.06030511      19.8209
2016    29      5       0.08775439      26.46755
2016    29      6       0.08948732      26.85591
2016    29      7       0.06515607      20.89691
2016    30      0       0.04892906      16.70339
2016    30      1       0.04303828      15.20926
2016    30      2       0.04563173      15.877
2016    30      3       0.05573904      18.4199
2016    30      4       0.06715831      21.12963
2016    30      5       0.07422407      22.67737
2016    30      6       0.09428114      27.22401
2016    30      7       0.1075079       30.39359
2016    31      0       0.1085879       30.88969
2016    31      1       0.112586        32.1171
2016    31      2       0.1064892       30.82143
2016    31      3       0.105844        30.76355
2016    31      4       0.1147005       32.89439
2016    31      5       0.1212323       34.45667
2016    31      6       0.1173102       33.46526
2016    31      7       0.1356203       37.64728
2017    1       0       0.4637937       98.94202
2017    1       1       0.4846894       102.1462
2017    1       2       0.496062        104.0197
2017    1       3       0.416453        91.82062
2017    1       4       0.4828495       101.8978
2017    1       5       0.4866919       102.3912
2017    1       6       0.3904187       86.45815
2017    1       7       0.3348908       76.19691
2017    2       0       0.1641359       42.82953
2017    2       1       0.08329751      24.93237
2017    2       2       0.06260821      19.96315
2017    2       3       0.06128949      19.59862
2017    2       4       0.06655704      20.83289
2017    2       5       0.06347551      20.1038
2017    2       6       0.06116956      19.55279
2017    2       7       0.06260817      19.8926
2017    3       0       0.06489263      20.40793
2017    3       1       0.06913816      21.39815
2017    3       2       0.07011008      21.63613
2017    3       3       0.07729776      23.32851
2017    3       4       0.0842212       24.93709
2017    3       5       0.0840818       24.88222
2017    3       6       0.07864349      23.57584
2017    3       7       0.08396157      24.78217
2017    4       0       0.09631376      27.48184
2017    4       1       0.1090054       30.2538
2017    4       2       0.1053984       29.50157
2017    4       3       0.1979151       49.24104
2017    4       4       0.1624078       41.81053
2017    4       5       0.1202852       32.79797
2017    4       6       0.1408396       37.03036
2017    4       7       0.1254071       33.66499
2017    5       0       0.1037683       28.94634
2017    5       1       0.0936185       26.71077
2017    5       2       0.08352818      24.49688
2017    5       3       0.0930293       26.79362
2017    5       4       0.1037778       29.19927
2017    5       5       0.1333395       35.65472
2017    5       6       0.1260259       34.12252
2017    5       7       0.09259273      26.81045
2017    6       0       0.07940446      23.79744
2017    6       1       0.06571426      20.63203
2017    6       2       0.05781832      18.90072
2017    6       3       0.05573197      18.53341
2017    6       4       0.05682956      18.92361
2017    6       5       0.0510443       17.52439
2017    6       6       0.05144063      17.63686
2017    6       7       0.04655196      16.40098
2017    7       0       0.04616801      16.10388
2017    7       1       0.06399967      20.30697
2017    7       2       0.09914986      28.56623
2017    7       3       0.1887401       48.55911
2017    7       4       0.3482473       80.20423
2017    7       5       0.4217779       93.36291
2017    7       6       0.5388061       112.0097
2017    7       7       0.6149677       123.5825
2017    8       0       0.3997637       89.96887
2017    8       1       0.3535652       81.22616
2017    8       2       0.2923377       69.50597
2017    8       3       0.2879922       68.36772
2017    8       4       0.2111662       53.41382
2017    8       5       0.2295408       57.39062
2017    8       6       0.3719884       84.42739
2017    8       7       0.4560788       97.36239
2017    9       0       0.2365205       58.10893
2017    9       1       0.1058348       30.4278
2017    9       2       0.1204744       33.57919
2017    9       3       0.1556089       41.50975
2017    9       4       0.1846054       47.79656
2017    9       5       0.206592        52.32011
2017    9       6       0.249992        60.89692
2017    9       7       0.3029569       71.21772
2017    10      0       0.06102421      19.8817
2017    10      1       0.04971171      17.03806
2017    10      2       0.0723309       22.63473
2017    10      3       0.0973741       28.68885
2017    10      4       0.1100626       31.69941
2017    10      5       0.1029465       29.99133
2017    10      6       0.0916478       27.263
2017    10      7       0.09051374      26.93434
2017    11      0       0.09119709      27.01245
2017    11      1       0.09794655      28.52194
2017    11      2       0.1051731       30.20891
2017    11      3       0.1042844       30.09395
2017    11      4       0.1074707       30.85993
2017    11      5       0.1073247       30.8008
2017    11      6       0.1134727       32.1972
2017    11      7       0.1237598       34.52889
2017    12      0       0.1261506       35.02564
2017    12      1       0.1321986       36.28052
2017    12      2       0.1434277       38.70387
2017    12      3       0.1497245       39.99884
2017    12      4       0.1460075       39.07348
2017    12      5       0.1463921       39.11466
2017    12      6       0.1364075       36.88786
2017    12      7       0.1350955       36.55436
2017    13      0       0.1337215       36.26835
2017    13      1       0.1264747       34.70096
2017    13      2       0.1171931       32.63439
2017    13      3       0.1122562       31.49219
2017    13      4       0.117948        32.76297
2017    13      5       0.1336495       36.36916
2017    13      6       0.1398482       37.71875
2017    13      7       0.1407404       37.87077
2017    14      0       0.1390296       37.50005
2017    14      1       0.1379804       37.26239
2017    14      2       0.1377901       37.18303
2017    14      3       0.1397481       37.61225
2017    14      4       0.1489424       39.61902
2017    14      5       0.1547604       40.97086
2017    14      6       0.1658651       43.40377
2017    14      7       0.1706982       44.4465
2017    15      0       0.1653447       43.31244
2017    15      1       0.150476        40.17101
2017    15      2       0.1349366       36.81168
2017    15      3       0.132676        36.28502
2017    15      4       0.1438871       38.70725
2017    15      5       0.1614047       42.40472
2017    15      6       0.2030652       50.97505
2017    15      7       0.2328977       57.05359
2017    16      0       0.2411567       58.68064
2017    16      1       0.2084373       52.16514
2017    16      2       0.155291        41.2724
2017    16      3       0.1403265       38.20792
2017    16      4       0.1624021       42.97881
2017    16      5       0.1835153       47.45288
2017    16      6       0.2177737       54.49237
2017    16      7       0.2779547       66.40142
2017    17      0       0.2897959       68.75764
2017    17      1       0.2382652       58.78505
2017    17      2       0.2348591       58.13017
2017    17      3       0.2934022       69.46402
2017    17      4       0.4174132       90.97544
2017    17      5       0.4656385       99.09423
2017    17      6       0.2906206       69.05469
2017    17      7       0.2670534       64.61447
2017    18      0       0.2449517       60.35234
2017    18      1       0.2494789       61.2239
2017    18      2       0.2557592       62.72534
2017    18      3       0.2800354       67.61839
2017    18      4       0.313685        74.24903
2017    18      5       0.265664        65.0591
2017    18      6       0.226999        57.29208
2017    18      7       0.2329121       58.65061
2017    19      0       0.2258798       57.24194
2017    19      1       0.2091295       53.71291
2017    19      2       0.2208034       56.22299
2017    19      3       0.2356359       59.40283
2017    19      4       0.2230108       56.85647
2017    19      5       0.1936625       50.66581
2017    19      6       0.1788674       47.30216
2017    19      7       0.1536061       41.70558
2017    20      0       0.1628217       43.58433
2017    20      1       0.1889042       48.86994
2017    20      2       0.2774816       66.33963
2017    20      3       0.4269532       93.28043
2017    20      4       0.5731602       116.767
2017    20      5       0.5494328       113.5036
2017    20      6       0.5599211       115.0023
2017    20      7       0.411027        91.66616
2017    21      0       0.4214591       93.07803
2017    21      1       0.3408141       78.92978
2017    21      2       0.2881464       69.11779
2017    21      3       0.2534159       62.28503
2017    21      4       0.2014301       51.67918
2017    21      5       0.1614718       43.11601
2017    21      6       0.1425334       39.05352
2017    21      7       0.1470416       40.2019
2017    22      0       0.1956077       50.73811
2017    22      1       0.2369935       59.12506
2017    22      2       0.24591         60.85049
2017    22      3       0.2628731       64.19525
2017    22      4       0.326045        76.10688
2017    22      5       0.4969188       104.9097
2017    22      6       0.4557384       99.11516
2017    22      7       0.3709279       85.3645
2017    23      0       0.3254412       77.17733
2017    23      1       0.2430942       61.11818
2017    23      2       0.2028167       52.82164
2017    23      3       0.2078212       53.83965
2017    23      4       0.1917337       50.4517
2017    23      5       0.1611251       43.67393
2017    23      6       0.1965993       51.18827
2017    23      7       0.2855762       68.91183
2017    24      0       0.2734961       67.03915
2017    24      1       0.2086573       54.26776
2017    24      2       0.1894503       50.14652
2017    24      3       0.1772582       47.00007
2017    24      4       0.3525168       80.87271
2017    24      5       0.7651966       144.0408
2017    24      6       0.5540814       115.9281
2017    24      7       0.4521328       100.3582
2017    25      0       0.4352599       97.07134
2017    25      1       0.3302073       77.98846
2017    25      2       0.3719023       85.0801
2017    25      3       0.4473032       97.80255
2017    25      4       0.4728133       102.2996
2017    25      5       0.6218469       124.4408
2017    25      6       0.6100267       122.1823
2017    25      7       0.4922158       104.5744
2017    26      0       0.5515931       113.0244
2017    26      1       0.5877405       118.4928
2017    26      2       0.5579804       114.648
2017    26      3       0.6822178       131.9042
2017    26      4       0.6684423       130.1049
2017    26      5       0.3397076       78.94338
2017    26      6       0.3212634       75.23429
2017    26      7       0.07406801      22.8066
2017    27      0       0.041478        14.73802
2017    27      1       0.04582136      15.80537
2017    27      2       0.05970403      19.13532
2017    27      3       0.09051753      26.35351
2017    27      4       0.110719        30.99131
2017    27      5       0.1299341       35.53067
2017    27      6       0.165456        43.46884
2017    27      7       0.1697398       44.65452
2017    28      0       0.1442913       39.34077
2017    28      1       0.1287583       35.92525
2017    28      2       0.0982805       28.91147
2017    28      3       0.07283293      22.84512
2017    28      4       0.06186583      20.16299
2017    28      5       0.05644729      18.83475
2017    28      6       0.05646474      18.9119
2017    28      7       0.05653821      18.93505
2017    29      0       0.05836504      19.2918
2017    29      1       0.0593177       19.46396
2017    29      2       0.05718889      18.92553
2017    29      3       0.05824058      19.13292
2017    29      4       0.05914537      19.32648
2017    29      5       0.06042756      19.52446
2017    29      6       0.06043681      19.53633
2017    29      7       0.06049703      19.63191
2017    30      0       0.0612248       19.87499
2017    30      1       0.06290499      20.29118
2017    30      2       0.06427369      20.56225
2017    30      3       0.06661239      21.01537
2017    30      4       0.07248519      22.2682
2017    30      5       0.07793039      23.45837
2017    30      6       0.09444482      27.13213
2017    30      7       0.09863411      28.08814
2017    31      0       0.09078976      26.39536
2017    31      1       0.08668431      25.62324
2017    31      2       0.08301379      24.92078
2017    31      3       0.07829485      23.88356
2017    31      4       0.07532528      23.20881
2017    31      5       0.07544647      23.26106
2017    31      6       0.07665404      23.51634
2017    31      7       0.07434019      22.97053
2018    1       0       0.05524931      18.11126
2018    1       1       0.04660759      16.10908
2018    1       2       0.04197247      15.03164
2018    1       3       0.04001548      14.5714
2018    1       4       0.04789385      16.60361
2018    1       5       0.06716492      21.41332
2018    1       6       0.08275345      25.24148
2018    1       7       0.08935494      26.90087
2018    2       0       0.08426317      25.75235
2018    2       1       0.07592281      23.78312
2018    2       2       0.0596669       19.783
2018    2       3       0.04818551      16.83152
2018    2       4       0.05139409      17.64045
2018    2       5       0.04766316      16.73228
2018    2       6       0.04682819      16.49336
2018    2       7       0.04617559      16.30447
2018    3       0       0.04526588      16.02342
2018    3       1       0.04355529      15.52717
2018    3       2       0.04331902      15.46834
2018    3       3       0.05682957      18.80208
2018    3       4       0.08692899      25.88318
2018    3       5       0.1656664       43.40889
2018    3       6       0.1874736       48.70299
2018    3       7       0.2404177       59.92636
2018    4       0       0.2706598       65.9535
2018    4       1       0.3006632       71.48598
2018    4       2       0.2987618       71.0041
2018    4       3       0.2675345       65.1788
2018    4       4       0.2511375       61.96196
2018    4       5       0.2445092       60.54637
2018    4       6       0.3025139       71.37531
2018    4       7       0.3657222       82.75408
2018    5       0       0.3920771       87.39321
2018    5       1       0.3498098       80.35302
2018    5       2       0.2845719       68.55126
2018    5       3       0.2463163       61.19495
2018    5       4       0.2096535       53.83671
2018    5       5       0.1664417       44.69322
2018    5       6       0.148021        40.71573
2018    5       7       0.1426029       39.56361
2018    6       0       0.1320259       37.03665
2018    6       1       0.1315165       36.73911
2018    6       2       0.1392969       38.29081
2018    6       3       0.1287487       35.95282
2018    6       4       0.1240389       34.80294
2018    6       5       0.1266116       35.03792
2018    6       6       0.1453895       39.13249
2018    6       7       0.185553        47.92294
2018    7       0       0.1842732       47.89854
2018    7       1       0.2060464       52.1178
2018    7       2       0.3457471       79.15518
2018    7       3       0.4077092       91.17818
2018    7       4       0.4769753       103.0519
2018    7       5       0.4530317       99.41239
2018    7       6       0.6201664       124.1964
2018    7       7       0.7193109       137.6731
2018    8       0       0.5848399       120.23
2018    8       1       0.4626674       101.0536
2018    8       2       0.406109        91.37168
2018    8       3       0.4658169       100.3172
2018    8       4       0.5431329       112.361
2018    8       5       0.5486735       113.4813
2018    8       6       0.3685766       84.31555
2018    8       7       0.4236895       93.52108
2018    9       0       0.4393197       96.06994
2018    9       1       0.5179841       108.206
2018    9       2       0.3730098       84.87271
2018    9       3       0.4293863       94.48113
2018    9       4       0.4234737       93.54278
2018    9       5       0.3559055       81.71421
2018    9       6       0.3103496       73.22319
2018    9       7       0.3348703       77.66499
2018    10      0       0.3693682       83.89992
2018    10      1       0.358982        82.12429
2018    10      2       0.3209888       75.11235
2018    10      3       0.3844405       86.4491
2018    10      4       0.3936896       88.02835
2018    10      5       0.3608043       82.3164
2018    10      6       0.3259494       76.06171
2018    10      7       0.2935052       69.98251
2018    11      0       0.2712282       65.69907
2018    11      1       0.2592932       63.35287
2018    11      2       0.2452101       60.66366
2018    11      3       0.3088657       73.50374
2018    11      4       0.2537187       62.8074
2018    11      5       0.2094449       53.75381
2018    11      6       0.174182        46.19967
2018    11      7       0.1631085       43.77646
2018    12      0       0.1546535       41.93475
2018    12      1       0.1391404       38.46611
2018    12      2       0.1313246       36.73155
2018    12      3       0.1473742       40.41435
2018    12      4       0.1506925       41.1665
2018    12      5       0.1521993       41.57885
2018    12      6       0.1562873       42.52995
2018    12      7       0.1554929       42.2651
2018    13      0       0.1463497       40.01031
2018    13      1       0.1407106       38.54078
2018    13      2       0.1434795       39.04627
2018    13      3       0.1754666       46.14719
2018    13      4       0.2172219       55.27146
2018    13      5       0.198676        51.70228
2018    13      6       0.1868169       48.98251
2018    13      7       0.1784452       47.22537
2018    14      0       0.1620274       43.62623
2018    14      1       0.1554601       42.10507
2018    14      2       0.1601273       43.1454
2018    14      3       0.1664475       44.47067
2018    14      4       0.1839641       48.19546
2018    14      5       0.1939413       50.16042
2018    14      6       0.2002947       51.49067
2018    14      7       0.1987432       51.10173
2018    15      0       0.1980177       50.99251
2018    15      1       0.1816171       47.70819
2018    15      2       0.1703037       45.19714
2018    15      3       0.187206        48.62951
2018    15      4       0.2257663       56.68706
2018    15      5       0.2299363       57.64361
2018    15      6       0.2306518       57.74545
2018    15      7       0.2081154       52.9821
2018    16      0       0.167505        44.22596
2018    16      1       0.150284        40.45536
2018    16      2       0.1240671       34.65643
2018    16      3       0.09762758      28.48517
2018    16      4       0.1152139       32.28801
2018    16      5       0.1608316       42.16012
2018    16      6       0.1892847       48.17049
2018    16      7       0.1608227       42.20074
2018    17      0       0.1633546       42.88675
2018    17      1       0.2016436       51.07861
2018    17      2       0.2798729       66.58438
2018    17      3       0.4192139       91.29492
2018    17      4       0.362604        81.90352
2018    17      5       0.357479        81.31342
2018    17      6       0.4939313       103.6588
2018    17      7       0.507346        106.1585
2018    18      0       0.4443891       96.57864
2018    18      1       0.3688015       83.86647
2018    18      2       0.3593268       81.85297
2018    18      3       0.3842997       86.37193
2018    18      4       0.5546776       113.4688
2018    18      5       0.6310663       124.4977
2018    18      6       0.6413997       125.9305
2018    18      7       0.5709296       115.7344
2018    19      0       0.5331964       109.8876
2018    19      1       0.5792799       116.7227
2018    19      2       0.5411287       111.641
2018    19      3       0.5777569       116.5307
2018    19      4       0.4974346       104.4587
2018    19      5       0.5074097       105.8164
2018    19      6       0.477036        100.9319
2018    19      7       0.3603535       81.76021
2018    20      0       0.2174365       54.71367
2018    20      1       0.1300805       36.05897
2018    20      2       0.09367399      27.72313
2018    20      3       0.07427921      23.12312
2018    20      4       0.0574093       19.00576
2018    20      5       0.05547641      18.56929
2018    20      6       0.06973448      22.05629
2018    20      7       0.07734855      23.77795
2018    21      0       0.07744244      23.67139
2018    21      1       0.06831779      21.51434
2018    21      2       0.0702534       21.95631
2018    21      3       0.09670355      27.98716
2018    21      4       0.1538131       40.69126
2018    21      5       0.245133        59.42561
2018    21      6       0.4207913       91.51141
2018    21      7       0.4653781       99.34428
2018    22      0       0.4716152       100.3434
2018    22      1       0.4644439       99.46437
2018    22      2       0.3758657       84.80976
2018    22      3       0.3862142       86.73401
2018    22      4       0.3271735       76.20813
2018    22      5       0.3110098       73.13547
2018    22      6       0.3416617       78.60279
2018    22      7       0.3840518       86.09025
2018    23      0       0.4443526       96.31564
2018    23      1       0.4855925       102.7653
2018    23      2       0.3991184       88.41346
2018    23      3       0.4267185       93.19469
2018    23      4       0.3842264       85.89464
2018    23      5       0.3231874       75.12119
2018    23      6       0.2915681       69.12962
2018    23      7       0.2560886       62.28476
2018    24      0       0.2349557       58.10393
2018    24      1       0.2144085       53.95759
2018    24      2       0.1863394       48.22059
2018    24      3       0.1661808       44.05914
2018    24      4       0.1799017       47.06443
2018    24      5       0.1756232       46.01346
2018    24      6       0.1642499       43.60143
2018    24      7       0.1623841       43.24872
2018    25      0       0.1540355       41.44886
2018    25      1       0.1508131       40.69315
2018    25      2       0.1686441       44.42448
2018    25      3       0.2158465       54.16412
2018    25      4       0.3840832       85.2877
2018    25      5       0.4296074       92.92158
2018    25      6       0.4489312       96.10137
2018    25      7       0.4045744       88.7628
2018    26      0       0.3483772       79.50085
2018    26      1       0.3693856       82.99113
2018    26      2       0.3293526       75.72594
2018    26      3       0.3556854       80.2401
2018    26      4       0.2781356       66.27131
2018    26      5       0.218721        54.79261
2018    26      6       0.1754558       46.02647
2018    26      7       0.1469203       39.94314
2018    27      0       0.1115535       32.11376
2018    27      1       0.08744006      26.40302
2018    27      2       0.07068391      22.22923
2018    27      3       0.06810864      21.39634
2018    27      4       0.08426344      25.00561
2018    27      5       0.1246146       34.10948
2018    27      6       0.1617419       42.56087
2018    27      7       0.1668708       44.15741
2018    28      0       0.1483305       40.36498
2018    28      1       0.1404397       38.64828
2018    28      2       0.1244479       35.00133
2018    28      3       0.1208132       33.87475
2018    28      4       0.1571091       41.5882
2018    28      5       0.1941428       49.76755
2018    28      6       0.3479475       79.49286
2018    28      7       0.4559797       98.68105
2018    29      0       0.5360835       111.4525
2018    29      1       0.4505345       98.19895
2018    29      2       0.4633029       99.76691
2018    29      3       0.5821462       118.0031
2018    29      4       0.4668195       100.335
2018    29      5       0.586747        119.0936
2018    29      6       0.5774606       117.8029
2018    29      7       0.4892793       104.2988
2018    30      0       0.3529522       81.0895
2018    30      1       0.3273907       76.0312
2018    30      2       0.4674614       99.61932
2018    30      3       0.2564438       62.80125
2018    30      4       0.1743638       46.14738
2018    30      5       0.1459132       39.78834
2018    30      6       0.1367587       37.82536
2018    30      7       0.1288535       36.04479
2018    31      0       0.1368434       37.77217
2018    31      1       0.1212879       34.13059
2018    31      2       0.1126684       32.06397
2018    31      3       0.1246932       34.69551
2018    31      4       0.1521637       41.0102
2018    31      5       0.1696595       45.1014
2018    31      6       0.2513694       62.0147
2018    31      7       0.3645912       83.14622
