####################################################################################################
# Month: 11Nov                                                                                     #
# Station: BOL                                                                                     #
# Frequency: 345 GHz                                                                               #
# Columns are: year    day     segment         tau     Tb (K)                                      #
####################################################################################################
2009    1       0       0.1871272       49.12837
2009    1       1       0.1924315       50.07475
2009    1       2       0.1152057       33.58781
2009    1       3       0.06381208      21.72278
2009    1       4       0.05186235      18.91554
2009    1       5       0.06837747      23.07322
2009    1       6       0.1821059       48.21497
2009    1       7       0.2373431       59.15239
2009    2       0       0.3368496       78.07863
2009    2       1       0.3944001       87.92561
2009    2       2       0.6271737       122.462
2009    2       3       0.5637237       113.8504
2009    2       4       0.5034992       105.075
2009    2       5       0.3175436       74.13336
2009    2       6       0.4268642       92.6027
2009    2       7       0.5035309       104.1828
2009    3       0       0.4478959       96.38668
2009    3       1       0.4012          89.22923
2009    3       2       0.6036769       120.3629
2009    3       3       0.7221262       134.7896
2009    3       4       0.8297939       147.5053
2009    3       5       0.5408985       110.3232
2009    3       6       0.5065587       104.2445
2009    3       7       0.5209199       106.4467
2009    4       0       0.4933727       103.5606
2009    4       1       0.6527505       127.0773
2009    4       2       0.8671228       152.0432
2009    4       3       0.8516882       151.1367
2009    4       4       0.785947        144.1525
2009    4       5       0.9940994       166.7296
2009    4       6       0.8924811       156.2291
2009    4       7       0.9669023       163.8831
2009    5       0       0.9851924       165.7692
2009    5       1       0.9256747       159.9816
2009    5       2       0.9205352       159.0794
2009    5       3       0.8659994       152.875
2009    5       4       0.6777986       131.1948
2009    5       5       0.5432552       113.091
2009    5       6       0.6958871       134.087
2009    5       7       0.8937511       157.3029
2009    6       0       1.150943        181.6701
2009    6       1       1.062771        172.9295
2009    6       2       0.9267775       159.5342
2009    6       3       0.8177478       148.2965
2009    6       4       0.8305348       150.272
2009    6       5       0.6569261       128.5784
2009    6       6       0.5670394       115.982
2009    6       7       0.5167724       109.1677
2009    7       0       0.5165777       108.9546
2009    7       1       0.6102685       122.0658
2009    7       2       0.5886767       119.2636
2009    7       3       0.4723098       102.0385
2009    7       4       0.3964552       89.9085
2009    7       5       0.3907635       89.10509
2009    7       6       0.5155294       109.5493
2009    7       7       0.592785        120.3521
2009    8       0       0.6522453       127.9141
2009    8       1       0.7371721       138.5915
2009    8       2       0.7659037       142.0226
2009    8       3       0.601114        121.2189
2009    8       4       0.4951893       106.3952
2009    8       5       0.4420752       97.81916
2009    8       6       0.4743177       102.8585
2009    8       7       0.6883349       133.3264
2009    9       0       0.5648536       116.2387
2009    9       1       0.9651572       165.2445
2009    9       2       1.006062        167.5752
2009    9       3       0.7860823       144.38
2009    9       4       0.675042        130.9104
2009    9       5       0.6188529       123.4415
2009    9       6       0.7827443       144.5288
2009    9       7       0.7085269       135.7386
2009    10      0       0.5133736       108.1139
2009    10      1       0.4229685       92.97253
2009    10      2       0.5619314       114.1325
2009    10      3       0.5705347       115.7744
2009    10      4       0.4138899       91.92005
2009    10      5       0.3233678       76.41228
2009    10      6       0.3875801       88.62717
2009    10      7       0.2530382       62.94139
2009    11      0       0.2445897       61.29804
2009    11      1       0.2820134       69.07614
2009    11      2       0.3499406       82.02741
2009    11      3       0.3912563       89.54463
2009    11      4       0.5619381       117.1519
2009    11      5       0.4609671       100.897
2009    11      6       0.421414        94.36969
2009    11      7       0.4996266       107.609
2009    12      0       0.433487        96.3058
2009    12      1       0.4570351       100.0901
2009    12      2       0.3735274       85.33781
2009    12      3       0.358149        82.72494
2009    12      4       0.5167042       109.6543
2009    12      5       0.6906517       133.8452
2009    12      6       0.7442796       140.4379
2009    12      7       0.7614614       141.728
2009    13      0       0.7845754       144.018
2009    13      1       0.7549174       140.9036
2009    13      2       0.835656        150.1248
2009    13      3       0.7646421       141.5901
2009    13      4       0.8190275       148.0192
2009    13      5       0.8747761       154.5795
2009    13      6       0.836456        150.2547
2009    13      7       0.785025        144.3586
2009    14      0       0.7106716       135.3173
2009    14      1       0.7358682       138.8713
2009    14      2       0.83421         150.9986
2009    14      3       0.8763976       154.6631
2009    14      4       0.9214179       159.4771
2009    14      5       0.9082779       158.2992
2009    14      6       0.8597236       153.6024
2009    14      7       0.7989648       147.2073
2009    15      0       0.7538932       141.3943
2009    15      1       0.7716644       143.8587
2009    15      2       1.225746        185.6681
2009    15      3       1.067855        173.1032
2009    15      4       0.8293056       149.7858
2009    15      5       0.8295548       149.6237
2009    15      6       1.035435        170.6045
2009    15      7       1.043606        170.1879
2009    16      0       1.218231        185.8748
2009    16      1       1.292263        192.1855
2009    16      2       1.082179        174.6509
2009    16      3       1.003407        167.3737
2009    16      4       0.7715118       142.7832
2009    16      5       0.9482747       163.013
2009    16      6       1.190112        183.2263
2009    16      7       0.960541        162.6894
2009    17      0       0.7760054       144.1444
2009    17      1       0.8224167       149.7578
2009    17      2       0.8388194       151.3028
2009    17      3       0.8355849       150.9524
2009    17      4       0.9015616       157.5142
2009    17      5       0.9505566       162.6242
2009    17      6       0.9737648       165.2135
2009    17      7       1.048867        172.5275
2009    18      0       1.250331        189.6275
2009    18      1       1.036893        171.0466
2009    18      2       0.8039648       146.9496
2009    18      3       0.7523579       140.675
2009    18      4       0.655381        128.4288
2009    18      5       0.6258287       124.5612
2009    18      6       0.6128897       123.2324
2009    18      7       0.7480656       141.1832
2009    19      0       0.8020833       147.6668
2009    19      1       0.6520239       128.6913
2009    19      2       0.6686614       130.464
2009    19      3       0.7139142       135.7493
2009    19      4       0.70572         134.6298
2009    19      5       0.7517378       140.3375
2009    19      6       0.7159963       136.3106
2009    19      7       0.6205787       124.0545
2009    20      0       0.6172465       123.5564
2009    20      1       0.609504        121.8856
2009    20      2       0.7645387       140.0176
2009    20      3       0.6176166       122.2974
2009    20      4       0.6036521       120.6032
2009    20      5       0.6075465       121.365
2009    20      6       0.7472901       140.7138
2009    20      7       0.9130142       160.1333
2009    21      0       0.8364079       151.4872
2009    21      1       0.786923        146.0156
2009    21      2       0.9320479       160.6657
2009    21      3       0.8861825       155.7438
2009    21      4       0.971865        164.0021
2009    21      5       0.8934632       156.1908
2009    21      6       0.8655769       153.4525
2009    21      7       0.8817096       154.7829
2009    22      0       0.7110744       135.3035
2009    22      1       0.6860574       131.845
2009    22      2       0.7688999       141.8785
2009    22      3       0.7291352       137.5953
2009    22      4       0.7086168       135.3164
2009    22      5       0.8244453       148.0667
2009    22      6       0.8559586       151.6183
2009    22      7       0.7980381       145.2185
2009    23      0       0.6156612       122.688
2009    23      1       0.5404251       111.7783
2009    23      2       0.4305083       94.68848
2009    23      3       0.4284188       94.64667
2009    23      4       0.5380136       112.156
2009    23      5       0.6807437       130.4937
2009    23      6       0.7000647       132.9924
2009    23      7       0.6506366       127.7905
2009    24      0       0.6047766       122.0976
2009    24      1       0.7031619       135.3818
2009    24      2       0.8255594       150.1221
2009    24      3       0.8087597       148.1651
2009    24      4       0.7418976       140.0205
2009    24      5       0.6941838       133.9747
2009    24      6       0.7338228       139.2735
2009    24      7       0.6980057       134.7828
2009    25      0       0.7258563       139.041
2009    25      1       1.018057        170.3065
2009    25      2       0.7711007       142.0264
2009    25      3       0.6723259       130.461
2009    25      4       0.4980493       105.3524
2009    25      5       0.4720607       101.1547
2009    25      6       0.5911456       118.4508
2009    25      7       0.6374219       125.4698
2009    26      0       0.5939221       120.3365
2009    26      1       0.6848477       133.0065
2009    26      2       0.8014278       146.2548
2009    26      3       0.822954        148.6001
2009    26      4       0.7772108       143.5774
2009    26      5       0.5549754       114.0694
2009    26      6       0.4149907       92.21823
2009    26      7       0.4146278       92.1373
2009    27      0       0.6266617       124.0557
2009    27      1       0.7548385       140.2471
2009    27      2       0.8893343       154.9226
2009    27      3       1.05083         171.9018
2009    27      4       1.026038        168.7935
2009    27      5       0.8737492       153.874
2009    27      6       0.8474289       151.377
2009    27      7       0.8556449       152.1653
2009    28      0       0.7975097       146.2033
2009    28      1       0.9293284       160.2906
2009    28      2       1.018184        168.1806
2009    28      3       0.9650414       163.2876
2009    28      4       0.8496359       151.6102
2009    28      5       0.8982716       156.9628
2009    28      6       0.9257959       159.3489
2009    28      7       0.9078365       157.5045
2009    29      0       0.8755911       154.1111
2009    29      1       0.9904786       164.7898
2009    29      2       1.109665        175.6286
2009    29      3       1.085236        174.4488
2009    29      4       0.8722508       154.0438
2009    29      5       1.020936        167.8299
2009    29      6       0.9811339       164.7424
2009    29      7       0.8749724       154.6421
2009    30      0       0.9329749       161.3935
2009    30      1       1.137965        179.3131
2009    30      2       1.12506         178.1824
2009    30      3       0.8912929       156.5966
2009    30      4       0.719151        137.3227
2009    30      5       0.9440575       161.6865
2009    30      6       1.079796        174.4224
2009    30      7       1.077521        175.1768
2010    1       0       0.2725557       66.64586
2010    1       1       0.2822073       68.59071
2010    1       2       0.2260897       57.73611
2010    1       3       0.2040413       53.3071
2010    1       4       0.1785771       48.09989
2010    1       5       0.2318798       59.13905
2010    1       6       0.5986257       121.6055
2010    1       7       0.6622912       129.8686
2010    2       0       0.388176        88.30034
2010    2       1       0.2267117       58.41782
2010    2       2       0.2021329       53.5122
2010    2       3       0.1850585       49.89681
2010    2       4       0.1548882       43.31342
2010    2       5       0.1367698       39.36105
2010    2       6       0.2186861       57.27142
2010    2       7       0.3571895       83.68457
2010    3       0       0.4131098       93.27765
2010    3       1       0.259937        65.48198
2010    3       2       0.1918704       51.37184
2010    3       3       0.1453949       40.99501
2010    3       4       0.1254979       36.40076
2010    3       5       0.1807422       48.61898
2010    3       6       0.4356155       96.91234
2010    3       7       0.3943782       90.11929
2010    4       0       0.1762859       48.03133
2010    4       1       0.1590973       44.33906
2010    4       2       0.1401138       40.0759
2010    4       3       0.1071744       32.32254
2010    4       4       0.08473051      26.95593
2010    4       5       0.0979104       30.15005
2010    4       6       0.2189622       56.79179
2010    4       7       0.2358457       59.88663
2010    5       0       0.1500166       41.97263
2010    5       1       0.1099965       32.96606
2010    5       2       0.09512812      29.47555
2010    5       3       0.06892968      22.96919
2010    5       4       0.06152371      21.07337
2010    5       5       0.06491397      21.91349
2010    5       6       0.1898867       50.58824
2010    5       7       0.4952762       105.304
2010    6       0       0.3809093       84.96942
2010    6       1       0.2909373       68.89215
2010    6       2       0.3411531       78.76796
2010    6       3       0.5030811       104.662
2010    6       4       0.6514181       126.1034
2010    6       5       0.7557097       138.5043
2010    6       6       0.5476129       112.022
2010    6       7       0.3228992       76.61886
2010    7       0       0.2953563       71.52032
2010    7       1       0.423615        94.41966
2010    7       2       0.4112389       92.2797
2010    7       3       0.2874744       69.88119
2010    7       4       0.1411098       39.79115
2010    7       5       0.1010501       30.47208
2010    7       6       0.1583508       43.27151
2010    7       7       0.1885053       49.49404
2010    8       0       0.2935579       70.85766
2010    8       1       0.3677078       84.30759
2010    8       2       0.2709521       66.49825
2010    8       3       0.2500507       62.37492
2010    8       4       0.2579381       64.11045
2010    8       5       0.2974457       72.00531
2010    8       6       0.5247659       110.5169
2010    8       7       0.6143727       123.2084
2010    9       0       0.5097045       107.8008
2010    9       1       0.4533556       99.12292
2010    9       2       0.4399616       96.87377
2010    9       3       0.347672        81.09239
2010    9       4       0.5780389       117.9723
2010    9       5       0.6919634       132.8765
2010    9       6       0.9431385       160.8804
2010    9       7       0.7304683       137.263
2010    10      0       0.7866112       144.0483
2010    10      1       0.5153881       107.7569
2010    10      2       0.4788328       102.3445
2010    10      3       0.4786925       102.43
2010    10      4       0.5174416       108.3911
2010    10      5       0.6475459       126.6881
2010    10      6       0.7064013       133.7202
2010    10      7       0.6932296       132.1947
2010    11      0       0.5464461       111.8246
2010    11      1       0.5091457       106.4751
2010    11      2       0.5255534       109.0546
2010    11      3       0.4912099       103.5044
2010    11      4       0.4244679       92.85704
2010    11      5       0.323831        75.2796
2010    11      6       0.2704835       65.05187
2010    11      7       0.1862204       48.37125
2010    12      0       0.2276154       56.86338
2010    12      1       0.2180463       55.16629
2010    12      2       0.1869399       48.67275
2010    12      3       0.246564        60.46888
2010    12      4       0.2912756       69.21625
2010    12      5       0.3195614       74.83361
2010    12      6       0.3206227       74.89426
2010    12      7       0.2776082       66.83474
2010    13      0       0.2784975       66.79808
2010    13      1       0.2580043       62.98694
2010    13      2       0.2449517       60.85199
2010    13      3       0.235271        59.27584
2010    13      4       0.2256283       57.43459
2010    13      5       0.2056993       53.46165
2010    13      6       0.3579496       82.7097
2010    13      7       0.4411025       96.81834
2010    14      0       0.4489717       98.22041
2010    14      1       0.5596685       115.2429
2010    14      2       0.6540236       128.054
2010    14      3       0.4180744       93.34825
2010    14      4       0.1854773       49.80677
2010    14      5       0.1482417       41.79806
2010    14      6       0.3303028       77.14719
2010    14      7       0.361098        81.79467
2010    15      0       0.2447998       61.12378
2010    15      1       0.1323336       37.93875
2010    15      2       0.09629912      29.80346
2010    15      3       0.149197        41.91133
2010    15      4       0.2101457       54.78253
2010    15      5       0.2687892       66.16568
2010    15      6       0.3581756       81.83101
2010    15      7       0.4615295       99.88269
2010    16      0       0.7598843       140.6905
2010    16      1       0.4721782       101.6327
2010    16      2       0.4848022       102.8967
2010    16      3       1.072822        175.1244
2010    16      4       0.8593463       152.0582
2010    16      5       0.8544027       151.1265
2010    16      6       0.5888061       120.5612
2010    16      7       0.4487761       98.41585
2010    17      0       0.2885483       70.71423
2010    17      1       0.1755741       47.82999
2010    17      2       0.1692533       46.50534
2010    17      3       0.636054        126.741
2010    17      4       0.5714621       117.177
2010    17      5       0.3702148       85.29469
2010    17      6       0.2750693       68.01898
2010    17      7       0.2625261       65.13096
2010    18      0       0.1770044       47.98455
2010    18      1       0.2024374       53.27401
2010    18      2       0.2050095       53.76972
2010    18      3       0.2245445       57.77237
2010    18      4       0.2416197       61.45183
2010    18      5       0.4212665       94.34809
2010    18      6       0.5136551       108.3012
2010    18      7       0.4929671       104.8929
2010    19      0       0.4506696       97.84087
2010    19      1       0.333719        77.7283
2010    19      2       0.2176039       56.0283
2010    19      3       0.1651433       45.1987
2010    19      4       0.1650452       44.71082
2010    19      5       0.2928823       70.48776
2010    19      6       0.676047        129.5014
2010    19      7       0.6367875       124.8388
2010    20      0       0.50141         104.8569
2010    20      1       0.5523352       112.2349
2010    20      2       0.5877449       117.8116
2010    20      3       0.5008272       105.4633
2010    20      4       0.31102         73.72722
2010    20      5       0.4411777       95.97148
2010    20      6       0.6925574       131.4678
2010    20      7       0.6739671       129.9442
2010    21      0       0.577167        116.7532
2010    21      1       0.7764338       142.2313
2010    21      2       0.6252642       123.1659
2010    21      3       0.414157        91.43937
2010    21      4       0.3156384       74.16347
2010    21      5       0.3029027       71.88096
2010    21      6       0.5369541       110.5671
2010    21      7       0.5493008       112.3208
2010    22      0       0.3607498       81.85753
2010    22      1       0.42116         91.99657
2010    22      2       0.7854679       142.1286
2010    22      3       0.7915549       143.4296
2010    22      4       0.7790233       142.8297
2010    22      5       0.7972051       144.978
2010    22      6       0.8408468       149.2955
2010    22      7       0.6777826       130.2654
2010    23      0       0.5659676       115.4401
2010    23      1       0.7490867       139.5278
2010    23      2       0.7809767       142.8514
2010    23      3       0.83328         148.3273
2010    23      4       0.7565678       139.75
2010    23      5       0.6548692       127.2825
2010    23      6       0.4782084       102.6863
2010    23      7       0.4590274       99.13752
2010    24      0       0.3911023       87.21264
2010    24      1       0.4696429       99.93678
2010    24      2       0.8477114       151.5383
2010    24      3       0.9077696       157.4862
2010    24      4       0.8433472       149.8063
2010    24      5       0.827542        147.5367
2010    24      6       0.9031608       155.9812
2010    24      7       0.8069805       146.9258
2010    25      0       0.8568985       151.8026
2010    25      1       0.8531727       151.4503
2010    25      2       0.8746517       153.4726
2010    25      3       0.7114753       134.9325
2010    25      4       0.6385151       125.4945
2010    25      5       0.5552682       113.8622
2010    25      6       0.4424494       96.6485
2010    25      7       0.3439532       79.46216
2010    26      0       0.3189204       74.84723
2010    26      1       0.2834639       68.23042
2010    26      2       0.2726149       66.40808
2010    26      3       0.254788        62.85897
2010    26      4       0.2406521       59.97027
2010    26      5       0.272656        66.21569
2010    26      6       0.2889051       69.21698
2010    26      7       0.3458741       80.03953
2010    27      0       0.3302311       77.42741
2010    27      1       0.2593061       64.02999
2010    27      2       0.2736007       66.66263
2010    27      3       0.3018894       71.88561
2010    27      4       0.310324        73.19523
2010    27      5       0.3748657       84.29739
2010    27      6       0.4643977       98.94921
2010    27      7       0.3381237       78.35263
2010    28      0       0.2689277       65.65874
2010    28      1       0.2459353       60.85126
2010    28      2       0.2730358       66.08837
2010    28      3       0.2988233       70.97409
2010    28      4       0.3848951       86.28615
2010    28      5       0.422783        92.61487
2010    28      6       0.4001025       88.83681
2010    28      7       0.3682114       83.20207
2010    29      0       0.366421        82.82914
2010    29      1       0.4636958       98.63426
2010    29      2       0.6256788       122.1608
2010    29      3       0.9574347       160.8265
2010    29      4       0.8626786       151.5966
2010    29      5       0.7489145       138.8135
2010    29      6       0.6575916       127.8739
2010    29      7       0.5981675       120.0826
2010    30      0       0.6446481       126.2814
2010    30      1       0.7680719       141.3569
2010    30      2       0.686974        131.6635
2010    30      3       0.6025141       120.8161
2010    30      4       0.4312197       95.24873
2010    30      5       0.5021509       106.603
2010    30      6       0.5616946       114.9204
2010    30      7       0.4086017       91.04183
2011    1       0       0.7131081       135.186
2011    1       1       0.6801193       131.2172
2011    1       2       0.6567421       128.2158
2011    1       3       0.6291059       124.3599
2011    1       4       0.5646216       115.6159
2011    1       5       0.6606805       129.5081
2011    1       6       0.637881        126.2135
2011    1       7       0.6156583       123.579
2011    2       0       0.4761421       102.9569
2011    2       1       0.4628834       100.8564
2011    2       2       0.5326131       111.6065
2011    2       3       0.5177021       109.3963
2011    2       4       0.5153788       109.1426
2011    2       5       0.5946207       120.8024
2011    2       6       0.7634177       142.5482
2011    2       7       0.7602481       142.2691
2011    3       0       0.5761594       118.061
2011    3       1       0.5773371       117.8173
2011    3       2       nan             nan
2011    3       3       0.5922008       120.0432
2011    3       4       0.5888926       120.002
2011    3       5       0.6292228       125.7117
2011    3       6       0.6522594       129.2059
2011    3       7       0.7133118       137.4118
2011    4       0       0.6891072       133.8725
2011    4       1       0.7389102       140.4996
2011    4       2       0.6170159       125.2135
2011    4       3       0.4434479       98.93698
2011    4       4       0.2941871       72.28546
2011    4       5       0.4669459       102.7925
2011    4       6       0.601517        122.3642
2011    4       7       0.7639366       143.5732
2011    5       0       0.567247        117.9801
2011    5       1       0.7940618       147.8414
2011    5       2       0.6592275       130.375
2011    5       3       0.4850611       105.4056
2011    5       4       0.5168473       110.3842
2011    5       5       0.7011659       135.3096
2011    5       6       0.7191956       137.6707
2011    5       7       0.7946521       147.1936
2011    6       0       0.8256137       150.8337
2011    6       1       0.9015601       157.9398
2011    6       2       0.8137004       149.2844
2011    6       3       0.7649374       143.623
2011    6       4       0.8772875       156.2959
2011    6       5       1.228281        188.4727
2011    6       6       1.004103        167.5858
2011    6       7       0.8959996       157.1778
2011    7       0       0.6807557       133.255
2011    7       1       0.4937656       106.6779
2011    7       2       0.293196        72.24128
2011    7       3       0.1461049       41.80386
2011    7       4       0.1367485       39.52317
2011    7       5       0.2100387       55.32993
2011    7       6       0.3098798       75.20492
2011    7       7       0.329759        79.01034
2011    8       0       0.3769004       87.3142
2011    8       1       0.3570278       83.71763
2011    8       2       0.3361381       79.77178
2011    8       3       0.3869166       88.66695
2011    8       4       0.2471767       62.88634
2011    8       5       0.1931622       51.46644
2011    8       6       0.3151504       75.35352
2011    8       7       0.2773559       68.01467
2011    9       0       0.2687425       66.59026
2011    9       1       0.3301483       78.50841
2011    9       2       0.3894342       88.94313
2011    9       3       0.3712355       85.88079
2011    9       4       0.3423276       80.83314
2011    9       5       0.2851254       70.31723
2011    9       6       0.3917621       89.26319
2011    9       7       0.4235959       94.45131
2011    10      0       0.3636948       83.79118
2011    10      1       0.3508137       81.22922
2011    10      2       0.3174187       74.95852
2011    10      3       0.3714916       84.38555
2011    10      4       0.410854        91.68895
2011    10      5       0.6233486       123.9353
2011    10      6       0.6328025       124.6386
2011    10      7       0.3652098       82.75781
2011    11      0       0.3380369       78.11312
2011    11      1       0.3508704       80.70456
2011    11      2       0.3327239       77.72215
2011    11      3       0.2799769       68.17455
2011    11      4       0.2710508       66.73999
2011    11      5       0.2754909       67.64846
2011    11      6       0.536368        111.8911
2011    11      7       0.5193022       109.0192
2011    12      0       0.5181706       108.8713
2011    12      1       0.5315586       110.2621
2011    12      2       0.4002177       89.48406
2011    12      3       0.2407251       60.4805
2011    12      4       0.1851856       49.33448
2011    12      5       0.1761765       47.55317
2011    12      6       0.2007704       53.08502
2011    12      7       0.3118549       75.32782
2011    13      0       0.2191275       56.90292
2011    13      1       0.2166548       56.18769
2011    13      2       0.2267839       58.13263
2011    13      3       0.2326136       59.27106
2011    13      4       0.198635        52.33259
2011    13      5       0.2011997       53.31248
2011    13      6       0.3199791       76.81013
2011    13      7       0.4145661       93.32317
2011    14      0       0.4594864       100.4514
2011    14      1       0.6897565       133.6181
2011    14      2       0.7268692       138.1824
2011    14      3       0.4880369       104.9678
2011    14      4       0.3225356       76.99811
2011    14      5       0.241254        61.50103
2011    14      6       0.3146843       75.3645
2011    14      7       0.343319        79.37942
2011    15      0       0.2997208       71.27928
2011    15      1       0.2015144       52.78023
2011    15      2       0.2609812       64.98773
2011    15      3       0.3354982       78.55366
2011    15      4       0.4520795       97.9626
2011    15      5       0.6289046       123.8056
2011    15      6       0.8326442       148.6316
2011    15      7       0.6994625       133.0893
2011    16      0       0.599868        120.5961
2011    16      1       0.6228724       123.8725
2011    16      2       0.6436246       126.7718
2011    16      3       0.6042409       121.4426
2011    16      4       0.5335295       111.5989
2011    16      5       0.6097787       122.1363
2011    16      6       0.7552368       140.1648
2011    16      7       0.503163        105.8111
2011    17      0       0.3582075       82.08642
2011    17      1       0.3209654       75.39904
2011    17      2       0.2844521       68.56761
2011    17      3       0.2368421       59.03318
2011    17      4       0.1789018       47.06933
2011    17      5       0.1631043       44.0864
2011    17      6       0.2199161       56.00603
2011    17      7       0.1846777       48.05931
2011    18      0       0.2193831       55.11803
2011    18      1       0.2418046       59.64454
2011    18      2       0.4514182       98.18055
2011    18      3       0.4223373       93.11064
2011    18      4       0.2773709       66.96702
2011    18      5       0.4300878       94.50333
2011    18      6       0.6098332       121.3948
2011    18      7       0.8144709       147.1091
2011    19      0       0.6872235       131.9067
2011    19      1       0.6758674       130.6879
2011    19      2       0.7899789       144.7544
2011    19      3       0.7223955       136.3421
2011    19      4       0.735355        138.0854
2011    19      5       0.8010116       146.1794
2011    19      6       1.00089         167.5216
2011    19      7       0.9338475       161.3504
2011    20      0       0.7663551       143.1959
2011    20      1       0.7788896       144.8631
2011    20      2       0.8658853       154.3105
2011    20      3       0.8391475       151.0943
2011    20      4       0.7167202       136.7008
2011    20      5       0.7476024       140.3463
2011    20      6       0.8537848       152.7294
2011    20      7       0.7714386       143.3215
2011    21      0       0.7750532       143.8327
2011    21      1       0.7973863       146.4997
2011    21      2       0.8816324       155.5467
2011    21      3       0.9431096       162.0457
2011    21      4       0.8570737       153.4357
2011    21      5       0.8569428       153.6166
2011    21      6       0.8417959       151.7428
2011    21      7       0.7323396       138.7235
2011    22      0       0.6847552       132.7911
2011    22      1       0.7896175       145.6455
2011    22      2       0.817645        147.9897
2011    22      3       1.054665        171.4476
2011    22      4       0.9879284       165.2311
2011    22      5       0.9590247       162.4548
2011    22      6       0.769636        143.2218
2011    22      7       0.8022421       147.0174
2011    23      0       0.7387612       139.7216
2011    23      1       0.701227        134.4136
2011    23      2       0.5962049       120.4588
2011    23      3       0.618822        123.4798
2011    23      4       0.569824        116.7688
2011    23      5       0.6414381       127.7517
2011    23      6       0.6005869       122.4901
2011    23      7       0.5125974       109.2814
2011    24      0       0.4118932       92.48617
2011    24      1       0.3784052       87.00229
2011    24      2       0.3480389       81.70028
2011    24      3       0.2594825       64.95018
2011    24      4       0.2153992       56.05061
2011    24      5       0.2529647       63.90219
2011    24      6       0.521192        110.8149
2011    24      7       0.4445764       97.98292
2011    25      0       0.5741461       118.2059
2011    25      1       0.8371543       151.697
2011    25      2       0.8225884       150.3017
2011    25      3       0.6724428       131.7773
2011    25      4       0.5075304       108.3107
2011    25      5       0.56229         116.1692
2011    25      6       0.6572422       129.3132
2011    25      7       0.6251883       126.0647
2011    26      0       0.4338738       96.99194
2011    26      1       0.6507842       128.5633
2011    26      2       1.011923        169.2068
2011    26      3       0.7185501       137.5124
2011    26      4       0.5914245       120.6512
2011    26      5       0.5417812       112.6923
2011    26      6       0.4891451       104.4871
2011    26      7       0.3860713       87.23675
2011    27      0       0.4884728       104.7391
2011    27      1       0.5888579       119.1898
2011    27      2       0.5630675       115.852
2011    27      3       0.572633        116.5709
2011    27      4       0.5565219       114.667
2011    27      5       0.4955298       106.288
2011    27      6       0.4657622       102.0558
2011    27      7       0.3401451       79.87179
2011    28      0       0.2426093       61.24688
2011    28      1       0.2006492       53.03635
2011    28      2       0.1890359       50.2832
2011    28      3       0.2084601       54.01929
2011    28      4       0.2018057       52.46117
2011    28      5       0.2058309       53.22768
2011    28      6       0.1801071       47.30506
2011    28      7       0.2155001       54.42874
2011    29      0       0.2838642       67.74976
2011    29      1       0.3191752       74.55716
2011    29      2       0.3004592       71.58579
2011    29      3       0.4712684       101.2994
2011    29      4       0.5840688       118.3855
2011    29      5       0.844432        151.0718
2011    29      6       0.7512905       140.0608
2011    29      7       0.5161929       108.0335
2011    30      0       0.3492646       80.96404
2011    30      1       0.3019319       72.32427
2011    30      2       0.1576081       43.09281
2011    30      3       0.1469587       40.9839
2011    30      4       0.1220183       35.63773
2011    30      5       0.1410775       39.76886
2011    30      6       0.2986815       71.98217
2011    30      7       0.3251582       76.27137
2012    1       0       0.5965529       119.8051
2012    1       1       0.5348873       110.9677
2012    1       2       0.4383021       95.97141
2012    1       3       0.4384463       95.882
2012    1       4       0.4850844       103.465
2012    1       5       0.5122363       108.1024
2012    1       6       0.6350449       126.081
2012    1       7       0.6347713       125.8072
2012    2       0       0.8297604       150.1426
2012    2       1       0.9406188       161.2656
2012    2       2       1.118667        178.3406
2012    2       3       0.9766535       165.088
2012    2       4       0.9173188       159.4047
2012    2       5       0.8542981       152.49
2012    2       6       0.6783533       131.3738
2012    2       7       0.6160947       122.8242
2012    3       0       0.5097315       107.476
2012    3       1       0.4216355       93.60406
2012    3       2       0.4397177       96.65879
2012    3       3       0.3673431       84.29006
2012    3       4       0.355765        82.20428
2012    3       5       0.4292672       94.7238
2012    3       6       0.6435288       126.2345
2012    3       7       0.6744864       130.3129
2012    4       0       0.6242553       124.0496
2012    4       1       0.5746911       117.0503
2012    4       2       0.5986838       120.0457
2012    4       3       0.4793398       102.5753
2012    4       4       0.4185976       92.75968
2012    4       5       0.4559167       98.79297
2012    4       6       0.562129        114.9993
2012    4       7       0.5120169       107.7239
2012    5       0       0.5501557       113.2825
2012    5       1       0.659192        128.7649
2012    5       2       0.6561301       128.8807
2012    5       3       0.6708951       131.0194
2012    5       4       0.6370901       126.3122
2012    5       5       0.870431        153.7531
2012    5       6       0.9648926       163.8188
2012    5       7       0.9359808       160.2982
2012    6       0       0.7595251       140.7611
2012    6       1       0.9141525       157.5581
2012    6       2       0.9370493       160.3319
2012    6       3       0.8503589       151.5116
2012    6       4       0.8463277       150.4824
2012    6       5       0.9133884       158.478
2012    6       6       1.041401        170.8466
2012    6       7       0.988104        165.9449
2012    7       0       1.046356        171.4388
2012    7       1       1.01928         169.5239
2012    7       2       1.026325        169.3051
2012    7       3       0.9813578       164.7873
2012    7       4       0.9229165       159.0652
2012    7       5       0.9699824       163.842
2012    7       6       1.097787        176.2039
2012    7       7       0.9549949       162.8009
2012    8       0       0.5102292       108.371
2012    8       1       0.5652796       116.3158
2012    8       2       0.4356892       97.02731
2012    8       3       0.3586145       83.59438
2012    8       4       0.3291167       78.37521
2012    8       5       0.3432323       80.84157
2012    8       6       0.5467553       114.561
2012    8       7       0.4679468       102.2096
2012    9       0       0.2935995       71.4645
2012    9       1       0.2505026       63.07993
2012    9       2       0.1898565       50.80861
2012    9       3       0.1347977       38.95057
2012    9       4       0.113832        34.25296
2012    9       5       0.1321582       38.43781
2012    9       6       0.1794635       47.81519
2012    9       7       0.1861408       48.48927
2012    10      0       0.1632055       43.46061
2012    10      1       0.1297632       36.18309
2012    10      2       0.132372        36.68731
2012    10      3       0.1497354       40.47537
2012    10      4       0.1486286       40.5203
2012    10      5       0.1528041       41.46891
2012    10      6       0.3103116       73.71617
2012    10      7       0.2565698       62.81853
2012    11      0       0.3039258       71.82803
2012    11      1       0.2980136       71.03323
2012    11      2       0.3122657       73.46583
2012    11      3       0.4070732       90.50529
2012    11      4       0.4871976       103.7682
2012    11      5       0.5855778       118.3618
2012    11      6       0.7301394       136.8811
2012    11      7       0.6984104       132.3614
2012    12      0       0.5281005       109.3822
2012    12      1       0.3319556       77.02692
2012    12      2       0.3486103       80.04139
2012    12      3       0.4457525       96.53106
2012    12      4       0.2347575       59.01637
2012    12      5       0.1896253       49.90421
2012    12      6       0.2044471       53.28048
2012    12      7       0.1719639       46.31258
2012    13      0       0.1575827       43.04338
2012    13      1       0.3434002       80.36532
2012    13      2       0.5335055       111.7091
2012    13      3       0.5803147       118.7562
2012    13      4       0.4158822       92.64423
2012    13      5       0.2084258       53.8027
2012    13      6       0.3072038       72.90263
2012    13      7       0.4168847       92.37553
2012    14      0       0.4841668       103.3846
2012    14      1       0.4190096       92.059
2012    14      2       0.3452922       79.07616
2012    14      3       0.3008095       71.09627
2012    14      4       0.2867474       68.362
2012    14      5       0.2989067       70.66135
2012    14      6       0.312976        73.17716
2012    14      7       0.3006953       71.1023
2012    15      0       0.2636409       64.2552
2012    15      1       0.2547979       62.33533
2012    15      2       0.2558774       62.21519
2012    15      3       0.2967692       70.19326
2012    15      4       0.329903        76.89153
2012    15      5       0.572791        116.419
2012    15      6       0.6813169       131.896
2012    15      7       0.743074        139.5096
2012    16      0       0.7900138       144.593
2012    16      1       0.7667836       141.9751
2012    16      2       0.8627821       152.758
2012    16      3       0.753622        140.2056
2012    16      4       0.7176403       134.87
2012    16      5       0.7877891       144.0591
2012    16      6       0.7582432       140.2782
2012    16      7       0.7064539       133.6702
2012    17      0       0.723408        135.5585
2012    17      1       0.6577142       127.3023
2012    17      2       0.6177864       122.3801
2012    17      3       0.6013665       120.2725
2012    17      4       0.6194947       122.7206
2012    17      5       0.6300438       124.7089
2012    17      6       0.9422935       161.2475
2012    17      7       1.006306        167.4662
2012    18      0       0.916289        158.5702
2012    18      1       0.8342297       149.8306
2012    18      2       0.7796593       143.6518
2012    18      3       0.7308545       137.5831
2012    18      4       0.6731982       129.8733
2012    18      5       0.6066351       121.2284
2012    18      6       0.5948956       119.8801
2012    18      7       0.5233451       109.3401
2012    19      0       0.5929495       119.2961
2012    19      1       0.6514749       127.3698
2012    19      2       0.675576        130.4698
2012    19      3       0.6014679       120.7812
2012    19      4       0.6051485       121.6362
2012    19      5       0.6291138       124.7941
2012    19      6       0.6139535       122.7679
2012    19      7       0.6735439       130.8261
2012    20      0       0.8003814       145.5934
2012    20      1       0.8631268       152.7618
2012    20      2       0.8195304       148.1078
2012    20      3       0.7110468       135.829
2012    20      4       0.7389689       138.9623
2012    20      5       0.7638335       142.0186
2012    20      6       0.8189973       148.9064
2012    20      7       0.8548112       152.4248
2012    21      0       0.7508322       140.423
2012    21      1       0.6410871       125.884
2012    21      2       0.6244251       123.5115
2012    21      3       0.6346412       124.6835
2012    21      4       0.6104085       121.678
2012    21      5       0.651939        127.9329
2012    21      6       0.9059703       158.3257
2012    21      7       0.9775373       165.6128
2012    22      0       0.9671101       164.1415
2012    22      1       0.8793457       154.6209
2012    22      2       0.7927429       145.1897
2012    22      3       0.7531323       140.7855
2012    22      4       0.7253658       137.5499
2012    22      5       0.6590582       129.5926
2012    22      6       0.7998747       147.3923
2012    22      7       0.8866516       157.1664
2012    23      0       0.6385829       127.0643
2012    23      1       0.6220657       124.2133
2012    23      2       0.5758913       117.1333
2012    23      3       0.4141108       92.29724
2012    23      4       0.4130982       92.66077
2012    23      5       0.5610543       114.738
2012    23      6       0.5319532       110.3526
2012    23      7       0.4882439       104.1306
2012    24      0       0.3833064       86.95246
2012    24      1       0.5023647       106.055
2012    24      2       0.5484095       112.8168
2012    24      3       0.5710996       116.4948
2012    24      4       0.8519543       151.7226
2012    24      5       0.9163642       158.6883
2012    24      6       0.9340555       160.3252
2012    24      7       0.9901734       166.5225
2012    25      0       0.8033389       146.8888
2012    25      1       0.7992397       145.8431
2012    25      2       0.8331831       149.9532
2012    25      3       0.8758799       155.2142
2012    25      4       0.7163254       136.9439
2012    25      5       0.8615115       153.1012
2012    25      6       1.081883        175.8595
2012    25      7       1.068276        173.8576
2012    26      0       0.9363067       160.7824
2012    26      1       0.7010506       134.9742
2012    26      2       0.6731601       131.2911
2012    26      3       0.5370433       112.4117
2012    26      4       0.3245363       77.41214
2012    26      5       0.2286737       58.85832
2012    26      6       0.4042139       92.01514
2012    26      7       0.3952413       89.6795
2012    27      0       0.4659369       101.3091
2012    27      1       0.6364359       126.4645
2012    27      2       0.6959607       132.9636
2012    27      3       0.7499951       138.9404
2012    27      4       0.518776        108.2402
2012    27      5       0.3416172       79.05073
2012    27      6       0.4306166       94.7598
2012    27      7       0.3456045       79.7099
2012    28      0       0.3147758       74.01055
2012    28      1       0.2977113       70.88194
2012    28      2       0.2533784       62.58154
2012    28      3       0.1983028       51.6495
2012    28      4       0.1431085       39.96111
2012    28      5       0.1105125       32.49251
2012    28      6       0.2098432       53.43359
2012    28      7       0.2721178       65.12251
2012    29      0       0.370879        83.14312
2012    29      1       0.4274128       92.8931
2012    29      2       0.5263051       108.552
2012    29      3       0.681146        129.8447
2012    29      4       0.8176415       146.7524
2012    29      5       0.880299        153.9868
2012    29      6       0.8157652       147.2679
2012    29      7       0.7403467       138.7113
2012    30      0       0.6715093       130.1779
2012    30      1       0.8966244       156.2427
2012    30      2       0.8487043       150.9875
2012    30      3       0.879004        154.4404
2012    30      4       0.8213979       148.2013
2012    30      5       0.8062516       146.4654
2012    30      6       0.9028547       157.6857
2012    30      7       0.8711828       153.8451
2013    1       0       0.9198968       159.5441
2013    1       1       0.925707        158.6477
2013    1       2       1.07907         173.6589
2013    1       3       0.9748328       163.6302
2013    1       4       0.9927707       165.6031
2013    1       5       0.958655        162.4411
2013    1       6       1.054962        172.2622
2013    1       7       0.8970622       156.1491
2013    2       0       0.7191501       136.2095
2013    2       1       0.5806036       117.8756
2013    2       2       0.4274781       94.40423
2013    2       3       0.3712048       84.82184
2013    2       4       0.3938838       88.85931
2013    2       5       0.6193971       123.3173
2013    2       6       0.7154381       135.6155
2013    2       7       0.688267        132.677
2013    3       0       0.7473503       139.9032
2013    3       1       0.8935378       155.9567
2013    3       2       0.8963598       155.4647
2013    3       3       0.8957566       156.2722
2013    3       4       0.848906        151.0902
2013    3       5       0.9161521       158.4946
2013    3       6       0.8590126       152.9251
2013    3       7       0.7457154       140.1334
2013    4       0       0.64402         127.0783
2013    4       1       0.653757        128.4431
2013    4       2       0.674814        131.1036
2013    4       3       0.7614292       141.2394
2013    4       4       0.656589        128.1345
2013    4       5       0.6534529       127.9756
2013    4       6       0.7015343       133.809
2013    4       7       0.6809691       131.1586
2013    5       0       0.6107046       121.9971
2013    5       1       0.6760797       131.2331
2013    5       2       0.6845397       132.4932
2013    5       3       0.4661904       101.02
2013    5       4       0.2885733       70.26794
2013    5       5       0.3874708       88.29542
2013    5       6       0.6498267       126.6691
2013    5       7       0.7233762       136.0634
2013    6       0       0.6533325       126.8631
2013    6       1       0.4839453       103.0101
2013    6       2       0.3821783       86.44167
2013    6       3       0.3155049       74.47902
2013    6       4       0.2337444       58.80517
2013    6       5       0.1213533       35.13565
2013    6       6       0.06689975      22.47674
2013    6       7       0.04663499      17.42863
2013    7       0       0.05070306      18.42867
2013    7       1       0.05869762      20.56055
2013    7       2       0.07878205      25.74244
2013    7       3       0.1110285       33.47249
2013    7       4       0.1104543       33.30613
2013    7       5       0.1051955       31.95111
2013    7       6       0.08124779      26.25798
2013    7       7       0.07065943      23.62086
2013    8       0       0.1101377       32.87586
2013    8       1       0.1955649       51.8151
2013    8       2       0.2200384       56.98153
2013    8       3       0.1650512       45.47794
2013    8       4       0.1034445       31.5312
2013    8       5       0.07711628      25.10068
2013    8       6       0.07866376      25.44814
2013    8       7       0.07983274      25.66536
2013    9       0       0.07268971      23.97821
2013    9       1       0.0712684       23.71812
2013    9       2       0.07500474      24.68499
2013    9       3       0.06856537      23.15567
2013    9       4       0.0581387       20.47966
2013    9       5       0.06436649      22.00011
2013    9       6       0.06946055      23.31674
2013    9       7       0.0820505       26.45419
2013    10      0       0.1141483       33.92821
2013    10      1       0.1404026       39.77861
2013    10      2       0.1612316       44.34462
2013    10      3       0.2087331       54.40495
2013    10      4       0.2143892       55.35517
2013    10      5       0.2976679       71.67645
2013    10      6       0.636691        125.7539
2013    10      7       0.6067636       121.3583
2013    11      0       0.6374541       125.3343
2013    11      1       0.5321537       110.0919
2013    11      2       0.451916        98.00879
2013    11      3       0.3150065       74.67317
2013    11      4       0.3102918       73.73033
2013    11      5       0.3883771       87.63317
2013    11      6       0.5307018       110.1735
2013    11      7       0.5911685       119.6979
2013    12      0       0.727619        137.6546
2013    12      1       0.8595672       151.2369
2013    12      2       0.6588163       126.5651
2013    12      3       0.7138525       133.8381
2013    12      4       0.7939513       144.6405
2013    12      5       0.7965217       144.3229
2013    12      6       0.8686751       153.4224
2013    12      7       0.7916064       144.244
2013    13      0       0.7381638       138.4362
2013    13      1       0.6770069       130.8869
2013    13      2       0.6571396       127.9693
2013    13      3       0.6157942       122.4963
2013    13      4       0.5729606       116.3861
2013    13      5       0.5552063       113.8007
2013    13      6       0.6749751       130.6055
2013    13      7       0.6334135       125.197
2013    14      0       0.4837712       103.4286
2013    14      1       0.3069127       73.22975
2013    14      2       0.2816866       68.43964
2013    14      3       0.40848         91.26375
2013    14      4       0.4516009       98.54146
2013    14      5       0.3616138       83.15266
2013    14      6       0.3719331       84.81992
2013    14      7       0.3202124       75.59015
2013    15      0       0.2610425       64.63067
2013    15      1       0.2871609       69.92703
2013    15      2       0.3259271       77.27314
2013    15      3       0.3211748       76.41662
2013    15      4       0.3702878       85.21376
2013    15      5       0.5360499       111.7132
2013    15      6       0.5698855       116.738
2013    15      7       0.4999635       105.8957
2013    16      0       0.4693204       101.2458
2013    16      1       0.6988663       132.2728
2013    16      2       0.6588123       127.4847
2013    16      3       0.655525        126.8756
2013    16      4       0.4061145       90.97662
2013    16      5       0.6368351       126.6051
2013    16      6       0.8755322       155.3752
2013    16      7       1.012977        169.0178
2013    17      0       0.882641        155.2298
2013    17      1       0.9939036       166.6669
2013    17      2       0.9517741       162.5717
2013    17      3       0.675742        130.7275
2013    17      4       0.4668425       100.9234
2013    17      5       0.4686217       100.9968
2013    17      6       0.5828579       118.4364
2013    17      7       0.4987025       105.2661
2013    18      0       0.4315756       94.89525
2013    18      1       0.3338468       77.96816
2013    18      2       0.2625475       64.44361
2013    18      3       0.2030639       52.4233
2013    18      4       0.2106425       53.78248
2013    18      5       0.2587472       63.64746
2013    18      6       0.2928506       70.68015
2013    18      7       0.2292232       57.88153
2013    19      0       0.2183709       55.60774
2013    19      1       0.2475574       61.3349
2013    19      2       0.2673117       65.11655
2013    19      3       0.2422718       60.24884
2013    19      4       0.2340266       58.77424
2013    19      5       0.4307284       94.5399
2013    19      6       0.6911276       132.4232
2013    19      7       0.8132087       147.9411
2013    20      0       1.009646        168.5901
2013    20      1       0.9601531       162.9476
2013    20      2       1.038511        170.2668
2013    20      3       0.9858284       165.4357
2013    20      4       0.7792016       144.1115
2013    20      5       0.9010833       157.8281
2013    20      6       0.9234154       160.1752
2013    20      7       0.8365355       151.0832
2013    21      0       0.7892333       145.3318
2013    21      1       0.8084188       147.2927
2013    21      2       0.760507        141.4336
2013    21      3       0.7841859       144.387
2013    21      4       0.9899237       166.038
2013    21      5       0.9850817       165.6276
2013    21      6       0.9789956       165.4062
2013    21      7       1.029545        170.2815
2013    22      0       1.042826        171.7115
2013    22      1       1.093273        176.2429
2013    22      2       1.04256         171.3384
2013    22      3       0.95761         162.7962
2013    22      4       0.8673187       153.4196
2013    22      5       0.9379005       161.2481
2013    22      6       0.8697156       154.5847
2013    22      7       0.8472806       152.9885
2013    23      0       0.7459711       140.7166
2013    23      1       0.7718441       143.8039
2013    23      2       0.7343802       139.0236
2013    23      3       0.2768679       68.32487
2013    23      4       0.1428077       40.6364
2013    23      5       0.2123753       55.89873
2013    23      6       0.3331469       79.33914
2013    23      7       0.4941027       106.1483
2013    24      0       0.3516347       82.74261
2013    24      1       0.2160121       56.64257
2013    24      2       0.2419876       61.99242
2013    24      3       0.2460593       62.80689
2013    24      4       0.2274816       58.80393
2013    24      5       0.3064672       74.48321
2013    24      6       0.3569381       83.52868
2013    24      7       0.4189454       94.10576
2013    25      0       0.3384428       80.19022
2013    25      1       0.3185992       76.38652
2013    25      2       0.4224875       94.45244
2013    25      3       0.4637128       100.4723
2013    25      4       0.3241916       76.7658
2013    25      5       0.2420052       60.83098
2013    25      6       0.2820844       68.70418
2013    25      7       0.2757089       67.1937
2013    26      0       0.3815696       86.90811
2013    26      1       0.5140082       108.3905
2013    26      2       0.6052376       120.8661
2013    26      3       0.7659071       141.4909
2013    26      4       0.6571449       129.3168
2013    26      5       0.8964167       156.346
2013    26      6       0.8073363       147.334
2013    26      7       0.6906903       133.5499
2013    27      0       0.5237281       110.1157
2013    27      1       0.4360334       96.49013
2013    27      2       0.4201184       93.74094
2013    27      3       0.4465193       97.88378
2013    27      4       0.3939594       89.61062
2013    27      5       0.2413194       61.94504
2013    27      6       0.3213236       76.4393
2013    27      7       0.3595413       83.50053
2013    28      0       0.2835934       68.88976
2013    28      1       0.2198352       56.4602
2013    28      2       0.1973197       51.74679
2013    28      3       0.1940313       50.97763
2013    28      4       0.2392605       60.21808
2013    28      5       0.2854896       68.96856
2013    28      6       0.5851534       118.971
2013    28      7       0.6393474       127.5564
2013    29      0       0.483128        104.2136
2013    29      1       0.5502512       114.0849
2013    29      2       0.6490164       127.7248
2013    29      3       0.6454754       127.0533
2013    29      4       0.5626897       115.5154
2013    29      5       0.5705633       116.0965
2013    29      6       0.5159908       107.8876
2013    29      7       0.3098815       73.21945
2013    30      0       0.3343753       77.85016
2013    30      1       0.4194321       92.68843
2013    30      2       0.3975286       88.41617
2013    30      3       0.3300092       76.53131
2013    30      4       0.2641635       64.59117
2013    30      5       0.224617        57.22802
2013    30      6       0.2631007       65.28679
2013    30      7       0.3115539       74.47958
2014    1       0       0.4855145       102.7833
2014    1       1       0.3954155       87.72956
2014    1       2       0.4203213       92.03826
2014    1       3       0.3712669       83.56943
2014    1       4       0.4483084       96.52947
2014    1       5       0.6316202       123.2552
2014    1       6       0.835736        148.961
2014    1       7       0.9796153       164.4648
2014    2       0       0.9915039       165.7437
2014    2       1       0.9361381       160.0641
2014    2       2       0.9723965       163.8554
2014    2       3       0.9885202       165.5074
2014    2       4       0.9480578       161.3147
2014    2       5       0.9005005       156.622
2014    2       6       0.9206121       158.6543
2014    2       7       0.9546341       161.7273
2014    3       0       0.9891683       166.3735
2014    3       1       0.9747276       164.6653
2014    3       2       0.7156189       135.0087
2014    3       3       0.6426646       125.8071
2014    3       4       0.506864        106.812
2014    3       5       0.4056037       90.92061
2014    3       6       0.5099655       107.3278
2014    3       7       0.5937004       120.0126
2014    4       0       0.4231102       93.70347
2014    4       1       0.1947721       51.53705
2014    4       2       0.1192133       34.78781
2014    4       3       0.08617824      27.17288
2014    4       4       0.07808455      25.54907
2014    4       5       0.1511414       42.46049
2014    4       6       0.4351973       95.70974
2014    4       7       0.5259073       109.6432
2014    5       0       0.464257        100.3571
2014    5       1       0.5291138       110.5678
2014    5       2       0.7915629       144.2415
2014    5       3       0.9252615       159.3781
2014    5       4       0.5939227       120.122
2014    5       5       0.4316635       95.06781
2014    5       6       0.3326609       77.55322
2014    5       7       0.244439        60.82639
2014    6       0       0.2001193       51.57312
2014    6       1       0.2269899       57.73462
2014    6       2       0.2390795       60.58057
2014    6       3       0.1477981       41.27702
2014    6       4       0.1396893       39.34673
2014    6       5       0.2432072       60.84554
2014    6       6       0.3093284       73.09236
2014    6       7       0.3431761       79.4097
2014    7       0       0.166043        45.08271
2014    7       1       0.06447389      21.95374
2014    7       2       0.08343269      26.64963
2014    7       3       0.1238558       36.17654
2014    7       4       0.1026399       31.36225
2014    7       5       0.09390575      29.22945
2014    7       6       0.1655633       45.17677
2014    7       7       0.1387978       39.03161
2014    8       0       0.1290411       36.7769
2014    8       1       0.1425184       39.97325
2014    8       2       0.1833257       49.08366
2014    8       3       0.2100664       54.85252
2014    8       4       0.1912213       50.96271
2014    8       5       0.1651079       45.26028
2014    8       6       0.2051381       53.623
2014    8       7       0.2675256       65.65515
2014    9       0       0.2775298       67.13262
2014    9       1       0.3170317       74.47774
2014    9       2       0.3840628       86.2841
2014    9       3       0.4772516       101.7206
2014    9       4       0.5762258       116.4609
2014    9       5       0.7857383       143.9171
2014    9       6       0.8916679       156.1301
2014    9       7       0.8774907       154.9217
2014    10      0       0.7038542       134.365
2014    10      1       0.7139671       135.5895
2014    10      2       0.7083403       134.4868
2014    10      3       0.7227808       136.414
2014    10      4       0.8980689       156.3142
2014    10      5       0.9302878       159.0462
2014    10      6       0.8416458       149.7192
2014    10      7       0.8359684       149.3973
2014    11      0       0.5957252       119.6421
2014    11      1       0.6312527       124.5015
2014    11      2       0.6350338       124.8315
2014    11      3       0.5372969       111.1645
2014    11      4       0.5342396       110.5856
2014    11      5       0.6100006       121.3783
2014    11      6       0.5305039       110.4311
2014    11      7       0.4346791       95.7522
2014    12      0       0.4847178       103.8915
2014    12      1       0.4983735       106.3547
2014    12      2       0.5352632       111.9214
2014    12      3       0.5114716       108.5129
2014    12      4       0.4302417       95.58586
2014    12      5       0.3609445       83.55729
2014    12      6       0.5992997       121.1413
2014    12      7       0.779865        144.3381
2014    13      0       0.8077873       147.4686
2014    13      1       0.7216103       136.9162
2014    13      2       0.8062748       147.576
2014    13      3       0.6379896       126.6835
2014    13      4       0.4686206       101.5955
2014    13      5       0.4459861       97.66835
2014    13      6       0.5437609       112.7153
2014    13      7       0.4973372       105.0947
2014    14      0       0.4414929       96.37201
2014    14      1       0.4343698       95.10205
2014    14      2       0.3607673       83.09535
2014    14      3       0.3045112       72.87464
2014    14      4       0.2949413       71.06712
2014    14      5       0.2658063       65.5491
2014    14      6       0.4371861       96.05979
2014    14      7       0.5219786       108.8273
2014    15      0       0.4731324       102.0312
2014    15      1       0.4547921       98.89839
2014    15      2       0.3949874       88.96233
2014    15      3       0.3637728       83.61824
2014    15      4       0.4106515       91.84318
2014    15      5       0.5044878       107.2654
2014    15      6       0.4614144       100.6816
2014    15      7       0.4131434       92.96498
2014    16      0       0.3586921       83.57666
2014    16      1       0.3438653       80.62109
2014    16      2       0.4242965       94.26116
2014    16      3       0.4988191       105.9072
2014    16      4       0.4891746       104.1004
2014    16      5       0.5188483       108.3372
2014    16      6       0.5634803       115.8184
2014    16      7       0.4715206       102.7519
2014    17      0       0.4266454       95.52581
2014    17      1       0.4218128       94.4233
2014    17      2       0.439762        97.05958
2014    17      3       0.4768671       102.8497
2014    17      4       0.5454593       112.8149
2014    17      5       0.6061921       121.3209
2014    17      6       0.6030065       121.5486
2014    17      7       0.493943        106.173
2014    18      0       0.4380714       96.96024
2014    18      1       0.5521877       114.2101
2014    18      2       0.7545157       140.5649
2014    18      3       0.8102381       146.1135
2014    18      4       0.6398588       125.8095
2014    18      5       0.5295724       111.323
2014    18      6       0.4513609       99.0313
2014    18      7       0.4163301       92.78998
2014    19      0       0.3749032       85.9898
2014    19      1       0.1536233       42.86116
2014    19      2       0.1039627       31.41993
2014    19      3       0.08335272      26.56696
2014    19      4       0.08309643      26.61134
2014    19      5       0.09800039      30.30464
2014    19      6       0.1321794       38.30861
2014    19      7       0.3653056       84.62332
2014    20      0       0.2005622       52.66223
2014    20      1       0.1826551       48.5074
2014    20      2       0.1942895       50.87498
2014    20      3       0.2312699       58.26736
2014    20      4       0.3382311       78.2699
2014    20      5       0.5052962       105.8993
2014    20      6       0.5439204       111.8236
2014    20      7       0.6113149       121.6606
2014    21      0       0.6612555       128.5771
2014    21      1       0.8914701       155.657
2014    21      2       0.7574087       139.9783
2014    21      3       0.5477514       112.9296
2014    21      4       0.4494424       98.17842
2014    21      5       0.3987591       89.98894
2014    21      6       0.6146668       123.3622
2014    21      7       0.5918152       119.6631
2014    22      0       0.6946957       132.6717
2014    22      1       0.8326109       148.5715
2014    22      2       0.9127143       156.7646
2014    22      3       0.7479902       139.3599
2014    22      4       0.5722534       116.883
2014    22      5       0.584548        118.3594
2014    22      6       0.7507708       139.8433
2014    22      7       0.7786494       143.1755
2014    23      0       0.8436126       150.2346
2014    23      1       0.8864477       155.5586
2014    23      2       1.062994        171.9433
2014    23      3       1.148376        178.1802
2014    23      4       1.062738        172.7643
2014    23      5       1.071837        173.576
2014    23      6       1.025314        169.4456
2014    23      7       1.011846        168.4424
2014    24      0       0.991619        165.921
2014    24      1       0.8737621       153.1763
2014    24      2       0.8201804       147.7298
2014    24      3       0.7941544       144.4513
2014    24      4       0.695739        132.3947
2014    24      5       0.676555        130.0671
2014    24      6       0.7458255       139.2119
2014    24      7       0.7706928       143.1288
2014    25      0       0.5305129       110.6592
2014    25      1       0.5440905       112.5644
2014    25      2       0.6657727       129.1288
2014    25      3       0.6443403       126.5306
2014    25      4       0.5521128       113.2663
2014    25      5       0.5141028       107.5043
2014    25      6       0.5187191       108.1757
2014    25      7       0.6965566       132.365
2014    26      0       0.616336        121.5186
2014    26      1       0.6603513       127.1652
2014    26      2       0.4955506       104.5579
2014    26      3       0.375653        85.24256
2014    26      4       0.3093225       73.58205
2014    26      5       0.3573288       82.06861
2014    26      6       0.6542861       127.3447
2014    26      7       0.8107051       147.261
2014    27      0       0.8320574       149.332
2014    27      1       0.7504571       139.2751
2014    27      2       0.9477221       160.5623
2014    27      3       1.020735        166.4815
2014    27      4       0.6901468       132.3691
2014    27      5       0.5943309       120.1772
2014    27      6       0.7311303       137.9027
2014    27      7       0.7861125       143.7392
2014    28      0       0.6353231       125.4354
2014    28      1       0.7234496       136.7517
2014    28      2       0.6888374       132.1713
2014    28      3       0.5779271       117.4284
2014    28      4       0.4294381       95.09896
2014    28      5       0.4750607       102.5886
2014    28      6       0.6552597       129.1388
2014    28      7       0.5059256       107.3521
2014    29      0       0.3686023       84.44521
2014    29      1       0.4087516       91.25562
2014    29      2       0.4285092       94.141
2014    29      3       0.4187011       92.22741
2014    29      4       0.3898757       87.66892
2014    29      5       0.3818776       86.62744
2014    29      6       0.4602348       100.0699
2014    29      7       0.5228142       109.6856
2014    30      0       0.4917344       104.6297
2014    30      1       0.5175827       108.8091
2014    30      2       0.4675304       100.7925
2014    30      3       0.4691948       101.2457
2014    30      4       0.4301804       95.04668
2014    30      5       0.4306447       94.74306
2014    30      6       0.6024078       120.2723
2014    30      7       0.8423961       149.3161
2015    1       0       0.6037477       120.8868
2015    1       1       0.7149671       134.8535
2015    1       2       0.6868448       132.1199
2015    1       3       0.8535469       151.4295
2015    1       4       0.8762092       153.7913
2015    1       5       0.9271493       159.4447
2015    1       6       0.9671108       163.5829
2015    1       7       0.9006908       156.4063
2015    2       0       0.7402636       137.7749
2015    2       1       0.4256969       93.29879
2015    2       2       0.4201122       93.03119
2015    2       3       0.7508767       140.7534
2015    2       4       0.8407347       149.7729
2015    2       5       0.7825987       143.4349
2015    2       6       0.8868271       156.4306
2015    2       7       0.9486108       162.255
2015    3       0       0.8903272       155.4027
2015    3       1       0.9022524       156.4861
2015    3       2       0.7396342       139.4598
2015    3       3       0.4910116       105.1035
2015    3       4       0.8500041       151.1162
2015    3       5       0.8925189       155.9406
2015    3       6       0.8531204       151.7087
2015    3       7       0.668576        130.7735
2015    4       0       0.9421952       161.1522
2015    4       1       0.9323203       159.8036
2015    4       2       0.8271597       149.1619
2015    4       3       0.6620904       129.3926
2015    4       4       0.4703597       101.8978
2015    4       5       0.2266293       58.11562
2015    4       6       0.1279804       36.95692
2015    4       7       0.2153311       55.80912
2015    5       0       0.1614235       44.22283
2015    5       1       0.1872535       49.38455
2015    5       2       0.2624668       64.81463
2015    5       3       0.2353806       59.71161
2015    5       4       0.2737759       67.54788
2015    5       5       0.2820452       69.17408
2015    5       6       0.383935        87.62079
2015    5       7       0.5981431       120.6794
2015    6       0       0.6655203       129.7796
2015    6       1       0.6365293       125.8494
2015    6       2       0.6555217       128.1571
2015    6       3       0.5394956       112.1221
2015    6       4       0.4938955       105.757
2015    6       5       0.6005437       121.724
2015    6       6       0.5965134       121.1043
2015    6       7       0.5714793       117.5369
2015    7       0       0.5095104       107.7974
2015    7       1       0.5356505       111.1806
2015    7       2       0.5654644       115.0968
2015    7       3       0.525925        109.8138
2015    7       4       0.4294324       95.38573
2015    7       5       0.3615426       84.22408
2015    7       6       0.4730084       103.4342
2015    7       7       0.5190319       110.3062
2015    8       0       0.5849602       119.4867
2015    8       1       0.7045292       135.5661
2015    8       2       0.6759497       132.1807
2015    8       3       0.6947968       134.2264
2015    8       4       0.5147691       109.2019
2015    8       5       0.6074022       122.3066
2015    8       6       0.7941133       145.7607
2015    8       7       0.6731887       131.6437
2015    9       0       0.5759337       118.1738
2015    9       1       0.6054394       121.893
2015    9       2       0.7319338       137.7817
2015    9       3       0.6573738       128.1715
2015    9       4       0.6813722       131.5079
2015    9       5       0.6856085       132.0009
2015    9       6       0.6148239       122.9769
2015    9       7       0.696794        134.0457
2015    10      0       0.6716785       130.3347
2015    10      1       0.5602265       114.7984
2015    10      2       0.5033267       106.5931
2015    10      3       0.4228455       94.2992
2015    10      4       0.4467659       98.40076
2015    10      5       0.5087148       107.3729
2015    10      6       0.4936086       104.6301
2015    10      7       0.4210289       92.67598
2015    11      0       0.3876547       87.43283
2015    11      1       0.5685034       116.0933
2015    11      2       0.7624172       141.6452
2015    11      3       0.7338649       137.8031
2015    11      4       0.8512182       151.2193
2015    11      5       0.9347701       160.1533
2015    11      6       1.033085        169.4971
2015    11      7       1.056414        171.2147
2015    12      0       0.9092453       157.9181
2015    12      1       0.7918925       145.3391
2015    12      2       0.7337366       138.4723
2015    12      3       0.6802521       131.577
2015    12      4       0.7160329       135.9457
2015    12      5       0.8214108       148.7834
2015    12      6       0.936369        160.8206
2015    12      7       0.8698232       153.8378
2015    13      0       0.8560978       153.3184
2015    13      1       0.7922509       145.0782
2015    13      2       0.6604297       128.3606
2015    13      3       0.5851625       118.0521
2015    13      4       0.5495629       112.8694
2015    13      5       0.5507381       112.657
2015    13      6       0.569261        115.717
2015    13      7       0.4559765       98.65641
2015    14      0       0.3516986       80.96348
2015    14      1       0.2538669       62.62293
2015    14      2       0.2799409       67.92634
2015    14      3       0.3029564       72.2996
2015    14      4       0.2393544       60.00297
2015    14      5       0.2546056       63.12735
2015    14      6       0.4443744       97.58958
2015    14      7       0.4951476       106.6247
2015    15      0       0.7037929       135.3916
2015    15      1       0.9515225       162.5406
2015    15      2       1.019312        168.3503
2015    15      3       0.9271093       159.356
2015    15      4       0.8605794       152.3986
2015    15      5       0.9161636       158.1224
2015    15      6       0.9628316       162.7432
2015    15      7       0.9227129       159.1429
2015    16      0       1.007234        167.8469
2015    16      1       1.085318        176.0234
2015    16      2       1.093929        176.2742
2015    16      3       0.8579717       153.0988
2015    16      4       0.5262549       111.563
2015    16      5       0.5636514       117.1735
2015    16      6       0.6395543       127.1092
2015    16      7       0.5858531       119.7091
2015    17      0       0.549122        113.8018
2015    17      1       0.4981846       105.9401
2015    17      2       0.5677625       115.5683
2015    17      3       0.4536541       98.47271
2015    17      4       0.4018086       90.66031
2015    17      5       0.3309483       78.76609
2015    17      6       0.3377287       79.78691
2015    17      7       0.6158745       123.5917
2015    18      0       0.5176654       109.2691
2015    18      1       0.6675234       129.1224
2015    18      2       0.6844762       131.0887
2015    18      3       0.2849111       69.479
2015    18      4       0.120503        35.66102
2015    18      5       0.1905174       50.91901
2015    18      6       0.4554521       99.37673
2015    18      7       0.5727466       117.3622
2015    19      0       0.4775399       102.8639
2015    19      1       0.3870581       87.16909
2015    19      2       0.2334007       58.99108
2015    19      3       0.1471923       41.34341
2015    19      4       0.09827584      30.22641
2015    19      5       0.09026681      28.38603
2015    19      6       0.1580214       43.8163
2015    19      7       0.2037069       53.66055
2015    20      0       0.1998491       52.4672
2015    20      1       0.1949136       51.53565
2015    20      2       0.1512572       42.25564
2015    20      3       0.1013951       31.04357
2015    20      4       0.1262842       36.87085
2015    20      5       0.5997449       121.8766
2015    20      6       0.691415        133.5914
2015    20      7       0.6986446       134.8817
2015    21      0       0.6693465       131.3483
2015    21      1       0.5351319       111.9098
2015    21      2       0.4138293       92.73136
2015    21      3       0.487759        105.3187
2015    21      4       0.3046805       73.91988
2015    21      5       0.2667228       66.78669
2015    21      6       0.3359725       79.3628
2015    21      7       0.2668216       65.56351
2015    22      0       0.2633778       64.43485
2015    22      1       0.2433323       60.47149
2015    22      2       0.2100813       53.6304
2015    22      3       0.1910897       49.60789
2015    22      4       0.1830633       48.03189
2015    22      5       0.1884178       49.54887
2015    22      6       0.1828058       48.3878
2015    22      7       0.1982176       51.48656
2015    23      0       0.1894419       49.94615
2015    23      1       0.1850025       48.95657
2015    23      2       0.1840624       48.52991
2015    23      3       0.1679057       45.15572
2015    23      4       0.171192        46.21773
2015    23      5       0.1812353       48.48388
2015    23      6       0.2398112       60.56446
2015    23      7       0.226774        57.35845
2015    24      0       0.1997124       51.74786
2015    24      1       0.206381        53.11044
2015    24      2       0.2139511       54.90216
2015    24      3       0.1984387       51.745
2015    24      4       0.1662906       45.02304
2015    24      5       0.1725242       46.3512
2015    24      6       0.2480831       61.53022
2015    24      7       0.3378664       78.03935
2015    25      0       0.3168232       74.67515
2015    25      1       0.3536154       81.07863
2015    25      2       0.4457361       96.50344
2015    25      3       0.4894373       103.4284
2015    25      4       0.3561281       81.40847
2015    25      5       0.2881718       69.19437
2015    25      6       0.2875112       69.2622
2015    25      7       0.3114864       73.40481
2015    26      0       0.3091427       72.92915
2015    26      1       0.3478145       79.74228
2015    26      2       0.3642399       82.83544
2015    26      3       0.3348605       77.73227
2015    26      4       0.2909538       69.34021
2015    26      5       0.2799965       67.16714
2015    26      6       0.3319299       76.89828
2015    26      7       0.384601        86.28367
2015    27      0       0.4234375       92.88347
2015    27      1       0.4275198       93.79433
2015    27      2       0.4033385       89.64276
2015    27      3       0.3948814       88.54482
2015    27      4       0.4252747       93.7553
2015    27      5       0.4476054       97.51857
2015    27      6       0.6518673       128.652
2015    27      7       0.6768222       131.9135
2015    28      0       0.7966687       145.9381
2015    28      1       0.6421726       125.5836
2015    28      2       0.4964343       104.9945
2015    28      3       0.3641275       83.33104
2015    28      4       0.3438865       80.33177
2015    28      5       0.5227663       110.3919
2015    28      6       0.5973341       121.9846
2015    28      7       0.5676534       117.3463
2015    29      0       0.5574664       115.4026
2015    29      1       1.001995        168.8647
2015    29      2       1.049059        171.4163
2015    29      3       1.020078        169.0933
2015    29      4       0.7112739       136.1833
2015    29      5       0.7854804       144.9662
2015    29      6       0.7449579       139.0444
2015    29      7       0.6742035       130.5654
2015    30      0       0.936697        161.1425
2015    30      1       0.8908706       155.9824
2015    30      2       0.875578        154.6034
2015    30      3       0.8545512       151.7756
2015    30      4       0.7851915       143.5053
2015    30      5       0.7031717       133.1718
2015    30      6       0.6993015       133.0647
2015    30      7       0.5298521       109.5983
2016    1       0       0.2318239       58.2756
2016    1       1       0.2538753       62.32852
2016    1       2       0.3567374       81.04742
2016    1       3       0.4079897       90.19235
2016    1       4       0.3891589       87.74607
2016    1       5       0.503596        106.382
2016    1       6       0.679695        131.1013
2016    1       7       0.543387        112.7893
2016    2       0       0.4967903       105.1332
2016    2       1       0.5957487       119.7591
2016    2       2       0.9759822       164.6424
2016    2       3       0.870457        153.2146
2016    2       4       0.6588683       128.664
2016    2       5       0.5819388       117.7433
2016    2       6       0.722739        136.2135
2016    2       7       0.8218809       149.4238
2016    3       0       0.8878551       156.2859
2016    3       1       0.6746588       130.359
2016    3       2       0.4487036       98.86439
2016    3       3       0.2519666       63.36609
2016    3       4       0.1555823       42.79613
2016    3       5       0.1395771       39.09042
2016    3       6       0.3123983       73.77718
2016    3       7       0.4545421       98.1911
2016    4       0       0.5194589       108.7367
2016    4       1       0.4331325       95.62291
2016    4       2       0.4468522       97.79465
2016    4       3       0.3541365       81.96712
2016    4       4       0.2329494       59.08703
2016    4       5       0.2070954       54.02164
2016    4       6       0.2469633       62.23709
2016    4       7       0.3387716       79.0961
2016    5       0       0.3003815       71.19495
2016    5       1       0.3088217       72.97524
2016    5       2       0.3371721       77.98351
2016    5       3       0.3317195       77.16818
2016    5       4       0.3621773       82.59058
2016    5       5       0.3361852       77.75838
2016    5       6       0.3050705       72.20444
2016    5       7       0.3192668       75.04963
2016    6       0       0.370026        83.96819
2016    6       1       0.3916658       87.69929
2016    6       2       0.378428        85.86713
2016    6       3       0.3663824       84.10851
2016    6       4       0.3209227       75.68437
2016    6       5       0.2723925       66.49668
2016    6       6       0.2352683       59.29766
2016    6       7       0.2239796       56.87692
2016    7       0       0.2791792       67.79153
2016    7       1       0.2886859       69.34286
2016    7       2       0.3294193       76.89146
2016    7       3       0.36158         82.98779
2016    7       4       0.3888723       87.97184
2016    7       5       0.4734903       101.7024
2016    7       6       0.6604448       128.8753
2016    7       7       0.7970938       145.2568
2016    8       0       0.7843203       143.3197
2016    8       1       0.6958092       132.3469
2016    8       2       0.5603055       113.9166
2016    8       3       0.4867207       103.1571
2016    8       4       0.4802541       101.9425
2016    8       5       0.4430412       95.97558
2016    8       6       0.6457834       125.0768
2016    8       7       0.677615        130.8615
2016    9       0       0.5048027       106.2759
2016    9       1       0.6778911       130.1636
2016    9       2       0.800471        144.2687
2016    9       3       0.7719995       141.0196
2016    9       4       0.8270911       147.5941
2016    9       5       0.8725103       152.4499
2016    9       6       0.8111999       146.5044
2016    9       7       0.8645183       152.3952
2016    10      0       0.7964275       144.4096
2016    10      1       0.6532765       126.9283
2016    10      2       0.585499        117.8504
2016    10      3       0.6133729       121.5311
2016    10      4       0.6375743       124.7727
2016    10      5       0.6378513       124.6579
2016    10      6       0.7580534       140.6533
2016    10      7       0.9613554       162.3943
2016    11      0       0.9146064       158.135
2016    11      1       0.7766634       142.1566
2016    11      2       0.5739508       115.6008
2016    11      3       0.3327113       77.06814
2016    11      4       0.186766        48.84936
2016    11      5       0.1779624       47.24314
2016    11      6       0.2548919       64.08533
2016    11      7       0.450361        98.96858
2016    12      0       0.28237         68.8275
2016    12      1       0.4194111       93.05202
2016    12      2       0.8285344       149.5291
2016    12      3       1.01781         168.9974
2016    12      4       0.8220088       147.9396
2016    12      5       0.5088694       107.2276
2016    12      6       0.4845171       104.5503
2016    12      7       0.4511161       99.10292
2016    13      0       0.2761808       68.12862
2016    13      1       0.3381372       79.09116
2016    13      2       0.3788018       85.69528
2016    13      3       0.2544894       63.52243
2016    13      4       0.1487184       41.9663
2016    13      5       0.1532383       43.09736
2016    13      6       0.3980466       90.57856
2016    13      7       0.429264        95.50126
2016    14      0       0.3056807       73.56532
2016    14      1       0.2850243       69.20444
2016    14      2       0.1474555       41.62545
2016    14      3       0.1246861       36.72842
2016    14      4       0.1462812       41.55654
2016    14      5       0.1649054       45.6126
2016    14      6       0.2802893       69.28507
2016    14      7       0.4740054       102.7566
2016    15      0       0.2039755       53.25436
2016    15      1       0.224084        57.24985
2016    15      2       0.2036426       53.4932
2016    15      3       0.1621088       44.77085
2016    15      4       0.1546022       43.13234
2016    15      5       0.1612913       44.52356
2016    15      6       0.2939154       71.73496
2016    15      7       0.5021881       106.8576
2016    16      0       0.5008516       106.4007
2016    16      1       0.5023672       106.0007
2016    16      2       0.4712219       100.8101
2016    16      3       0.4967533       104.9136
2016    16      4       0.3577515       82.31549
2016    16      5       0.2507142       62.83941
2016    16      6       0.3628778       84.18175
2016    16      7       0.5465613       113.6096
2016    17      0       0.4112377       91.63798
2016    17      1       0.5845327       117.9771
2016    17      2       0.3934962       89.08202
2016    17      3       0.3250108       77.05285
2016    17      4       0.3476718       80.93324
2016    17      5       0.3804582       86.6662
2016    17      6       1.023489        170.159
2016    17      7       1.193278        185.0035
2016    18      0       1.050766        171.603
2016    18      1       0.9325123       160.1219
2016    18      2       0.8143951       147.4682
2016    18      3       0.793097        144.7812
2016    18      4       0.6997825       133.6825
2016    18      5       0.5727551       116.8196
2016    18      6       0.4469769       97.42637
2016    18      7       0.4877213       104.2618
2016    19      0       0.5247297       109.5702
2016    19      1       0.4857316       103.6353
2016    19      2       0.4994942       105.6216
2016    19      3       0.553876        113.8996
2016    19      4       0.6422263       126.205
2016    19      5       0.7518005       140.2136
2016    19      6       0.7137188       136.4884
2016    19      7       0.6387503       126.7609
2016    20      0       0.6174112       123.9123
2016    20      1       0.8301795       150.1393
2016    20      2       0.8339046       150.1235
2016    20      3       0.9371415       160.4264
2016    20      4       0.7724958       143.0777
2016    20      5       0.7261667       137.0134
2016    20      6       0.8199443       147.7922
2016    20      7       0.6058707       120.8777
2016    21      0       0.3937216       87.65363
2016    21      1       0.3703928       83.64672
2016    21      2       0.4194061       92.55509
2016    21      3       0.4243901       94.31637
2016    21      4       0.5127985       108.4657
2016    21      5       0.6264336       124.6219
2016    21      6       0.5395009       113.2126
2016    21      7       0.3740809       85.94324
2016    22      0       0.4418923       97.09946
2016    22      1       0.5943901       119.8511
2016    22      2       0.5585968       114.7204
2016    22      3       0.6542189       129.0446
2016    22      4       0.7148915       136.5324
2016    22      5       0.759647        140.7646
2016    22      6       0.7074574       134.7992
2016    22      7       0.4646989       101.0498
2016    23      0       0.3928244       89.16803
2016    23      1       0.3458917       80.71054
2016    23      2       0.2947737       71.3716
2016    23      3       0.2328539       59.27253
2016    23      4       0.1847762       49.1777
2016    23      5       0.2380605       60.40341
2016    23      6       0.3829448       87.20748
2016    23      7       0.4949503       105.5583
2016    24      0       0.3413493       79.31548
2016    24      1       0.4003847       89.72326
2016    24      2       0.4610195       99.55425
2016    24      3       0.4744056       101.3362
2016    24      4       0.4780198       101.8734
2016    24      5       0.4827508       102.962
2016    24      6       0.585283        118.7082
2016    24      7       0.6163353       123.1342
2016    25      0       0.6081695       122.6791
2016    25      1       0.9290333       160.3316
2016    25      2       0.9098973       157.0554
2016    25      3       0.9054231       156.6068
2016    25      4       0.7176387       135.813
2016    25      5       0.7627463       140.2885
2016    25      6       0.8030984       145.0303
2016    25      7       0.8018061       145.1895
2016    26      0       0.7240834       136.4216
2016    26      1       0.6532705       127.385
2016    26      2       0.6225859       123.349
2016    26      3       0.6387989       125.6468
2016    26      4       0.6520052       127.2615
2016    26      5       0.6548812       127.8601
2016    26      6       0.7926935       144.5033
2016    26      7       0.835643        148.3302
2016    27      0       0.759041        139.8601
2016    27      1       0.7805637       143.043
2016    27      2       0.9986648       166.5303
2016    27      3       1.015082        167.9209
2016    27      4       0.9703489       162.694
2016    27      5       0.8938108       155.0191
2016    27      6       0.9192551       157.9073
2016    27      7       0.9791718       164.0793
2016    28      0       0.9925705       165.4895
2016    28      1       0.8931111       155.2053
2016    28      2       0.8053679       145.5902
2016    28      3       0.7002872       133.4962
2016    28      4       0.7308254       137.7273
2016    28      5       0.701495        134.9399
2016    28      6       0.7165288       136.9857
2016    28      7       0.7286665       138.1702
2016    29      0       0.6324863       125.5462
2016    29      1       0.6000221       121.0966
2016    29      2       0.8441738       150.8294
2016    29      3       1.011454        166.7303
2016    29      4       0.9863092       164.5969
2016    29      5       0.8743562       154.0625
2016    29      6       0.8868938       155.5811
2016    29      7       1.111352        176.7999
2016    30      0       0.9133972       158.149
2016    30      1       0.9827864       164.4863
2016    30      2       1.019182        167.8951
2016    30      3       0.8442734       149.8891
2016    30      4       0.711255        134.2726
2016    30      5       0.8832541       153.6759
2016    30      6       0.929574        158.7672
2016    30      7       0.8386401       149.1567
2017    1       0       0.4209307       92.51445
2017    1       1       0.7677926       141.5392
2017    1       2       0.9840638       165.4821
2017    1       3       0.7564799       140.2593
2017    1       4       0.67469         130.1916
2017    1       5       0.9003451       156.1836
2017    1       6       0.5814511       118.019
2017    1       7       0.4638766       100.2647
2017    2       0       0.4077407       90.6091
2017    2       1       0.4075166       90.58289
2017    2       2       0.2961664       70.84674
2017    2       3       0.2228534       56.58223
2017    2       4       0.2390551       59.45462
2017    2       5       0.3198267       74.93203
2017    2       6       0.4229101       93.18348
2017    2       7       0.4552263       98.077
2017    3       0       0.492342        103.5146
2017    3       1       0.4496996       96.65526
2017    3       2       0.3879551       86.32757
2017    3       3       0.3433211       78.44588
2017    3       4       0.3326239       76.57433
2017    3       5       0.3307487       76.26754
2017    3       6       0.3062943       71.91016
2017    3       7       0.4801401       100.6887
2017    4       0       0.5420024       110.2107
2017    4       1       0.4085112       89.42959
2017    4       2       0.3395738       77.69012
2017    4       3       0.323853        74.90247
2017    4       4       0.3763328       84.34492
2017    4       5       0.5485418       111.3952
2017    4       6       0.9854387       163.8536
2017    4       7       1.010518        166.722
2017    5       0       0.8478071       150.3779
2017    5       1       0.8760755       153.4406
2017    5       2       0.8774068       153.7103
2017    5       3       0.7122797       135.0
2017    5       4       0.5827321       118.2919
2017    5       5       0.7293241       138.0023
2017    5       6       0.8728391       154.4969
2017    5       7       0.839077        150.797
2017    6       0       0.7978287       145.8809
2017    6       1       0.8757384       154.3337
2017    6       2       0.8921636       155.772
2017    6       3       0.8820104       154.7025
2017    6       4       0.878844        154.5206
2017    6       5       0.989007        165.8666
2017    6       6       0.8176939       146.815
2017    6       7       0.8066538       145.6826
2017    7       0       0.7978096       144.7472
2017    7       1       0.7688135       141.7782
2017    7       2       0.6998076       133.5648
2017    7       3       0.5871079       118.6615
2017    7       4       0.5381388       111.622
2017    7       5       0.7176808       134.9646
2017    7       6       0.8500439       151.0209
2017    7       7       0.7207749       137.0017
2017    8       0       0.4815736       103.1578
2017    8       1       0.4509669       97.97501
2017    8       2       0.5379655       111.0204
2017    8       3       0.4395267       96.46473
2017    8       4       0.3452065       80.61815
2017    8       5       0.488192        103.8751
2017    8       6       0.6998844       134.2125
2017    8       7       0.868088        154.4968
2017    9       0       0.9267944       159.8618
2017    9       1       0.4415609       96.06473
2017    9       2       0.4326212       94.00548
2017    9       3       0.4102925       90.76954
2017    9       4       0.506281        106.7542
2017    9       5       0.7446912       138.9264
2017    9       6       0.7878142       144.4826
2017    9       7       0.9111162       158.2425
2017    10      0       0.9472575       160.6758
2017    10      1       0.6899524       132.2733
2017    10      2       0.5649128       115.5907
2017    10      3       0.4087047       91.44741
2017    10      4       0.3838575       87.47236
2017    10      5       0.3496719       81.59112
2017    10      6       0.390365        89.02601
2017    10      7       0.3215116       76.46677
2017    11      0       0.3236901       76.66495
2017    11      1       0.5088664       107.8917
2017    11      2       0.5347437       111.3427
2017    11      3       0.588716        119.4402
2017    11      4       0.7486927       140.7658
2017    11      5       0.9596356       163.7954
2017    11      6       1.007362        167.8147
2017    11      7       0.8595979       153.0173
2017    12      0       0.7292872       137.7618
2017    12      1       0.6947314       133.0892
2017    12      2       0.7856077       143.566
2017    12      3       0.8622116       152.1925
2017    12      4       0.7800816       142.7695
2017    12      5       0.6921326       131.7011
2017    12      6       0.6854775       130.6259
2017    12      7       0.6274482       122.9665
2017    13      0       0.5551129       112.9765
2017    13      1       0.3840593       86.3841
2017    13      2       0.2779175       66.8347
2017    13      3       0.212693        53.99201
2017    13      4       0.2288956       57.14153
2017    13      5       0.2808404       67.47485
2017    13      6       0.4093441       90.67169
2017    13      7       0.5701341       115.5347
2017    14      0       0.4594815       98.79184
2017    14      1       0.2705479       65.54006
2017    14      2       0.2230345       56.11562
2017    14      3       0.2171469       54.88782
2017    14      4       0.2335832       58.41198
2017    14      5       0.274106        66.48807
2017    14      6       0.4802088       103.7421
2017    14      7       0.6009319       121.8678
2017    15      0       0.7400397       139.7765
2017    15      1       0.8296952       149.973
2017    15      2       0.7978406       145.3665
2017    15      3       0.692978        132.1405
2017    15      4       0.549049        112.1366
2017    15      5       0.5265037       109.0152
2017    15      6       0.4869365       103.7033
2017    15      7       0.4854887       103.7234
2017    16      0       0.5136075       107.5631
2017    16      1       0.5832723       118.0431
2017    16      2       0.6721235       129.759
2017    16      3       0.8900374       156.314
2017    16      4       0.7866556       143.2604
2017    16      5       0.5763343       116.164
2017    16      6       0.6031167       119.93
2017    16      7       0.6615719       128.399
2017    17      0       0.6160291       122.6909
2017    17      1       0.6078221       121.5921
2017    17      2       0.6914974       131.9924
2017    17      3       0.4874622       103.8552
2017    17      4       0.5030499       106.6098
2017    17      5       0.6146358       122.896
2017    17      6       0.69391         133.8446
2017    17      7       0.8558251       153.0518
2017    18      0       1.000386        167.8004
2017    18      1       1.003313        167.4358
2017    18      2       0.8965418       155.4352
2017    18      3       0.7975984       144.4799
2017    18      4       0.6607493       127.8952
2017    18      5       0.5910325       118.4552
2017    18      6       0.6483635       126.5934
2017    18      7       0.6782402       130.7776
2017    19      0       0.5330357       110.4514
2017    19      1       0.4188487       92.00528
2017    19      2       0.5398119       111.0375
2017    19      3       0.7180854       134.4383
2017    19      4       0.7702873       141.8957
2017    19      5       0.9659289       163.7265
2017    19      6       0.869084        152.6975
2017    19      7       0.8360399       149.2661
2017    20      0       0.8392137       150.4208
2017    20      1       0.9876104       166.4546
2017    20      2       0.8120124       146.5035
2017    20      3       0.4055992       89.89956
2017    20      4       0.223676        56.65928
2017    20      5       0.451737        97.83458
2017    20      6       0.56587         115.0121
2017    20      7       0.4169942       91.7627
2017    21      0       0.2420536       60.41936
2017    21      1       0.2593904       63.86125
2017    21      2       0.1972827       51.15423
2017    21      3       0.1284137       36.17422
2017    21      4       0.1174399       33.61942
2017    21      5       0.1150399       33.08412
2017    21      6       0.1738133       46.68287
2017    21      7       0.2907655       69.84335
2017    22      0       0.2222937       56.00005
2017    22      1       0.2271145       56.64033
2017    22      2       0.4036852       89.06836
2017    22      3       0.5933802       119.1099
2017    22      4       0.6253745       124.2683
2017    22      5       0.6161228       123.625
2017    22      6       0.618052        123.926
2017    22      7       0.5372403       112.4819
2017    23      0       0.4590817       99.85288
2017    23      1       0.5782205       117.9412
2017    23      2       0.6277717       124.8621
2017    23      3       0.5763922       117.6911
2017    23      4       0.3960684       89.61917
2017    23      5       0.5483964       113.897
2017    23      6       0.6339105       126.3769
2017    23      7       0.8222209       149.0809
2017    24      0       0.5809458       118.5511
2017    24      1       0.3626947       83.71914
2017    24      2       0.3595501       83.30033
2017    24      3       0.231876        59.30704
2017    24      4       0.2053227       53.84996
2017    24      5       0.195244        51.68164
2017    24      6       0.258666        63.8914
2017    24      7       0.2384241       59.32084
2017    25      0       0.2065206       52.81235
2017    25      1       0.1841612       48.50931
2017    25      2       0.1743441       46.6949
2017    25      3       0.1826281       48.51116
2017    25      4       0.2000405       51.89453
2017    25      5       0.3077962       73.20745
2017    25      6       0.2901687       69.82592
2017    25      7       0.2744788       66.85434
2017    26      0       0.2866117       69.17755
2017    26      1       0.2846252       68.5793
2017    26      2       0.3937691       87.94111
2017    26      3       0.495511        104.518
2017    26      4       0.4891195       103.9544
2017    26      5       0.4697983       101.0582
2017    26      6       0.5623781       115.5729
2017    26      7       0.6142346       123.4205
2017    27      0       0.683915        132.564
2017    27      1       0.9449455       162.4621
2017    27      2       0.8721764       153.6339
2017    27      3       0.7991466       145.0698
2017    27      4       0.7020325       133.8368
2017    27      5       0.5743591       117.0389
2017    27      6       0.7972942       145.3542
2017    27      7       0.8228035       147.8375
2017    28      0       0.7211069       136.398
2017    28      1       0.6865919       132.4382
2017    28      2       0.7872429       144.1292
2017    28      3       0.7992089       144.8493
2017    28      4       0.7303661       137.0715
2017    28      5       0.7039373       133.9317
2017    28      6       0.8707408       152.6926
2017    28      7       1.08761         174.0023
2017    29      0       1.102878        175.1796
2017    29      1       1.133608        178.4548
2017    29      2       1.027421        169.6466
2017    29      3       0.9057379       157.612
2017    29      4       0.7198656       136.3679
2017    29      5       0.772662        143.2309
2017    29      6       0.8055754       147.6181
2017    29      7       0.8171289       149.1345
2017    30      0       0.6421014       127.3468
2017    30      1       0.6765064       131.5786
2017    30      2       0.6948318       134.025
2017    30      3       0.6504586       128.6059
2017    30      4       0.5774046       118.7647
2017    30      5       0.7441808       141.0224
2017    30      6       0.7632374       143.4035
2017    30      7       0.7292574       139.0522
2018    1       0       0.3501721       80.15093
2018    1       1       0.528755        109.4506
2018    1       2       0.6242229       123.1106
2018    1       3       0.5167038       107.3384
2018    1       4       0.4215974       92.0422
2018    1       5       0.4557643       97.35606
2018    1       6       0.4585199       97.8716
2018    1       7       0.4835376       101.788
2018    2       0       0.4219604       92.35357
2018    2       1       0.4537322       97.31347
2018    2       2       0.7305294       135.8143
2018    2       3       1.090415        173.6004
2018    2       4       0.7871234       143.8606
2018    2       5       0.6763784       130.647
2018    2       6       0.6721707       130.0204
2018    2       7       0.781713        143.6648
2018    3       0       0.8220021       147.9623
2018    3       1       0.7278582       136.9038
2018    3       2       0.8196051       147.5419
2018    3       3       0.8666977       152.6498
2018    3       4       0.7271966       137.0118
2018    3       5       0.6229673       123.6002
2018    3       6       0.5877936       118.8835
2018    3       7       0.7254412       137.6629
2018    4       0       0.469963        100.8865
2018    4       1       0.504688        106.2528
2018    4       2       0.6538087       126.8852
2018    4       3       0.707091        133.9388
2018    4       4       0.8224093       148.5407
2018    4       5       0.8797764       155.0792
2018    4       6       0.8057922       147.4485
2018    4       7       0.8503218       152.3238
2018    5       0       0.7666451       142.2079
2018    5       1       0.9608417       163.8576
2018    5       2       1.040325        170.7033
2018    5       3       0.9091314       157.3942
2018    5       4       0.778723        142.5894
2018    5       5       0.8538632       150.3898
2018    5       6       0.8117345       146.5291
2018    5       7       0.7515065       139.7896
2018    6       0       0.7690467       142.0821
2018    6       1       0.9158803       158.7078
2018    6       2       0.8939812       156.1584
2018    6       3       0.7598536       141.312
2018    6       5       0.7888518       144.6896
2018    6       6       0.8013577       146.4811
2018    6       7       0.8557352       152.9443
2018    7       0       0.8152358       148.0162
2018    7       1       0.7349772       138.6629
2018    7       2       0.7506772       140.6837
2018    7       3       0.8415247       150.968
2018    7       4       0.8476898       151.7028
2018    7       5       1.062056        172.8384
2018    7       6       1.105263        177.0784
2018    7       7       1.051415        172.8754
2018    8       0       0.9209507       160.7733
2018    8       1       0.6994718       135.2805
2018    8       2       0.646226        128.2909
2018    8       3       0.5508084       114.8897
2018    8       4       0.5191221       110.3144
2018    8       5       0.5403265       113.5425
2018    8       6       0.665915        130.5782
2018    8       7       0.629137        125.7579
2018    9       0       0.5145598       109.448
2018    9       1       0.6030739       122.512
2018    9       2       0.5635038       116.685
2018    9       3       0.5297364       111.557
2018    9       4       0.4280481       95.55937
2018    9       5       0.4066727       91.92735
2018    9       6       0.3956853       89.95149
2018    9       7       0.4259646       95.01423
2018    10      0       0.4716928       102.6155
2018    10      1       0.5485547       114.3789
2018    10      2       0.5108938       107.834
2018    10      3       0.4629882       100.1099
2018    10      4       0.3481812       80.77201
2018    10      5       0.2402767       60.00316
2018    10      6       0.2323641       58.16925
2018    10      7       0.178646        47.04034
2018    11      0       0.1374578       38.22976
2018    11      1       0.1623893       43.78188
2018    11      2       0.258291        63.71017
2018    11      3       0.2563535       63.11013
2018    11      4       0.2328044       58.35775
2018    11      5       0.2344575       58.815
2018    11      6       0.306012        72.36025
2018    11      7       0.4683365       99.97642
2018    12      0       0.5086354       105.8552
2018    12      1       0.7445852       136.7523
2018    12      2       0.6987089       132.385
2018    12      3       0.6952741       132.413
2018    12      4       0.7005015       133.0191
2018    12      5       0.7904292       144.4378
2018    12      6       0.9222173       158.923
2018    12      7       0.8421119       149.685
2018    13      0       0.7368258       138.4306
2018    13      1       1.043698        172.0239
2018    13      2       0.9635068       163.4771
2018    13      3       0.8177063       147.486
2018    13      4       0.6635181       128.6523
2018    13      5       0.5672399       115.2929
2018    13      6       0.5010024       105.931
2018    13      7       0.5597925       114.7778
2018    14      0       0.6003403       119.9963
2018    14      1       0.7331062       136.384
2018    14      2       0.9442854       162.1328
2018    14      3       0.9343874       159.9045
2018    14      4       0.7762149       142.0681
2018    14      5       0.706225        134.4152
2018    14      6       0.8307715       149.5456
2018    14      7       0.722788        137.5451
2018    15      0       0.7741559       143.9943
2018    15      1       0.8876263       156.8715
2018    15      2       1.043519        171.9426
2018    15      3       0.9752111       164.0903
2018    15      4       0.9923592       166.2836
2018    15      5       0.9884933       165.3831
2018    15      6       1.012023        168.128
2018    15      7       0.6709361       130.5776
2018    16      0       0.621066        124.3224
2018    16      1       0.6550993       128.9452
2018    16      2       0.639996        126.7076
2018    16      3       0.581078        118.0968
2018    16      4       0.5621734       115.4784
2018    16      5       0.6538728       128.2731
2018    16      6       0.7539584       141.126
2018    16      7       0.7095882       135.6026
2018    17      0       0.6502971       127.5721
2018    17      1       0.7697932       142.5975
2018    17      2       0.9763402       165.2476
2018    17      3       1.090889        175.3394
2018    17      4       1.017304        168.7478
2018    17      5       0.9756861       164.6621
2018    17      6       0.8706217       153.6867
2018    17      7       0.720744        136.0539
2018    18      0       0.6520275       127.3211
2018    18      1       0.6534964       127.6335
2018    18      2       0.6834546       131.1013
2018    18      3       0.5890574       118.0852
2018    18      4       0.4755225       101.3498
2018    18      5       0.7061584       133.0623
2018    18      6       0.8454119       148.6097
2018    18      7       1.049043        168.6453
2018    19      0       1.045188        168.8563
2018    19      1       0.9949703       165.3257
2018    19      2       1.237626        185.7671
2018    19      3       1.118977        176.999
2018    19      4       1.043025        170.8217
2018    19      5       0.9532228       162.4279
2018    19      6       1.01274         168.5204
2018    19      7       1.045607        170.4448
2018    20      0       0.9739711       164.0151
2018    20      1       0.9879448       165.8438
2018    20      2       0.963039        163.2413
2018    20      3       0.9114344       157.8277
2018    20      4       0.7550683       140.4579
2018    20      5       0.6516467       127.3907
2018    20      6       0.6396784       125.5554
2018    20      7       0.5177365       108.5901
2018    21      0       0.5144865       108.2909
2018    21      1       0.5589323       114.9123
2018    21      2       0.5652117       116.0515
2018    21      3       0.5202147       109.6894
2018    21      4       0.5909261       120.4443
2018    21      5       0.7497783       140.7812
2018    21      6       0.8011137       147.466
2018    21      7       0.7565838       142.3594
2018    22      0       0.8098665       148.9776
2018    22      1       1.075305        174.7553
2018    22      2       0.959531        163.1872
2018    22      3       0.9491239       161.4064
2018    22      4       0.7382015       138.8114
2018    22      5       0.6313591       126.4897
2018    22      6       0.6328875       126.7776
2018    22      7       0.7136059       137.0783
2018    23      0       0.4716393       102.2237
2018    23      1       0.5686901       117.134
2018    23      2       0.6169238       124.2758
2018    23      3       0.5040219       107.9797
2018    23      4       0.3762367       87.12561
2018    23      5       0.3837853       88.34384
2018    23      6       0.6466585       128.0559
2018    23      7       0.6120715       123.3427
2018    24      0       0.6924526       134.1941
2018    24      1       0.7070903       135.7662
2018    24      2       0.7021866       135.1351
2018    24      3       0.8311649       151.9587
2018    24      4       1.024083        171.6169
2018    24      5       0.7362185       139.9593
2018    24      6       0.9903557       168.0251
2018    24      7       0.7245054       139.0163
2018    25      0       0.4734921       102.9693
2018    25      1       0.4193959       93.9193
2018    25      2       0.365065        84.72287
2018    25      3       0.4955402       106.9191
2018    25      4       0.5663272       117.7245
2018    25      5       0.7327489       140.5868
2018    25      6       0.8294969       152.0157
2018    25      7       0.7897601       146.5569
2018    26      0       0.5222713       110.1055
2018    26      1       0.6306333       125.5273
2018    26      2       0.675287        131.2991
2018    26      3       0.7806591       144.3352
2018    26      4       0.8056998       146.877
2018    26      5       0.6763512       131.3667
2018    26      6       0.6094411       122.6868
2018    26      7       0.741559        139.7535
2018    27      0       0.6700246       130.2616
2018    27      1       0.6452611       126.4086
2018    27      2       0.708646        133.8766
2018    27      3       0.6801949       130.3025
2018    27      4       0.7256822       136.4972
2018    27      5       0.8945735       156.4987
2018    27      6       0.9499208       162.8555
2018    27      7       1.060411        173.6368
2018    28      0       1.208027        186.1055
2018    28      1       1.091772        174.8268
2018    28      2       0.9402998       161.0212
2018    28      3       0.9522813       163.0373
2018    28      4       0.9468528       162.9332
2018    28      5       1.019505        170.1258
2018    28      6       1.162756        181.8494
2018    28      7       1.127807        178.8192
2018    29      0       1.037515        171.1509
2018    29      1       0.896149        157.1043
2018    29      2       0.8767964       154.7937
2018    29      3       0.9570621       163.0332
2018    29      4       1.005719        168.7417
2018    29      5       1.102909        177.0859
2018    29      6       1.032223        170.3965
2018    29      7       0.7343435       139.1509
2018    30      0       0.6677152       131.0182
2018    30      1       0.7821806       143.9916
2018    30      2       0.8028026       146.0136
2018    30      3       0.8764273       153.4866
2018    30      4       0.83895         149.9119
2018    30      5       0.6280723       124.6118
2018    30      6       0.4808827       103.2697
2018    30      7       0.5963127       119.9743
