####################################################################################################
# Month: 06Jun                                                                                     #
# Station: KEN                                                                                     #
# Frequency: 230 GHz                                                                               #
# Columns are: year    day     segment         tau     Tb (K)                                      #
####################################################################################################
2009    1       0       0.367683        87.88336
2009    1       1       0.262599        67.23944
2009    1       2       0.2102527       56.16609
2009    1       3       0.4569815       103.8784
2009    1       4       0.8485475       158.2358
2009    1       5       0.9940964       173.8042
2009    1       6       1.014487        176.054
2009    1       7       0.9848065       172.3179
2009    2       0       0.9268652       165.7406
2009    2       1       0.6569572       131.6781
2009    2       2       0.3962643       90.21323
2009    2       3       0.3336672       79.98611
2009    2       4       0.7068391       140.0754
2009    2       5       0.6940961       138.5639
2009    2       6       0.3794551       89.16325
2009    2       7       0.2407688       62.00059
2009    3       0       0.2043488       54.14983
2009    3       1       0.1644419       45.31564
2009    3       2       0.1909212       51.27031
2009    3       3       0.2869985       71.46805
2009    3       4       0.4386938       99.53948
2009    3       5       0.5431657       116.4451
2009    3       6       0.4829255       106.7714
2009    3       7       0.3422738       82.16028
2009    4       0       0.2760675       69.17334
2009    4       1       0.2724389       68.44148
2009    4       2       0.2653827       67.06689
2009    4       3       0.3026986       74.96138
2009    4       4       0.373968        88.6284
2009    4       5       0.4618913       104.0962
2009    4       6       0.3697494       87.47261
2009    4       7       0.3487206       83.64448
2009    5       0       0.2786426       69.95053
2009    5       1       0.222895        58.30399
2009    5       2       0.2142801       56.50126
2009    5       3       0.3279396       79.77643
2009    5       4       0.5430429       116.8571
2009    5       5       0.5693738       120.853
2009    5       6       0.404105        93.70953
2009    5       7       0.315299        77.13341
2009    6       0       0.3238263       78.52606
2009    6       1       0.3224319       78.26161
2009    6       2       0.2943516       72.75964
2009    6       3       0.28248         70.36398
2009    6       4       0.3743691       87.99413
2009    6       5       0.4427375       100.256
2009    6       6       0.3803655       89.22942
2009    6       7       0.3155448       77.014
2009    7       0       0.2353425       60.49339
2009    7       1       0.1931572       51.26217
2009    7       2       0.1974507       52.11799
2009    7       3       0.2663157       66.71246
2009    7       4       0.4449697       100.2033
2009    7       5       0.4356122       98.69322
2009    7       6       0.3415092       82.05028
2009    7       7       0.2538078       64.61444
2009    8       0       0.2663866       67.17909
2009    8       1       0.261639        66.30264
2009    8       2       0.2528536       64.55224
2009    8       3       0.3137282       76.79638
2009    8       4       0.5819645       122.645
2009    8       5       0.5324487       114.9781
2009    8       6       0.3358315       80.98742
2009    8       7       0.2875283       71.65576
2009    9       0       0.2784436       69.54904
2009    9       1       0.3025655       74.27408
2009    9       2       0.3354981       80.70679
2009    9       3       0.3697846       87.19786
2009    9       4       0.4129414       95.01183
2009    9       5       0.4167233       95.85551
2009    9       6       0.4220876       96.85193
2009    9       7       0.487633        107.8744
2009    10      0       0.4984197       109.5319
2009    10      1       0.4265385       97.07407
2009    10      2       0.4672431       103.8118
2009    10      3       0.49241         107.9465
2009    10      4       0.5035778       109.6359
2009    10      5       0.4861235       106.8639
2009    10      6       0.533382        114.5762
2009    10      7       0.8078933       152.2886
2009    11      0       0.8322449       155.1348
2009    11      1       0.6645237       134.1434
2009    11      2       0.4664313       104.1965
2009    11      3       0.4776605       106.1615
2009    11      4       0.5832953       122.5064
2009    11      5       0.6395192       130.7753
2009    11      6       0.4468581       100.7554
2009    11      7       0.3964718       91.91182
2009    12      0       0.3980399       92.1864
2009    12      1       0.3731225       87.79337
2009    12      2       0.3452414       82.72532
2009    12      3       0.5038366       110.7451
2009    12      4       0.7961166       151.2171
2009    12      5       0.6559432       133.2901
2009    12      6       0.4447644       100.9487
2009    12      7       0.2882453       71.75285
2009    13      0       0.3033836       74.56137
2009    13      1       0.3689301       86.92951
2009    13      2       0.3573897       84.91521
2009    13      3       0.4266694       97.56147
2009    13      4       0.7785017       149.4658
2009    13      5       0.6885298       138.0112
2009    13      6       0.4628683       103.9812
2009    13      7       0.2975616       73.80208
2009    14      0       0.2709337       68.23082
2009    14      1       0.2859102       71.14078
2009    14      2       0.2760621       69.18479
2009    14      3       0.434929        99.15384
2009    14      4       0.7351554       143.789
2009    14      5       0.6153986       127.7078
2009    14      6       0.3336553       81.02169
2009    14      7       0.2200499       58.00394
2009    15      0       0.2411178       62.32166
2009    15      1       0.2660306       67.34856
2009    15      2       0.2867098       71.48787
2009    15      3       0.2964748       73.56107
2009    15      4       0.3973109       92.60105
2009    15      5       0.4246234       97.4774
2009    15      6       0.3205593       78.48036
2009    15      7       0.2629057       67.04454
2009    16      0       0.2730901       69.04532
2009    16      1       0.3044666       75.25595
2009    16      2       0.3801126       89.6502
2009    16      3       0.4776116       106.6603
2009    16      4       0.8131425       153.7004
2009    16      5       0.7807931       149.4269
2009    16      6       0.5160905       112.6206
2009    16      7       0.4028623       93.59488
2009    17      0       0.3531225       84.42987
2009    17      1       0.3467185       83.23086
2009    17      2       0.3319803       80.43574
2009    17      3       0.4186253       96.47651
2009    17      4       0.8266863       155.215
2009    17      5       0.7777202       149.0042
2009    17      6       0.4336844       99.09297
2009    17      7       0.2641385       67.1594
2009    18      0       0.2407314       62.13071
2009    18      1       0.2197236       57.70023
2009    18      2       0.2020275       53.93632
2009    18      3       0.2540906       65.23363
2009    18      4       0.5285158       115.0719
2009    18      5       0.6792597       137.284
2009    18      6       0.4430463       101.1518
2009    18      7       0.3045295       75.70361
2009    19      0       0.3055133       75.78505
2009    19      1       0.3012346       74.84058
2009    19      2       0.2392974       62.05157
2009    19      3       0.4238707       97.53563
2009    19      4       0.535889        115.9396
2009    19      5       0.569655        121.3093
2009    19      6       0.288458        72.28171
2009    19      7       0.1813597       49.48958
2009    20      0       0.1568211       43.69955
2009    20      1       0.1595877       44.25052
2009    20      2       0.1550977       43.27773
2009    20      3       0.2382912       61.6731
2009    20      4       0.2944888       73.25769
2009    20      5       0.3024126       74.91791
2009    20      6       0.2033044       54.34336
2009    20      7       0.1652702       45.79727
2009    21      0       0.1646424       45.5974
2009    21      1       0.114663        33.93526
2009    21      2       0.1026115       31.04044
2009    21      3       0.1770578       48.45758
2009    21      4       0.2857215       71.59305
2009    21      5       0.4156176       96.07328
2009    21      6       0.2757236       69.6601
2009    21      7       0.137952        39.54997
2009    22      0       0.09739622      29.684
2009    22      1       0.08831539      27.39629
2009    22      2       0.09381305      28.77474
2009    22      3       0.2031846       54.13313
2009    22      4       0.3497487       83.68811
2009    22      5       0.4593324       103.4413
2009    22      6       0.2679671       68.12364
2009    22      7       0.1315077       38.08196
2009    23      0       0.09032152      27.98186
2009    23      1       0.08413884      26.43126
2009    23      2       0.08746514      27.26563
2009    23      3       0.1614228       44.91267
2009    23      4       0.2176772       57.34957
2009    23      5       0.2376935       61.67286
2009    23      6       0.2201707       58.07262
2009    23      7       0.1758603       48.44169
2009    24      0       0.1403304       40.15234
2009    24      1       0.162933        45.28236
2009    24      2       0.2027079       54.03375
2009    24      3       0.3570394       85.02439
2009    24      4       0.4868277       107.6066
2009    24      5       0.551006        118.184
2009    24      6       0.5154583       112.8739
2009    24      7       0.3028943       75.29074
2009    25      0       0.1826638       49.88501
2009    25      1       0.2111588       56.02763
2009    25      2       0.26101         66.43597
2009    25      3       0.4388787       99.92902
2009    25      4       0.6684699       134.7697
2009    25      5       0.6955187       138.9014
2009    25      6       0.4528151       102.6224
2009    25      7       0.290617        72.68049
2009    26      0       0.2312258       60.38654
2009    26      1       0.2289969       59.82992
2009    26      2       0.334277        80.8562
2009    26      3       0.4949421       109.5323
2009    26      4       0.6190396       128.3009
2009    26      5       0.6694124       135.5726
2009    26      6       0.3482736       83.9132
2009    26      7       0.1601008       44.74339
2009    27      0       0.1202359       35.28159
2009    27      1       0.1301106       37.5284
2009    27      2       0.1303293       37.55223
2009    27      3       0.209361        55.45923
2009    27      4       0.3788471       89.20967
2009    27      5       0.4969101       109.5423
2009    27      6       0.3379544       81.89047
2009    27      7       0.2074447       55.35476
2009    28      0       0.1770205       48.5304
2009    28      1       0.1825025       49.70292
2009    28      2       0.2434634       62.80791
2009    28      3       0.340561        82.2227
2009    28      4       0.496337        109.5973
2009    28      5       0.8193068       154.6369
2009    28      6       0.918665        166.4624
2009    28      7       0.5863809       124.4145
2009    29      0       0.4570029       103.6753
2009    29      1       0.3322191       81.07181
2009    29      2       0.4300564       98.89076
2009    29      3       0.7421872       144.9227
2009    29      4       1.016783        174.6797
2009    29      5       1.324641        200.9034
2009    29      6       1.261743        196.6008
2009    29      7       0.9201691       166.3086
2009    30      0       0.5355245       115.9818
2009    30      1       0.4086322       94.83872
2009    30      2       0.3795594       89.87609
2009    30      3       0.7776305       150.2084
2009    30      4       1.149293        187.9331
2009    30      5       1.237863        195.4083
2009    30      6       1.047752        179.6622
2009    30      7       0.9198235       166.8174
2010    1       0       0.1998452       53.23461
2010    1       1       0.2203194       57.52843
2010    1       2       0.2317196       59.89294
2010    1       3       0.3544702       84.52818
2010    1       4       0.7708855       148.4364
2010    1       5       0.8991435       163.5505
2010    1       6       0.6447126       131.8704
2010    1       7       0.4430401       100.4174
2010    2       0       0.4317447       98.29087
2010    2       1       0.4109135       94.48559
2010    2       2       0.3936458       91.38813
2010    2       3       0.6280083       129.3986
2010    2       4       0.8370513       156.0514
2010    2       5       0.9312181       166.6589
2010    2       6       0.7806463       149.5604
2010    2       7       0.6464261       131.8201
2010    3       0       0.581433        122.2752
2010    3       1       0.5808063       122.0232
2010    3       2       0.5218164       112.9556
2010    3       3       0.7865675       149.609
2010    3       4       0.9744607       170.4389
2010    3       5       0.7828552       149.4617
2010    3       6       0.5264809       114.0138
2010    3       7       0.3539746       84.0298
2010    4       0       0.273041        68.04675
2010    4       1       0.2345208       60.04749
2010    4       2       0.2145194       55.75065
2010    4       3       0.2669791       67.10277
2010    4       4       0.5834582       123.0306
2010    4       5       0.5970519       124.9173
2010    4       6       0.4899572       108.3088
2010    4       7       0.3148502       76.92054
2010    5       0       0.2826886       70.34612
2010    5       1       0.2986194       73.46071
2010    5       2       0.3731142       87.70422
2010    5       3       0.6294366       129.4996
2010    5       4       1.024534        176.0688
2010    5       5       1.079319        181.5279
2010    5       6       1.079846        182.2469
2010    5       7       0.9176154       165.8079
2010    6       0       0.8897509       162.6852
2010    6       1       0.9525707       169.2956
2010    6       2       0.7436054       144.9623
2010    6       3       1.011497        174.266
2010    6       4       1.164516        188.4223
2010    6       5       1.224136        193.83
2010    6       6       1.114206        184.5024
2010    6       7       0.9072993       163.6809
2010    7       0       0.7334097       142.7845
2010    7       1       0.4953362       108.7364
2010    7       2       0.4001808       92.95307
2010    7       3       0.6133646       127.2305
2010    7       4       0.8801217       160.3546
2010    7       5       0.6611037       133.5713
2010    7       6       0.2959566       73.38777
2010    7       7       0.2523627       64.34659
2010    8       0       0.25328         64.38963
2010    8       1       0.2915078       72.09204
2010    8       2       0.3812615       89.19503
2010    8       3       0.5134963       112.0895
2010    8       4       0.6014722       125.4169
2010    8       5       0.554802        118.5416
2010    8       6       0.4059315       94.18679
2010    8       7       0.3499785       83.92918
2010    9       0       0.3217513       78.4235
2010    9       1       0.2729074       68.59782
2010    9       2       0.3045401       74.80998
2010    9       3       0.3912112       91.42425
2010    9       4       0.6504647       132.6486
2010    9       5       0.6233344       128.4101
2010    9       6       0.5858817       122.625
2010    9       7       0.4220574       96.44581
2010    10      0       0.3584487       85.01638
2010    10      1       0.3306411       79.80082
2010    10      2       0.3215766       78.14778
2010    10      3       0.4670031       104.4719
2010    10      4       0.7215508       141.9044
2010    10      5       0.5424291       116.1969
2010    10      6       0.2986617       73.63059
2010    10      7       0.1651127       45.2366
2010    11      0       0.1556778       43.16888
2010    11      1       0.1562715       43.39445
2010    11      2       0.1835674       49.65877
2010    11      3       0.3715991       87.97857
2010    11      4       0.6924775       138.3085
2010    11      5       0.7122905       141.0623
2010    11      6       0.5791148       122.5886
2010    11      7       0.3958508       92.46388
2010    12      0       0.3645448       86.86539
2010    12      1       0.4104625       95.10717
2010    12      2       0.3685198       87.37277
2010    12      3       0.7054862       140.7109
2010    12      4       0.8676759       160.1032
2010    12      5       0.9116546       164.9383
2010    12      6       0.9293574       167.4152
2010    12      7       0.7433211       145.8626
2010    13      0       0.7656913       148.5165
2010    13      1       0.8799507       161.7472
2010    13      2       0.9004786       163.679
2010    13      3       0.9536951       167.868
2010    13      4       1.264229        195.125
2010    13      5       1.331815        200.9042
2010    13      6       1.306173        199.6706
2010    13      7       1.19619         191.3642
2010    14      0       1.058434        178.697
2010    14      1       0.9829907       170.6697
2010    14      2       0.8933514       161.8648
2010    14      3       0.6946845       137.3437
2010    14      4       0.9215191       164.5816
2010    14      5       0.9210018       164.5843
2010    14      6       0.7752384       148.0334
2010    14      7       0.5699268       120.4299
2010    15      0       0.5209649       112.4106
2010    15      1       0.4410665       98.79549
2010    15      2       0.4284598       96.42771
2010    15      3       0.7155658       140.4444
2010    15      4       1.10086         182.1885
2010    15      5       0.9742411       170.6066
2010    15      6       0.8618261       159.2152
2010    15      7       0.7767853       149.3645
2010    16      0       0.6551072       133.026
2010    16      1       0.5846114       123.0256
2010    16      2       0.7821939       150.2808
2010    16      3       0.9463716       168.0749
2010    16      4       1.148941        186.6502
2010    16      5       1.272087        196.809
2010    16      6       1.243287        194.3705
2010    16      7       1.196642        190.5605
2010    17      0       0.7651777       146.5346
2010    17      1       0.636315        129.5625
2010    17      2       0.7671665       146.9925
2010    17      3       0.7361877       142.672
2010    17      4       0.9511199       167.3899
2010    17      5       0.8390511       155.2621
2010    17      6       0.6983716       138.2
2010    17      7       0.6512274       131.7054
2010    18      0       0.5963448       123.6738
2010    18      1       0.5428781       115.9519
2010    18      2       0.5894298       123.4522
2010    18      3       0.5869428       123.2922
2010    18      4       0.7359969       143.6347
2010    18      5       0.7487904       145.362
2010    18      6       0.6923696       138.1845
2010    18      7       0.5213474       112.9206
2010    19      0       0.4662849       103.924
2010    19      1       0.4271309       97.29695
2010    19      2       0.3807183       89.21355
2010    19      3       0.4542334       102.1975
2010    19      4       0.8014228       151.9374
2010    19      5       0.8009251       151.3335
2010    19      6       0.5792799       121.6687
2010    19      7       0.4310016       98.11686
2010    20      0       0.3666197       86.50379
2010    20      1       0.3000057       73.72456
2010    20      2       0.3190049       77.5937
2010    20      3       0.3830346       89.81338
2010    20      4       0.5692719       120.5743
2010    20      5       0.5729233       120.7242
2010    20      6       0.5102589       111.076
2010    20      7       0.4079044       94.0357
2010    21      0       0.3707816       87.17451
2010    21      1       0.3076914       75.2426
2010    21      2       0.2874334       71.15828
2010    21      3       0.3308017       79.59662
2010    21      4       0.6096907       126.4897
2010    21      5       0.6237203       128.375
2010    21      6       0.4225167       96.67785
2010    21      7       0.3180788       77.15553
2010    22      0       0.3500468       83.31317
2010    22      1       0.5988147       125.1794
2010    22      2       0.5222154       113.4752
2010    22      3       0.6932549       137.544
2010    22      4       0.9949705       171.9298
2010    22      5       1.021142        175.2874
2010    22      6       0.7085734       140.5015
2010    22      7       0.3638772       86.12222
2010    23      0       0.3031324       74.46595
2010    23      1       0.2856586       71.1136
2010    23      2       0.2974851       73.63014
2010    23      3       0.3650276       86.7518
2010    23      4       0.7421862       145.1817
2010    23      5       0.5465337       117.6339
2010    23      6       0.3690082       87.66692
2010    23      7       0.3457391       83.11265
2010    24      0       0.3445858       82.89387
2010    24      1       0.300576        74.51784
2010    24      2       0.2915864       72.77338
2010    24      3       0.5306828       115.4425
2010    24      4       0.8284161       155.9078
2010    24      5       0.776454        149.7174
2010    24      6       0.5861141       124.1994
2010    24      7       0.3296166       80.38309
2010    25      0       0.2606155       66.47312
2010    25      1       0.2057554       54.7839
2010    25      2       0.2513098       64.56181
2010    25      3       0.4966523       109.933
2010    25      4       0.7246001       142.9876
2010    25      5       0.5546429       118.9884
2010    25      6       0.400222        93.56422
2010    25      7       0.2464764       63.85702
2010    26      0       0.2181779       57.69228
2010    26      1       0.2087138       55.58431
2010    26      2       0.2021736       54.25088
2010    26      3       0.2813757       71.22198
2010    26      4       0.7472576       146.5042
2010    26      5       0.8638232       160.4577
2010    26      6       0.6716718       136.2197
2010    26      7       0.327458        79.93943
2010    27      0       0.1940344       52.32446
2010    27      1       0.1873929       50.75736
2010    27      2       0.2381472       61.57873
2010    27      3       0.4109284       95.18146
2010    27      4       0.5521949       118.5245
2010    27      5       0.6466297       132.3371
2010    27      6       0.4931611       109.218
2010    27      7       0.3112992       76.55179
2010    28      0       0.3377971       81.20653
2010    28      1       0.3449439       82.39825
2010    28      2       0.3403929       81.48083
2010    28      3       0.409216        94.10541
2010    28      4       0.5818903       122.1811
2010    28      5       0.6516108       132.491
2010    28      6       0.4519507       101.7143
2010    28      7       0.3688069       86.92803
2010    29      0       0.3402552       81.36173
2010    29      1       0.323978        78.21239
2010    29      2       0.3088659       75.36243
2010    29      3       0.3138318       76.42179
2010    29      4       0.6648974       134.2871
2010    29      5       0.787483        150.1545
2010    29      6       0.60798         126.5966
2010    29      7       0.375411        88.62081
2010    30      0       0.381802        89.53001
2010    30      1       0.5033015       110.3427
2010    30      2       0.405423        93.77274
2010    30      3       0.4952508       108.8116
2010    30      4       0.9380585       166.6021
2010    30      5       0.9588712       169.1889
2010    30      6       0.8204116       154.4836
2010    30      7       0.4234723       97.04075
2011    1       0       0.3210906       78.51644
2011    1       1       0.246548        63.47681
2011    1       2       0.2362321       61.2508
2011    1       3       0.5461893       117.7277
2011    1       4       1.025177        176.2993
2011    1       5       1.19248         191.4192
2011    1       6       0.9737324       171.692
2011    1       7       0.5483853       118.0889
2011    2       0       0.6123924       127.0801
2011    2       1       0.7383242       143.7492
2011    2       2       0.579818        121.722
2011    2       3       0.8231598       154.4478
2011    2       4       1.203641        191.5246
2011    2       5       1.234274        194.2606
2011    2       6       1.060908        180.0241
2011    2       7       0.7103386       141.1744
2011    3       0       0.5260668       114.2068
2011    3       1       0.5093354       111.3841
2011    3       2       0.4910605       108.5496
2011    3       3       0.673248        136.0703
2011    3       4       1.120435        185.4298
2011    3       5       1.126482        186.42
2011    3       6       0.7732456       149.8139
2011    3       7       0.5577572       119.8516
2011    4       0       0.610701        127.3558
2011    4       1       0.5961989       125.1478
2011    4       2       0.4995241       110.3138
2011    4       3       0.5945699       125.2193
2011    4       4       0.9768501       172.461
2011    4       5       0.9417588       168.9158
2011    4       6       0.5568875       119.9656
2011    4       7       0.3719367       88.79331
2011    5       0       0.3134206       77.45771
2011    5       1       0.27299         69.19728
2011    5       2       0.2709876       68.70576
2011    5       3       0.4525364       103.0236
2011    5       4       0.7504587       146.4996
2011    5       5       0.8109854       153.9541
2011    5       6       0.5906969       124.8071
2011    5       7       0.3518594       84.69113
2011    6       0       0.3645447       86.94385
2011    6       1       0.3514188       84.41872
2011    6       2       0.3456676       83.415
2011    6       3       0.6272769       130.2009
2011    6       4       0.9665034       170.3349
2011    6       5       1.1212          185.5516
2011    6       6       0.941267        168.5663
2011    6       7       0.5092374       112.0561
2011    7       0       0.381276        90.17704
2011    7       1       0.3978362       93.11242
2011    7       2       0.4039498       94.1784
2011    7       3       0.5589902       120.1693
2011    7       4       0.8229927       155.163
2011    7       5       0.8952797       163.6688
2011    7       6       0.7802905       150.3848
2011    7       7       0.5440649       117.3329
2011    8       0       0.4925507       108.9059
2011    8       1       0.4766956       106.2769
2011    8       2       0.4665751       104.7979
2011    8       3       0.7032355       140.5181
2011    8       4       1.130675        186.2341
2011    8       5       1.188154        191.6647
2011    8       6       0.9386597       168.9164
2011    8       7       0.5754459       122.1957
2011    9       0       0.549945        117.7602
2011    9       1       0.4837006       107.7599
2011    9       2       0.4857658       108.2196
2011    9       3       0.7142521       141.7318
2011    9       4       1.176706        189.8217
2011    9       5       1.349744        203.6052
2011    9       6       1.283983        199.0482
2011    9       7       1.015531        175.708
2011    10      0       1.000442        173.9437
2011    10      1       1.002805        174.2638
2011    10      2       0.9781672       171.792
2011    10      3       1.162789        187.777
2011    10      4       1.157483        186.5092
2011    10      5       1.249241        194.3575
2011    10      6       1.180455        188.9738
2011    10      7       0.9306592       165.6722
2011    11      0       0.7339126       142.4854
2011    11      1       0.6803937       135.5875
2011    11      2       0.5971916       124.165
2011    11      3       0.9819402       170.6818
2011    11      4       1.26574         195.1251
2011    11      5       0.8978975       161.0443
2011    11      6       0.8947098       161.6887
2011    11      7       0.8890066       161.0896
2011    12      0       0.9105965       163.4564
2011    12      1       1.047394        178.3
2011    12      2       1.0789          181.0432
2011    12      3       0.993626        172.1851
2011    12      4       1.041195        176.1344
2011    12      5       0.9142563       163.1398
2011    12      6       0.9171161       163.2362
2011    12      7       0.8611029       157.1843
2011    13      0       0.8034522       150.4038
2011    13      1       0.6956646       137.4192
2011    13      2       0.6883944       136.8586
2011    13      3       0.9287003       165.2066
2011    13      4       1.264596        196.6744
2011    13      5       1.304752        200.0273
2011    13      6       1.225871        193.7027
2011    13      7       1.156236        187.4245
2011    14      0       0.9614178       169.0713
2011    14      1       0.9105346       164.3542
2011    14      2       0.9288578       166.1076
2011    14      3       1.063083        178.7591
2011    14      4       1.117362        183.5906
2011    14      5       0.8949981       162.1389
2011    14      6       0.6825011       136.5319
2011    14      7       0.6075737       126.5902
2011    15      0       0.5859134       123.5716
2011    15      1       0.533857        115.5437
2011    15      2       0.5509462       118.1999
2011    15      3       0.933131        167.0817
2011    15      4       1.316257        200.995
2011    15      5       1.358266        204.1091
2011    15      6       1.057794        179.8855
2011    15      7       0.6430311       132.4088
2011    16      0       0.4708981       105.834
2011    16      1       0.4796066       106.9525
2011    16      2       0.4321146       98.74447
2011    16      3       0.4686536       105.1526
2011    16      4       0.9351362       167.8319
2011    16      5       0.8881986       162.9357
2011    16      6       0.552583        119.0014
2011    16      7       0.4012684       93.92402
2011    17      0       0.3425323       82.86143
2011    17      1       0.2921233       72.86758
2011    17      2       0.3105534       76.46921
2011    17      3       0.4293583       98.62637
2011    17      4       0.678566        137.0353
2011    17      5       0.8467674       158.257
2011    17      6       0.5848252       123.8736
2011    17      7       0.3759484       89.25394
2011    18      0       0.3670713       87.50685
2011    18      1       0.431258        98.70235
2011    18      2       0.4815517       107.0358
2011    18      3       0.718255        141.5919
2011    18      4       1.103105        183.4579
2011    18      5       0.9515691       169.5316
2011    18      6       0.7055047       141.0562
2011    18      7       0.4788688       107.0775
2011    19      0       0.4396367       100.3191
2011    19      1       0.3942399       92.53909
2011    19      2       0.3641834       87.12559
2011    19      3       0.531029        115.5291
2011    19      4       0.9442744       168.507
2011    19      5       0.9871535       173.029
2011    19      6       0.841919        157.8757
2011    19      7       0.4827405       108.0219
2011    20      0       0.3948456       92.66475
2011    20      1       0.349597        84.19345
2011    20      2       0.339214        82.25041
2011    20      3       0.5310679       115.3803
2011    20      4       0.919909        165.2446
2011    20      5       0.8667607       159.7926
2011    20      6       0.5863283       123.6702
2011    20      7       0.5125778       112.1504
2011    21      0       0.4901148       108.2251
2011    21      1       0.4173466       96.02651
2011    21      2       0.3481764       83.63581
2011    21      3       0.4181408       96.40404
2011    21      4       0.855892        158.3214
2011    21      5       0.7868635       150.0445
2011    21      6       0.6210018       128.0722
2011    21      7       0.3055104       75.30252
2011    22      0       0.2447909       62.97951
2011    22      1       0.2181676       57.26846
2011    22      2       0.190709        51.29406
2011    22      3       0.3509645       84.34138
2011    22      4       0.8790902       161.3553
2011    22      5       0.8925706       162.601
2011    22      6       0.7380116       144.7317
2011    22      7       0.5186369       113.5379
2011    23      0       0.3913865       91.80577
2011    23      1       0.4547502       102.8018
2011    23      2       0.5523967       118.5712
2011    23      3       0.8395314       156.846
2011    23      4       0.9953496       172.5689
2011    23      5       0.9383215       167.5929
2011    23      6       0.9616453       170.8576
2011    23      7       0.9318884       167.7387
2011    24      0       0.8180256       154.8438
2011    24      1       0.913187        165.4218
2011    24      2       0.9443531       168.4139
2011    24      3       0.9626373       169.225
2011    24      4       0.992579        172.1358
2011    24      5       0.9812908       171.5127
2011    24      6       0.8190726       154.3438
2011    24      7       0.4896454       107.7378
2011    25      0       0.4176813       94.75726
2011    25      1       0.389195        89.70333
2011    25      2       0.3675332       85.96226
2011    25      3       0.7297703       141.6742
2011    25      4       0.92766         164.4745
2011    25      5       1.047386        176.7568
2011    25      6       1.0301          175.6819
2011    25      7       0.7260967       141.9884
2011    26      0       0.7475272       145.3864
2011    26      1       0.8196031       154.1462
2011    26      2       0.7854016       149.3333
2011    26      3       0.9504235       167.3349
2011    26      4       1.139837        184.8037
2011    26      5       1.100399        181.8069
2011    26      6       1.109436        182.1185
2011    26      7       1.060797        178.2221
2011    27      0       0.7014636       137.4833
2011    27      1       0.5306987       113.6581
2011    27      2       0.5412781       114.8529
2011    27      3       0.9520081       166.6175
2011    27      4       1.109742        182.0996
2011    27      5       1.022094        174.3091
2011    27      6       1.081862        180.9115
2011    27      7       1.044267        177.6087
2011    28      0       0.7786897       147.7149
2011    28      1       0.7438254       142.6762
2011    28      2       0.731678        141.4619
2011    28      3       0.8360214       154.2116
2011    28      4       0.983827        170.4245
2011    28      5       0.882803        160.1621
2011    28      6       0.9221508       165.3997
2011    28      7       0.6754706       135.8797
2011    29      0       0.3855473       90.41022
2011    29      1       0.3007389       74.48124
2011    29      2       0.2753006       69.42403
2011    29      3       0.5637043       119.836
2011    29      4       1.000499        173.2254
2011    29      5       1.06124         179.7515
2011    29      6       1.104411        183.8797
2011    29      7       1.019591        175.807
2011    30      0       0.8863143       161.3025
2011    30      1       0.8202419       153.4367
2011    30      2       0.9372137       166.528
2011    30      3       1.083672        180.0181
2011    30      4       1.155846        186.1999
2011    30      5       1.134804        184.7734
2011    30      6       1.023815        175.2438
2011    30      7       0.9022536       162.9221
2012    1       0       0.1936131       51.86625
2012    1       1       0.1691656       46.37223
2012    1       2       0.1361528       38.73253
2012    1       3       0.2582268       65.53693
2012    1       4       0.5444371       116.5935
2012    1       5       0.7797986       149.3834
2012    1       6       0.8033191       152.7022
2012    1       7       0.5962697       125.1704
2012    2       0       0.3423031       82.21097
2012    2       1       0.3852499       89.51697
2012    2       2       0.3433912       81.76018
2012    2       3       0.4121045       94.47473
2012    2       4       1.052826        178.0283
2012    2       5       0.9621196       169.3784
2012    2       6       0.916072        165.201
2012    2       7       0.6916222       138.1286
2012    3       0       0.4196829       95.39125
2012    3       1       0.3732833       86.69242
2012    3       2       0.4017911       92.12307
2012    3       3       0.7580792       145.5163
2012    3       4       1.119101        183.1245
2012    3       5       1.091982        180.8734
2012    3       6       0.9125827       164.0833
2012    3       7       0.9982933       172.7987
2012    4       0       0.9191517       163.7791
2012    4       1       0.9765153       169.4996
2012    4       2       0.8310656       153.9792
2012    4       3       0.6662398       133.2166
2012    4       4       0.8063673       151.4417
2012    4       5       0.8642621       158.3851
2012    4       6       0.8945096       162.1629
2012    4       7       0.8314249       155.5475
2012    5       0       0.8731091       159.8715
2012    5       1       0.6451797       130.6904
2012    5       2       0.4325114       97.57645
2012    5       3       0.444651        99.86052
2012    5       4       0.7266566       142.0201
2012    5       5       0.779563        149.0469
2012    5       6       0.7097773       140.7476
2012    5       7       0.4223889       96.72843
2012    6       0       0.327684        78.88969
2012    6       1       0.2819792       69.88354
2012    6       2       0.2753499       68.74437
2012    6       3       0.3401805       81.71453
2012    6       4       0.722678        142.1401
2012    6       5       0.6720775       135.7419
2012    6       6       0.574885        121.9628
2012    6       7       0.4520757       102.4428
2012    7       0       0.4023188       93.56301
2012    7       1       0.4410736       99.90294
2012    7       2       0.470572        104.821
2012    7       3       0.6568138       132.9183
2012    7       4       0.9874103       171.2517
2012    7       5       1.005642        173.745
2012    7       6       1.040083        177.9423
2012    7       7       0.9051836       164.4647
2012    8       0       0.7847073       150.4371
2012    8       1       0.7161764       141.4738
2012    8       2       0.8875367       161.7477
2012    8       3       1.001326        173.3336
2012    8       4       1.027514        175.7094
2012    8       5       0.9375482       167.0317
2012    8       6       0.8849337       161.1479
2012    8       7       0.7262055       142.3888
2012    9       0       0.5335135       115.2586
2012    9       1       0.4276065       97.47407
2012    9       2       0.3735046       87.62864
2012    9       3       0.6784398       135.6225
2012    9       4       0.7504647       144.3054
2012    9       5       0.5612174       118.6524
2012    9       6       0.4125927       94.74824
2012    9       7       0.3523362       84.00211
2012    10      0       0.319317        77.37792
2012    10      1       0.2854654       70.53842
2012    10      2       0.275423        68.7524
2012    10      3       0.2851713       70.89177
2012    10      4       0.5141936       111.9952
2012    10      5       0.5261539       114.0354
2012    10      6       0.398132        92.64572
2012    10      7       0.3095499       76.1102
2012    11      0       0.3078154       75.53818
2012    11      1       0.3327659       80.36523
2012    11      2       0.2785839       69.76143
2012    11      3       0.2421089       62.39349
2012    11      4       0.3301908       80.10646
2012    11      5       0.4198946       96.39245
2012    11      6       0.4304034       98.34197
2012    11      7       0.2324719       60.33415
2012    12      0       0.2266996       59.00781
2012    12      1       0.2493824       63.90728
2012    12      2       0.2480839       63.68594
2012    12      3       0.2595207       66.07291
2012    12      4       0.4879988       108.1965
2012    12      5       0.6084953       126.6565
2012    12      6       0.4534418       102.2073
2012    12      7       0.3762583       88.44007
2012    13      0       0.3665124       86.4325
2012    13      1       0.3730639       87.72479
2012    13      2       0.353579        84.12234
2012    13      3       0.3469166       82.69605
2012    13      4       0.4691124       104.1491
2012    13      5       0.481724        106.3215
2012    13      6       0.4232791       96.77851
2012    13      7       0.4196275       96.08862
2012    14      0       0.4358073       98.76784
2012    14      1       0.4104189       94.40915
2012    14      2       0.3541136       84.19715
2012    14      3       0.31368         76.61511
2012    14      4       0.3750703       88.35944
2012    14      5       0.3603268       85.81022
2012    14      6       0.2604477       66.13359
2012    14      7       0.2360392       60.93439
2012    15      0       0.2476703       63.28274
2012    15      1       0.3018793       74.322
2012    15      2       0.3228189       78.52484
2012    15      3       0.2828696       70.57575
2012    15      4       0.3400346       81.86768
2012    15      5       0.4030627       93.64116
2012    15      6       0.3768031       88.88106
2012    15      7       0.3991557       92.8477
2012    16      0       0.4192522       96.44713
2012    16      1       0.4572389       103.1641
2012    16      2       0.4790507       106.9792
2012    16      3       0.6531599       133.8563
2012    16      4       1.092587        182.9674
2012    16      5       1.195997        192.0833
2012    16      6       1.031592        177.4574
2012    16      7       0.6526854       133.2658
2012    17      0       0.6228815       128.7728
2012    17      1       0.5440334       116.8831
2012    17      2       0.5763421       121.8013
2012    17      3       0.8530589       158.6053
2012    17      4       1.264608        196.6229
2012    17      5       1.286551        198.51
2012    17      6       1.100812        183.8147
2012    17      7       0.9234488       166.4905
2012    18      0       0.7417035       144.4895
2012    18      1       0.5727785       120.7279
2012    18      2       0.5777997       121.3059
2012    18      3       0.753063        145.0706
2012    18      4       0.9400717       165.8502
2012    18      5       1.017979        174.5937
2012    18      6       0.8528682       157.9036
2012    18      7       0.5517649       117.8872
2012    19      0       0.4791366       106.3701
2012    19      1       0.4330036       98.741
2012    19      2       0.4404101       100.0585
2012    19      3       0.5285739       114.6658
2012    19      4       0.8433118       156.7727
2012    19      5       0.9032854       163.8844
2012    19      6       0.6930476       138.8308
2012    19      7       0.448309        101.758
2012    20      0       0.5106643       111.9464
2012    20      1       0.6376284       131.0487
2012    20      2       0.59471         124.6968
2012    20      3       0.5925932       124.0873
2012    20      4       0.8778448       160.7163
2012    20      5       0.9266072       166.1788
2012    20      6       0.8929349       162.7981
2012    20      7       0.6471631       132.3139
2012    21      0       0.4858645       107.3518
2012    21      1       0.4781299       105.9215
2012    21      2       0.4389987       99.45842
2012    21      3       0.5470511       117.4692
2012    21      4       0.9044597       163.4505
2012    21      5       1.174829        188.936
2012    21      6       1.033419        176.9219
2012    21      7       0.8665033       159.6265
2012    22      0       0.6864621       136.7744
2012    22      1       0.7602755       146.5279
2012    22      2       0.6963812       138.3359
2012    22      3       0.6707862       134.692
2012    22      4       0.9357908       166.3168
2012    22      5       0.9977815       172.8556
2012    22      6       0.8255358       154.1694
2012    22      7       0.5792549       121.8289
2012    23      0       0.6935578       137.8181
2012    23      1       0.5417142       116.059
2012    23      2       0.5097487       111.0419
2012    23      3       0.8182173       153.0057
2012    23      4       1.024801        174.4507
2012    23      5       1.089852        181.4469
2012    23      6       0.9251192       165.609
2012    23      7       0.8867571       160.6352
2012    24      0       0.8780507       160.0594
2012    24      1       0.7332467       142.8132
2012    24      2       0.6105697       125.6606
2012    24      3       0.671427        133.9763
2012    24      4       0.9929375       171.4232
2012    24      5       0.9077104       163.3995
2012    24      6       0.8774805       160.6934
2012    24      7       0.6607051       133.6614
2012    25      0       0.5530502       118.001
2012    25      1       0.5711656       120.9697
2012    25      2       0.4985477       109.6229
2012    25      3       0.8057986       152.6054
2012    25      4       1.132331        185.5293
2012    25      5       1.20279         192.0837
2012    25      6       0.8830395       160.7304
2012    25      7       0.802143        150.4965
2012    26      0       0.8658296       157.3755
2012    26      1       0.7117532       138.8749
2012    26      2       0.5585794       117.6412
2012    26      3       0.5446913       116.13
2012    26      4       0.7061339       139.3296
2012    26      5       0.7058851       139.645
2012    26      6       0.5635184       119.6036
2012    26      7       0.3939371       91.73334
2012    27      0       0.3146946       76.7435
2012    27      1       0.2907601       71.81134
2012    27      2       0.301376        73.85754
2012    27      3       0.3766022       88.11437
2012    27      4       0.6496453       132.1994
2012    27      5       0.8975563       163.1353
2012    27      6       0.9483482       168.827
2012    27      7       0.7161056       141.4876
2012    28      0       0.7493289       144.8082
2012    28      1       0.8375585       155.1074
2012    28      2       0.6757601       135.1081
2012    28      3       0.7071971       139.8606
2012    28      4       0.7204402       142.1226
2012    28      5       0.6847951       137.7392
2012    28      6       0.6979414       139.6219
2012    28      7       0.5020024       110.7304
2012    29      0       0.4598319       103.6458
2012    29      1       0.4559702       102.8378
2012    29      2       0.4735509       105.7381
2012    29      3       0.5786464       122.707
2012    29      4       0.9906603       173.3962
2012    29      5       1.203257        192.6968
2012    29      6       1.019259        176.5507
2012    29      7       0.5041609       111.443
2012    30      0       0.4124592       95.67675
2012    30      1       0.3909966       91.55694
2012    30      2       0.3580323       85.49136
2012    30      3       0.5139819       112.8057
2012    30      4       0.9193973       166.2782
2012    30      5       0.8930618       163.6796
2012    30      6       0.9531512       170.4046
2012    30      7       0.6376779       131.6802
2013    1       0       0.3605795       85.69782
2013    1       1       0.3165121       77.39747
2013    1       2       0.2959998       73.43314
2013    1       3       0.3448951       82.94276
2013    1       4       0.4642952       104.3569
2013    1       5       0.4373273       99.7714
2013    1       6       0.3123964       76.90057
2013    1       7       0.2777286       69.95667
2013    2       0       0.2627789       66.82035
2013    2       1       0.1983317       53.1776
2013    2       2       0.1987049       53.16213
2013    2       3       0.2635687       66.98209
2013    2       4       0.4188153       96.60669
2013    2       5       0.4003283       93.32749
2013    2       6       0.2978594       73.98457
2013    2       7       0.2225242       58.43141
2013    3       0       0.2345086       60.88472
2013    3       1       0.242871        62.61456
2013    3       2       0.2396351       61.85321
2013    3       3       0.4881226       107.991
2013    3       4       0.6317762       129.7067
2013    3       5       0.5922907       124.2766
2013    3       6       0.2878215       71.75064
2013    3       7       0.1622122       44.85762
2013    4       0       0.1478052       41.43031
2013    4       1       0.166244        45.77495
2013    4       2       0.2005692       53.47163
2013    4       3       0.3508243       83.94248
2013    4       4       0.5921612       124.0348
2013    4       5       0.491678        108.4336
2013    4       6       0.3601875       85.70756
2013    4       7       0.226606        59.23202
2013    5       0       0.2144648       56.61167
2013    5       1       0.1878783       50.79077
2013    5       2       0.1821879       49.51532
2013    5       3       0.3104591       76.30565
2013    5       4       0.6400516       130.2779
2013    5       5       0.7217045       141.2662
2013    5       6       0.6370073       130.2467
2013    5       7       0.4241847       97.2143
2013    6       0       0.4343928       99.10618
2013    6       1       0.5136457       112.3078
2013    6       2       0.5604674       119.523
2013    6       3       0.558614        118.8286
2013    6       4       0.9290406       165.4272
2013    6       5       1.003313        173.6185
2013    6       6       0.9937357       172.6976
2013    6       7       0.8022229       152.2286
2013    7       0       0.630753        129.604
2013    7       1       0.7512391       145.8574
2013    7       2       0.613582        127.0163
2013    7       3       0.6414696       130.6519
2013    7       4       0.9739073       170.1859
2013    7       5       1.02718         175.5364
2013    7       6       1.003707        173.2037
2013    7       7       0.7969141       151.7133
2013    8       0       0.7943112       151.5028
2013    8       1       0.7922057       150.4001
2013    8       2       0.7147688       140.8453
2013    8       3       0.8297783       155.4546
2013    8       4       0.9603932       168.9464
2013    8       5       0.800144        151.2694
2013    8       6       0.6091914       126.3815
2013    8       7       0.4549692       102.4917
2013    9       0       0.3581939       85.08842
2013    9       1       0.340085        81.63094
2013    9       2       0.3198052       77.82715
2013    9       3       0.6169528       126.9259
2013    9       4       0.8297418       154.2451
2013    9       5       0.71074         140.2285
2013    9       6       0.8137541       153.8291
2013    9       7       0.5075914       111.2386
2013    10      0       0.4253938       97.33988
2013    10      1       0.4264919       97.35989
2013    10      2       0.4189834       96.03741
2013    10      3       0.7242711       141.4178
2013    10      4       1.185705        189.4332
2013    10      5       1.281422        197.0373
2013    10      6       1.242929        194.6752
2013    10      7       1.025321        176.1868
2013    11      0       0.9014547       163.245
2013    11      1       0.9620497       169.3715
2013    11      2       0.821161        153.6009
2013    11      3       0.8767238       159.2761
2013    11      4       1.135692        184.8696
2013    11      5       1.176672        188.751
2013    11      6       1.078646        180.9245
2013    11      7       0.6040248       125.7767
2013    12      0       0.5057035       110.6822
2013    12      1       0.5557262       118.6889
2013    12      2       0.8060994       153.0169
2013    12      3       0.7296727       142.7855
2013    12      4       0.996948        172.6409
2013    12      5       1.011479        174.6341
2013    12      6       0.6925471       138.2389
2013    12      7       0.4663468       104.2741
2013    13      0       0.4170594       95.79607
2013    13      1       0.4712921       105.1206
2013    13      2       0.4990545       109.5925
2013    13      3       0.5603309       119.0057
2013    13      4       0.825092        154.1271
2013    13      5       0.8408463       156.1704
2013    13      6       0.816161        153.9488
2013    13      7       0.5512814       117.9184
2013    14      0       0.4350915       98.83611
2013    14      1       0.3432694       82.0816
2013    14      2       0.4038295       93.29605
2013    14      3       0.8969645       163.0812
2013    14      4       1.214703        192.5718
2013    14      5       1.334801        202.0725
2013    14      6       1.127784        186.2037
2013    14      7       0.7376702       145.0056
2013    15      0       0.7704799       148.8044
2013    15      1       1.083586        181.8008
2013    15      2       1.06887         180.0117
2013    15      3       1.057246        178.7754
2013    15      4       1.256808        196.0219
2013    15      5       1.375051        205.0813
2013    15      6       1.205162        192.2035
2013    15      7       1.106617        184.32
2013    16      0       1.022429        176.4734
2013    16      1       1.008264        174.2617
2013    16      2       0.9622827       168.3014
2013    16      3       1.037174        175.194
2013    16      4       0.9064199       162.5079
2013    16      5       0.7425797       144.4076
2013    16      6       0.7551079       145.9444
2013    16      7       0.7391463       143.9112
2013    17      0       0.7655383       146.6392
2013    17      1       0.7177287       140.831
2013    17      2       0.7371951       143.7215
2013    17      3       1.155983        187.5576
2013    17      4       1.233534        194.0117
2013    17      5       1.310107        200.1542
2013    17      6       1.270207        197.3533
2013    17      7       1.203728        193.1973
2013    18      0       1.289169        199.2184
2013    18      1       0.9588665       168.8182
2013    18      2       0.8795143       160.1655
2013    18      3       0.8992672       161.9593
2013    18      4       0.9348019       166.042
2013    18      5       0.9749137       170.758
2013    18      6       1.038391        177.5493
2013    18      7       0.9714781       170.0537
2013    19      0       0.8977337       161.8507
2013    19      1       0.8772651       159.8366
2013    19      2       0.857361        157.9043
2013    19      3       1.053314        178.5647
2013    19      4       1.302516        199.7303
2013    19      5       1.369678        205.0637
2013    19      6       1.292287        199.9381
2013    19      7       1.056656        180.2396
2013    20      0       0.9876312       173.4055
2013    20      1       0.9775855       172.0239
2013    20      2       1.038179        177.6924
2013    20      3       1.037243        176.8015
2013    20      4       1.266461        196.1632
2013    20      5       1.257646        195.4744
2013    20      6       1.102184        183.507
2013    20      7       0.5914368       124.3489
2013    21      0       0.4536266       102.3216
2013    21      1       0.4270852       97.48912
2013    21      2       0.4067766       93.92813
2013    21      3       0.5465913       117.6291
2013    21      4       0.8622723       159.0404
2013    21      5       0.6991879       139.4072
2013    21      6       0.4795875       106.7923
2013    21      7       0.3782753       89.03574
2013    22      0       0.4041264       93.53782
2013    22      1       0.4248317       97.19697
2013    22      2       0.4241936       97.08365
2013    22      3       0.4090427       94.47376
2013    22      4       0.4249915       97.53032
2013    22      5       0.4115705       95.23594
2013    22      6       0.3853079       90.39886
2013    22      7       0.382168        89.73258
2013    23      0       0.3690054       87.27152
2013    23      1       0.3619578       85.98785
2013    23      2       0.3598921       85.76355
2013    23      3       0.489982        108.9762
2013    23      4       0.72899         143.6937
2013    23      5       0.7335955       144.2536
2013    23      6       0.5901173       124.574
2013    23      7       0.4088458       95.37859
2013    24      0       0.3088936       76.54177
2013    24      1       0.2635754       67.50634
2013    24      2       0.2447727       63.5965
2013    24      3       0.3740421       89.59165
2013    24      4       0.6994213       140.1383
2013    24      5       0.7115926       142.0184
2013    24      6       0.460995        104.6575
2013    24      7       0.247484        64.43209
2013    25      0       0.2173091       57.64393
2013    25      1       0.2017952       54.20386
2013    25      2       0.2502756       64.53175
2013    25      3       0.4842703       108.0954
2013    25      4       1.035599        177.7325
2013    25      5       1.100344        183.847
2013    25      6       0.9358102       168.3091
2013    25      7       0.5240896       114.5766
2013    26      0       0.4195657       96.86869
2013    26      1       0.3749349       88.83829
2013    26      2       0.3963702       92.74614
2013    26      3       0.7729349       148.8506
2013    26      4       1.215348        192.8472
2013    26      5       1.277385        197.921
2013    26      6       0.9874805       173.1273
2013    26      7       0.6175072       128.3069
2013    27      0       0.6034017       125.9599
2013    27      1       0.5191753       113.1904
2013    27      2       0.4445549       101.007
2013    27      3       0.5829764       123.3924
2013    27      4       0.9854096       172.7991
2013    27      5       1.053895        179.516
2013    27      6       0.9812512       172.8796
2013    27      7       0.6197273       129.013
2013    28      0       0.4795239       107.2268
2013    28      1       0.4310918       98.90656
2013    28      2       0.4573137       103.3199
2013    28      3       0.9077744       164.7572
2013    28      4       1.029663        177.0081
2013    28      5       0.918252        166.1049
2013    28      6       0.661566        135.2372
2013    28      7       0.3911229       92.27415
2013    29      0       0.3058849       75.88276
2013    29      1       0.2658188       67.65651
2013    29      2       0.2507161       64.52376
2013    29      3       0.5713394       121.8913
2013    29      4       0.8616145       159.3668
2013    29      5       0.9310059       166.9791
2013    29      6       0.7544228       147.0498
2013    29      7       0.3420425       82.97329
2013    30      0       0.2622665       66.97004
2013    30      1       0.1954311       52.56863
2013    30      2       0.1758266       48.11489
2013    30      3       0.2910462       72.7655
2013    30      4       0.6909758       138.2824
2013    30      5       0.7797368       149.6935
2013    30      6       0.6350522       130.7365
2013    30      7       0.3276648       79.7962
2014    1       0       0.84102         157.6748
2014    1       1       0.62904         130.0322
2014    1       2       0.4942807       109.2952
2014    1       3       0.8266426       155.4122
2014    1       4       1.169689        189.0695
2014    1       5       1.278572        198.1329
2014    1       6       1.048038        178.8318
2014    1       7       0.6212807       128.4667
2014    2       0       0.5346694       115.1802
2014    2       1       0.4508019       101.4022
2014    2       2       0.3844952       89.70238
2014    2       3       0.4133505       94.93996
2014    2       4       0.647723        131.9287
2014    2       5       0.8512073       158.1367
2014    2       6       0.6122722       127.5544
2014    2       7       0.3929349       91.95986
2014    3       0       0.3787006       89.06773
2014    3       1       0.3732896       88.03631
2014    3       2       0.3832903       89.76471
2014    3       3       0.6171507       127.927
2014    3       4       1.028223        176.5146
2014    3       5       1.112375        184.6304
2014    3       6       0.9309231       167.3389
2014    3       7       0.6764499       136.2863
2014    4       0       0.6019495       125.6415
2014    4       1       0.4663931       104.3311
2014    4       2       0.3916859       91.25811
2014    4       3       0.4862793       107.8621
2014    4       4       0.8913263       162.5093
2014    4       5       0.9685003       170.7222
2014    4       6       0.7850119       150.6232
2014    4       7       0.5755524       122.2213
2014    5       0       0.5460014       117.5694
2014    5       1       0.5339286       115.6154
2014    5       2       0.5609941       119.4975
2014    5       3       0.9456988       167.9117
2014    5       4       1.167103        188.999
2014    5       5       1.236542        194.9499
2014    5       6       1.365166        203.9561
2014    5       7       1.198026        191.4776
2014    6       0       0.9256817       166.3327
2014    6       1       0.9998935       173.4788
2014    6       2       0.9220049       164.349
2014    6       3       1.125948        183.5637
2014    6       4       1.267445        195.1442
2014    6       5       1.243206        193.8374
2014    6       6       1.24348         194.4117
2014    6       7       1.050023        178.2084
2014    7       0       0.8384246       155.8999
2014    7       1       0.7253082       142.1774
2014    7       2       0.7725242       148.4375
2014    7       3       1.272052        197.7609
2014    7       4       1.404168        207.0013
2014    7       5       1.245665        195.4898
2014    7       6       1.169175        188.9154
2014    7       7       1.071034        179.8937
2014    8       0       0.8018256       151.1664
2014    8       1       0.5512239       116.7267
2014    8       2       0.4080584       93.14133
2014    8       3       0.332791        79.65451
2014    8       4       0.5268612       114.0161
2014    8       5       0.4699223       104.9365
2014    8       6       0.4841015       107.4352
2014    8       7       0.4393726       99.84513
2014    9       0       0.3961309       92.14857
2014    9       1       0.3810122       89.36123
2014    9       2       0.3655199       86.44792
2014    9       3       0.6040704       126.4478
2014    9       4       0.9732662       171.274
2014    9       5       0.9447993       168.6151
2014    9       6       0.8477584       158.2482
2014    9       7       0.6188734       128.5483
2014    10      0       0.5912282       124.1724
2014    10      1       0.6527173       132.6261
2014    10      2       0.5683722       119.7239
2014    10      3       0.6815839       136.0136
2014    10      4       1.086095        180.7234
2014    10      5       1.253062        194.7991
2014    10      6       1.23211         193.856
2014    10      7       1.013912        174.9467
2014    11      0       0.8661478       159.3281
2014    11      1       0.7359158       143.3629
2014    11      2       0.7058966       139.3499
2014    11      3       0.842123        155.6585
2014    11      4       1.118302        183.3777
2014    11      5       1.213187        191.6862
2014    11      6       1.237795        194.3223
2014    11      7       1.091569        182.1544
2014    12      0       0.7401816       144.2038
2014    12      1       0.6032578       125.7173
2014    12      2       0.5476863       117.5871
2014    12      3       0.7198703       142.0999
2014    12      4       1.038021        177.1776
2014    12      5       1.112765        184.4705
2014    12      6       0.924218        166.22
2014    12      7       0.8915985       162.4851
2014    13      0       0.6705111       134.6513
2014    13      1       0.5929012       123.4316
2014    13      2       0.5738502       120.4919
2014    13      3       0.8494744       156.4861
2014    13      4       1.272094        196.5335
2014    13      5       1.337041        201.9406
2014    13      6       1.147551        187.9106
2014    13      7       0.9800914       172.1025
2014    14      0       0.7734916       148.2587
2014    14      1       0.7574962       146.1014
2014    14      2       0.6956172       137.4658
2014    14      3       1.065207        178.8122
2014    14      4       1.209976        191.6479
2014    14      5       1.12715         185.7048
2014    14      6       0.8243342       155.1185
2014    14      7       0.7207983       142.0973
2014    15      0       0.5843313       122.7276
2014    15      1       0.5598745       119.1754
2014    15      2       0.5476961       117.3741
2014    15      3       0.8158982       153.8126
2014    15      4       1.030559        176.647
2014    15      5       0.755081        146.7341
2014    15      6       0.4556129       103.1864
2014    15      7       0.3110637       76.69876
2014    16      0       0.22963         59.55834
2014    16      1       0.2286418       59.18333
2014    16      2       0.2452259       62.51012
2014    16      3       0.3009899       74.02304
2014    16      4       0.5280277       114.3593
2014    16      5       0.7391106       144.8148
2014    16      6       0.4736451       106.0546
2014    16      7       0.3235044       79.04472
2014    17      0       0.288533        71.7472
2014    17      1       0.278127        69.50344
2014    17      2       0.2867694       71.32935
2014    17      3       0.3697075       87.60052
2014    17      4       0.6312393       130.0823
2014    17      5       0.6162496       128.1991
2014    17      6       0.4525202       102.391
2014    17      7       0.3211575       78.47248
2014    18      0       0.2812126       70.23089
2014    18      1       0.3018371       74.30907
2014    18      2       0.3141946       76.83419
2014    18      3       0.4240705       97.35244
2014    18      4       0.6448715       132.0271
2014    18      5       0.7004753       139.8262
2014    18      6       0.4540979       102.771
2014    18      7       0.2928788       73.05112
2014    19      0       0.2280611       59.31141
2014    19      1       0.208294        54.91678
2014    19      2       0.2424138       62.26386
2014    19      3       0.4494006       101.3835
2014    19      4       0.9026749       163.0934
2014    19      5       0.9669419       170.3397
2014    19      6       0.6784693       136.7012
2014    19      7       0.4929942       108.9181
2014    20      0       0.4416269       100.0206
2014    20      1       0.4202447       96.08173
2014    20      2       0.5463527       116.6021
2014    20      3       0.9815367       171.3441
2014    20      4       1.316555        200.402
2014    20      5       1.179511        190.3693
2014    20      6       0.9166722       165.6104
2014    20      7       0.8410623       157.0729
2014    21      0       0.7045316       139.7815
2014    21      1       0.7253174       142.4805
2014    21      2       0.7135826       140.9895
2014    21      3       0.6795474       136.4362
2014    21      4       1.036373        177.0572
2014    21      5       0.9822932       171.9673
2014    21      6       0.7894104       150.8212
2014    21      7       0.5726618       121.5772
2014    22      0       0.5331134       115.4844
2014    22      1       0.4332168       98.82995
2014    22      2       0.3618748       86.08441
2014    22      3       0.3971136       92.57773
2014    22      4       0.5189599       113.2018
2014    22      5       0.5358206       115.9522
2014    22      6       0.5116323       112.0611
2014    22      7       0.6030993       125.8824
2014    23      0       0.5019228       110.2516
2014    23      1       0.4287322       98.0102
2014    23      2       0.3861391       90.57376
2014    23      3       0.3602286       85.87793
2014    23      4       0.4841003       107.9921
2014    23      5       0.5340444       116.1062
2014    23      6       0.4147553       96.10902
2014    23      7       0.35793         85.73295
2014    24      0       0.3135284       77.11105
2014    24      1       0.2808341       70.53876
2014    24      2       0.2892796       72.21469
2014    24      3       0.3700831       87.99382
2014    24      4       0.6342617       130.7322
2014    24      5       0.7183375       142.1399
2014    24      6       0.5389631       116.544
2014    24      7       0.461747        103.9872
2014    25      0       0.4237273       97.47083
2014    25      1       0.3970736       92.68097
2014    25      2       0.3851081       90.4711
2014    25      3       0.6603287       134.551
2014    25      4       1.05801         178.9927
2014    25      5       1.056457        178.7533
2014    25      6       0.6609026       134.1871
2014    25      7       0.3697649       87.68081
2014    26      0       0.3326987       80.46615
2014    26      1       0.3797638       89.21664
2014    26      2       0.3943495       91.7072
2014    26      3       0.521609        113.336
2014    26      4       0.9116287       164.0749
2014    26      5       0.8144259       152.9548
2014    26      6       0.5213914       113.3138
2014    26      7       0.3131186       76.62148
2014    27      0       0.2790302       69.80268
2014    27      1       0.2151629       56.63972
2014    27      2       0.1838978       49.75859
2014    27      3       0.2128825       56.16825
2014    27      4       0.5845782       123.2501
2014    27      5       0.5208205       113.4891
2014    27      6       0.3260146       79.46259
2014    27      7       0.1785569       48.73199
2014    28      0       0.1464555       41.40638
2014    28      1       0.1417698       40.27758
2014    28      2       0.1674497       46.15697
2014    28      3       0.2545981       65.124
2014    28      4       0.6839947       137.0675
2014    28      5       0.7031053       139.554
2014    28      6       0.4697764       105.2675
2014    28      7       0.2914984       72.72881
2014    29      0       0.2933319       72.86009
2014    29      1       0.3057869       75.22265
2014    29      2       0.2638634       66.94798
2014    29      3       0.3330108       80.74045
2014    29      4       0.6492072       132.348
2014    29      5       0.6061175       126.0019
2014    29      6       0.344864        83.03298
2014    29      7       0.1333726       38.43395
2014    30      0       0.1098914       32.65337
2014    30      1       0.1415518       40.0287
2014    30      2       0.1913094       51.27626
2014    30      3       0.2162972       56.78001
2014    30      4       0.4604364       103.2253
2014    30      5       0.6883154       137.6978
2014    30      6       0.3590837       85.55269
2014    30      7       0.2634322       66.8233
2015    1       0       0.622317        128.9418
2015    1       1       0.6598115       134.0665
2015    1       2       0.5170756       112.6263
2015    1       3       0.6631559       134.4533
2015    1       4       1.062873        179.6453
2015    1       5       1.116009        184.3224
2015    1       6       1.094974        183.097
2015    1       7       1.013168        175.4214
2015    2       0       0.9260669       166.2773
2015    2       1       0.8189916       154.4499
2015    2       2       0.644482        131.5312
2015    2       3       0.757271        146.3144
2015    2       4       0.9287404       166.4281
2015    2       5       0.9914239       173.0698
2015    2       6       0.8600916       159.3958
2015    2       7       0.4675959       104.9102
2015    3       0       0.3017321       74.57586
2015    3       1       0.2574674       65.60692
2015    3       2       0.3124514       77.03451
2015    3       3       0.4849467       108.2531
2015    3       4       0.7700225       148.5278
2015    3       5       0.8242015       154.9398
2015    3       6       0.5630485       120.2111
2015    3       7       0.3907886       91.74994
2015    4       0       0.3374727       81.84566
2015    4       1       0.321908        78.76411
2015    4       2       0.3641691       86.5096
2015    4       3       0.719466        141.2651
2015    4       4       1.003985        173.4355
2015    4       5       1.160991        188.1447
2015    4       6       1.094301        182.4595
2015    4       7       0.8475773       157.2793
2015    5       0       0.5943343       124.3051
2015    5       1       0.4340501       97.87679
2015    5       2       0.3695048       86.00154
2015    5       3       0.5195304       112.2055
2015    5       4       0.7283687       142.1459
2015    5       5       0.8725925       159.9654
2015    5       6       0.6631643       133.8566
2015    5       7       0.31804         76.86955
2015    6       0       0.289286        70.94243
2015    6       1       0.3082527       74.6051
2015    6       2       0.3023918       73.74029
2015    6       3       0.6149786       126.6869
2015    6       4       1.105506        182.3991
2015    6       5       1.27264         196.5769
2015    6       6       1.029527        175.8269
2015    6       7       0.7916154       150.2294
2015    7       0       0.7286589       141.5308
2015    7       1       0.630265        127.7783
2015    7       2       0.5363411       113.944
2015    7       3       0.5007404       108.7069
2015    7       4       0.749688        144.3172
2015    7       5       0.9162933       164.3573
2015    7       6       0.8225317       153.8008
2015    7       7       0.5439398       115.6757
2015    8       0       0.3593954       84.08845
2015    8       1       0.3793312       87.58648
2015    8       2       0.4165797       94.25231
2015    8       3       0.4942495       107.5137
2015    8       4       0.8457516       156.0854
2015    8       5       0.9954713       172.7626
2015    8       6       1.007058        173.7971
2015    8       7       0.549244        117.241
2015    9       0       0.5003848       109.4229
2015    9       1       0.5877269       123.0354
2015    9       2       0.6438913       131.1305
2015    9       3       0.9938013       172.5179
2015    9       4       1.220583        192.4704
2015    9       5       1.175255        188.9365
2015    9       6       0.9480946       168.2896
2015    9       7       0.6582642       133.4788
2015    10      0       0.5068516       110.421
2015    10      1       0.4663419       103.5451
2015    10      2       0.4729264       104.7481
2015    10      3       0.6395222       130.562
2015    10      4       0.9886598       172.0075
2015    10      5       1.086215        181.7819
2015    10      6       1.136472        186.3185
2015    10      7       1.005951        173.8551
2015    11      0       0.8440424       156.3899
2015    11      1       0.5599755       118.3133
2015    11      2       0.5288519       113.5022
2015    11      3       0.8389236       155.535
2015    11      4       0.8846367       160.6259
2015    11      5       0.7632086       146.7721
2015    11      6       0.7020188       139.0052
2015    11      7       0.4756881       105.0714
2015    12      0       0.4295963       96.68514
2015    12      1       0.3907023       89.63046
2015    12      2       0.400127        91.70169
2015    12      3       0.5526872       117.4814
2015    12      4       0.8938134       162.091
2015    12      5       0.7932564       150.6341
2015    12      6       0.691816        138.3802
2015    12      7       0.4816869       106.9425
2015    13      0       0.2880053       71.5797
2015    13      1       0.2177203       56.93069
2015    13      2       0.3002187       73.9943
2015    13      3       0.5442896       116.7853
2015    13      4       0.8470177       157.0735
2015    13      5       0.9014094       163.8876
2015    13      6       0.842664        157.9503
2015    13      7       0.6602579       134.5278
2015    14      0       0.5544111       118.352
2015    14      1       0.4567463       102.471
2015    14      2       0.3911232       91.13071
2015    14      3       0.6745956       136.0524
2015    14      4       0.9954405       173.2083
2015    14      5       1.008784        174.5031
2015    14      6       0.7581636       147.0805
2015    14      7       0.7060503       140.6279
2015    15      0       0.5297605       114.9438
2015    15      1       0.5344483       115.5605
2015    15      2       0.6141818       127.3936
2015    15      3       0.9282349       165.7524
2015    15      4       1.161496        187.2173
2015    15      5       1.142224        186.0364
2015    15      6       0.872428        159.7923
2015    15      7       0.6871308       136.9324
2015    16      0       0.6036215       125.0152
2015    16      1       0.5760197       121.0618
2015    16      2       0.5850884       122.6784
2015    16      3       0.9172758       164.95
2015    16      4       1.245897        195.2516
2015    16      5       1.202614        192.5338
2015    16      6       0.9816877       172.8855
2015    16      7       0.6405068       131.9191
2015    17      0       0.526272        114.3855
2015    17      1       0.5227167       113.5593
2015    17      2       0.5448871       116.7767
2015    17      3       0.8381281       155.9742
2015    17      4       1.166571        188.9937
2015    17      5       1.159209        188.9339
2015    17      6       0.8978294       164.1568
2015    17      7       0.6966332       139.7253
2015    18      0       0.5952881       125.2669
2015    18      1       0.5571317       119.2518
2015    18      2       0.6571439       133.4925
2015    18      3       1.062213        179.2172
2015    18      4       1.246542        194.4674
2015    18      5       1.125047        184.9579
2015    18      6       0.8262933       155.0936
2015    18      7       0.6053441       126.3413
2015    19      0       0.5705207       120.8954
2015    19      1       0.6384462       130.5387
2015    19      2       0.598754        124.3765
2015    19      3       0.6846756       136.2216
2015    19      4       0.9091303       163.1297
2015    19      5       0.7710809       147.7685
2015    19      6       0.597362        125.2287
2015    19      7       0.4282149       98.1448
2015    20      0       0.3056684       75.34215
2015    20      1       0.2969498       73.63992
2015    20      2       0.3445155       82.85628
2015    20      3       0.5652468       120.4742
2015    20      4       0.662825        134.2147
2015    20      5       0.5481576       117.9105
2015    20      6       0.4489346       101.7841
2015    20      7       0.392967        91.95529
2015    21      0       0.3899382       91.27976
2015    21      1       0.3909613       91.51357
2015    21      2       0.3911502       91.69847
2015    21      3       0.3555004       85.30917
2015    21      4       0.6944956       139.0151
2015    21      5       0.7005091       139.7099
2015    21      6       0.3398584       82.29471
2015    21      7       0.254233        65.25311
2015    22      0       0.2679492       67.82985
2015    22      1       0.2421615       62.48312
2015    22      2       0.1922435       51.75928
2015    22      3       0.1929654       51.80261
2015    22      4       0.2344108       60.72707
2015    22      5       0.304417        75.04832
2015    22      6       0.3421321       82.4299
2015    22      7       0.2933235       72.95288
2015    23      0       0.4144368       95.6802
2015    23      1       0.5146167       112.6424
2015    23      2       0.5126166       112.3945
2015    23      3       0.5079997       111.5664
2015    23      4       0.6878655       137.7587
2015    23      5       0.5745556       121.6412
2015    23      6       0.6505321       132.7601
2015    23      7       0.5316439       115.1148
2015    24      0       0.558022        119.0223
2015    24      1       0.679868        136.3315
2015    24      2       0.7477032       145.2435
2015    24      3       0.8532794       158.1768
2015    24      4       0.9049476       163.4954
2015    24      5       0.9927098       172.4276
2015    24      6       0.9624166       169.5975
2015    24      7       0.586381        123.3101
2015    25      0       0.5218411       113.4494
2015    25      1       0.5164607       112.4398
2015    25      2       0.3683651       87.10209
2015    25      3       0.5578629       118.9713
2015    25      4       1.031438        176.1801
2015    25      5       1.210891        192.3645
2015    25      6       1.08442         181.8087
2015    25      7       0.9807073       171.9511
2015    26      0       0.6741641       135.6842
2015    26      1       0.5142991       111.8066
2015    26      2       0.4668142       104.1246
2015    26      3       0.7037726       139.3828
2015    26      4       0.9828207       171.2072
2015    26      5       1.061377        179.2912
2015    26      6       0.7160925       141.49
2015    26      7       0.4346159       99.07735
2015    27      0       0.4046927       93.68735
2015    27      1       0.4159191       95.57232
2015    27      2       0.3859308       90.13243
2015    27      3       0.4369731       99.52888
2015    27      4       0.7250166       142.9331
2015    27      5       0.7573631       147.3427
2015    27      6       0.5314121       115.6308
2015    27      7       0.4092398       95.09481
2015    28      0       0.3672352       87.26643
2015    28      1       0.3575416       85.29799
2015    28      2       0.3111108       76.44234
2015    28      3       0.4444598       101.1518
2015    28      4       0.8359047       156.6535
2015    28      5       0.6998293       139.7764
2015    28      6       0.3529665       84.76806
2015    28      7       0.2891046       72.26346
2015    29      0       0.3840592       90.40115
2015    29      1       0.3851577       90.53661
2015    29      2       0.369541        87.60911
2015    29      3       0.5564395       119.1589
2015    29      4       0.8408255       157.2367
2015    29      5       0.6730505       136.0394
2015    29      6       0.5234061       114.1806
2015    29      7       0.4150981       96.03627
2015    30      0       0.4078356       94.60798
2015    30      1       0.400325        93.21904
2015    30      2       0.4011078       93.40553
2015    30      3       0.5447303       117.2075
2015    30      4       0.9521183       169.1606
2015    30      5       0.9406044       168.2616
2015    30      6       0.6974186       139.7769
2015    30      7       0.5692518       121.5564
2016    1       0       0.1369144       38.98182
2016    1       1       0.1550722       43.09977
2016    1       2       0.1477119       41.37177
2016    1       3       0.1637999       45.15305
2016    1       4       0.5113926       111.7894
2016    1       5       0.6177466       128.0107
2016    1       6       0.4180687       96.29425
2016    1       7       0.2832096       71.06693
2016    2       0       0.1954545       52.36785
2016    2       1       0.1649352       45.38891
2016    2       2       0.1532385       42.69726
2016    2       3       0.2120406       55.92241
2016    2       4       0.5905385       124.069
2016    2       5       0.7603239       147.4594
2016    2       6       0.5023193       110.9477
2016    2       7       0.1806688       49.43983
2016    3       0       0.126411        36.72898
2016    3       1       0.09949722      30.09068
2016    3       2       0.09623337      29.27156
2016    3       3       0.1323052       38.01888
2016    3       4       0.317141        77.61311
2016    3       5       0.5339298       115.624
2016    3       6       0.3252026       79.2681
2016    3       7       0.2315081       60.41683
2016    4       0       0.1847318       50.11934
2016    4       1       0.1206411       35.24254
2016    4       2       0.1051515       31.51274
2016    4       3       0.1469336       41.49277
2016    4       4       0.3474724       83.49263
2016    4       5       0.3515249       84.29878
2016    4       6       0.248776        63.96547
2016    4       7       0.1606826       44.71695
2016    5       0       0.1339591       38.43261
2016    5       1       0.1313269       37.83613
2016    5       2       0.1380739       39.46851
2016    5       3       0.1920123       51.86633
2016    5       4       0.351104        84.59199
2016    5       5       0.3026279       75.08862
2016    5       6       0.258288        66.171
2016    5       7       0.1858488       50.57634
2016    6       0       0.1797906       49.11061
2016    6       1       0.1199229       35.16986
2016    6       2       0.1129199       33.57074
2016    6       3       0.3131207       77.22043
2016    6       4       0.5819107       122.9986
2016    6       5       0.7523367       146.3106
2016    6       6       0.6222582       128.9284
2016    6       7       0.7324976       144.0998
2016    7       0       0.7653378       148.1178
2016    7       1       0.6286346       129.6781
2016    7       2       0.3251532       79.13369
2016    7       3       0.3541197       84.68065
2016    7       4       0.5131999       112.1816
2016    7       5       0.6031485       125.8799
2016    7       6       0.5237438       113.9885
2016    7       7       0.3422131       82.50595
2016    8       0       0.243392        62.69089
2016    8       1       0.170854        46.78608
2016    8       2       0.112887        33.33923
2016    8       3       0.1463467       41.33921
2016    8       4       0.4069821       94.37204
2016    8       5       0.6254572       129.4226
2016    8       6       0.5760077       122.3681
2016    8       7       0.3186021       78.1416
2016    9       0       0.2508708       64.40007
2016    9       1       0.1695111       46.63038
2016    9       2       0.09314927      28.55814
2016    9       3       0.1235213       35.94864
2016    9       4       0.5263602       114.3342
2016    9       5       0.4611582       103.4318
2016    9       6       0.3389212       81.9091
2016    9       7       0.2886101       72.12291
2016    10      0       0.2320872       60.2899
2016    10      1       0.1260011       36.38917
2016    10      2       0.1041643       31.09697
2016    10      3       0.1860785       50.16864
2016    10      4       0.5345177       115.6977
2016    10      5       0.4997405       110.1278
2016    10      6       0.3304342       80.06324
2016    10      7       0.3469946       83.24574
2016    11      0       0.3761925       88.79566
2016    11      1       0.4284685       98.23618
2016    11      2       0.431127        98.56464
2016    11      3       0.4632744       103.7342
2016    11      4       0.7281867       142.5373
2016    11      5       0.6393626       130.399
2016    11      6       0.5055899       110.3635
2016    11      7       0.3480957       83.19243
2016    12      0       0.2699884       67.88181
2016    12      1       0.2329478       60.30899
2016    12      2       0.2125816       56.00845
2016    12      3       0.2497617       63.80404
2016    12      4       0.4515939       101.7245
2016    12      5       0.3879342       90.55064
2016    12      6       0.3592962       85.31668
2016    12      7       0.2044785       53.88639
2016    13      0       0.1507122       41.73217
2016    13      1       0.1344366       38.0081
2016    13      2       0.1475312       41.15948
2016    13      3       0.2098968       55.25836
2016    13      4       0.4433267       100.1285
2016    13      5       0.4136113       94.99018
2016    13      6       0.322333        78.1257
2016    13      7       0.2637618       66.35051
2016    14      0       0.2095386       54.97326
2016    14      1       0.1891569       50.52638
2016    14      2       0.1755165       47.5673
2016    14      3       0.2116579       55.64858
2016    14      4       0.3824082       89.28399
2016    14      5       0.4169976       95.07715
2016    14      6       0.2465782       62.5522
2016    14      7       0.1840742       49.09383
2016    15      0       0.2131844       55.59976
2016    15      1       0.2244096       58.14288
2016    15      2       0.2289223       58.87243
2016    15      3       0.3425511       81.60919
2016    15      4       0.8202798       152.8385
2016    15      5       0.7414547       143.3793
2016    15      6       0.5125641       111.3042
2016    15      7       0.3546754       84.1873
2016    16      0       0.2638419       66.38693
2016    16      1       0.2175948       56.75387
2016    16      2       0.2965629       73.06824
2016    16      3       0.6314424       129.9865
2016    16      4       1.020571        175.4411
2016    16      5       1.169791        188.9567
2016    16      6       1.114069        184.2605
2016    16      7       1.019776        176.2116
2016    17      0       0.9497113       169.1545
2016    17      1       1.012512        175.0301
2016    17      2       1.022858        175.1875
2016    17      3       1.177614        188.6659
2016    17      4       1.290594        196.7769
2016    17      5       1.267665        194.7904
2016    17      6       1.217258        190.8726
2016    17      7       1.148123        185.8975
2016    18      0       0.9672646       169.0154
2016    18      1       0.8958552       160.9046
2016    18      2       0.9992557       172.3503
2016    18      3       0.9769127       170.6253
2016    18      4       0.9333865       165.4578
2016    18      5       0.8468938       155.4228
2016    18      6       0.8880065       159.8241
2016    18      7       0.8964187       160.8969
2016    19      0       0.908475        162.1515
2016    19      1       0.8636492       157.3489
2016    19      2       0.7328756       141.7427
2016    19      3       0.9339222       165.0112
2016    19      4       0.9920645       171.0598
2016    19      5       0.9230935       164.5127
2016    19      6       0.8797349       160.1675
2016    19      7       0.7498296       145.2652
2016    20      0       0.7754383       148.7179
2016    20      1       0.6786919       136.2227
2016    20      2       0.5347827       115.1885
2016    20      3       0.8086694       152.3704
2016    20      4       1.181447        188.8703
2016    20      5       1.142631        185.7511
2016    20      6       1.078347        180.4895
2016    20      7       0.8022504       151.9923
2016    21      0       0.7762079       149.1263
2016    21      1       0.7286629       142.8243
2016    21      2       0.7347357       143.6189
2016    21      3       0.9492627       168.1351
2016    21      4       1.226943        193.1391
2016    21      5       1.256176        195.8537
2016    21      6       1.198108        191.6099
2016    21      7       1.146781        187.4617
2016    22      0       1.021742        175.1407
2016    22      1       0.9323019       165.5474
2016    22      2       0.8944528       161.2557
2016    22      3       1.019181        174.0127
2016    22      4       1.234663        192.7884
2016    22      5       1.159915        186.8137
2016    22      6       0.9832182       170.7832
2016    22      7       0.8210082       153.8671
2016    23      0       0.7636751       146.4855
2016    23      1       0.7022063       138.7397
2016    23      2       0.6173263       127.4014
2016    23      3       0.9332869       166.5089
2016    23      4       1.12273         184.2527
2016    23      5       1.014862        174.7205
2016    23      6       1.010351        174.9419
2016    23      7       1.058383        179.2875
2016    24      0       0.9524519       167.7618
2016    24      1       0.8329103       153.5808
2016    24      2       0.7731234       147.1184
2016    24      3       0.7582722       146.4276
2016    24      4       0.9665152       169.675
2016    24      5       1.059917        178.9678
2016    24      6       0.7524404       145.7663
2016    24      7       0.5539873       117.8588
2016    25      0       0.7098417       139.8229
2016    25      1       0.8397418       155.8621
2016    25      2       0.6420638       130.3911
2016    25      3       0.5681518       119.5496
2016    25      4       0.7766689       148.3758
2016    25      5       0.5562796       118.4054
2016    25      6       0.4139605       95.09627
2016    25      7       0.3730483       87.65772
2016    26      0       0.3748614       87.78452
2016    26      1       0.3825028       89.09974
2016    26      2       0.3888345       90.27306
2016    26      3       0.399256        92.12293
2016    26      4       0.5331824       114.4781
2016    26      5       0.4807505       106.2731
2016    26      6       0.3690088       87.09941
2016    26      7       0.3303084       79.86609
2016    27      0       0.3276931       79.38149
2016    27      1       0.3199489       77.91713
2016    27      2       0.271585        68.3694
2016    27      3       0.2854266       71.1886
2016    27      4       0.7063892       139.9547
2016    27      5       0.8330207       155.25
2016    27      6       0.7352484       144.1217
2016    27      7       0.6189595       128.5125
2016    28      0       0.4605781       103.4658
2016    28      1       0.4267084       97.53501
2016    28      2       0.3862268       90.26948
2016    28      3       0.5247193       113.7316
2016    28      4       1.011718        174.0811
2016    28      5       1.176635        189.6743
2016    28      6       1.122922        185.485
2016    28      7       0.9962033       173.3899
2016    29      0       0.867937        159.8127
2016    29      1       0.8372211       156.4464
2016    29      2       0.5384213       115.9216
2016    29      3       0.6772052       136.2889
2016    29      4       0.8988842       162.2357
2016    29      5       1.237603        194.3935
2016    29      6       1.217005        193.6731
2016    29      7       0.9389378       168.4923
2016    30      0       0.717819        142.3678
2016    30      1       0.6992798       139.5128
2016    30      2       0.6617869       134.3862
2016    30      3       0.5737356       121.4952
2016    30      4       0.9846734       171.931
2016    30      5       1.097903        182.9246
2016    30      6       1.073034        181.2441
2016    30      7       0.9512476       169.4821
2017    1       0       0.477686        106.8128
2017    1       1       0.4955357       109.6633
2017    1       2       0.4440196       100.8618
2017    1       3       0.6721135       135.8669
2017    1       4       0.9539588       168.8012
2017    1       5       0.9900006       172.6361
2017    1       6       0.7633675       147.9946
2017    1       7       0.4365916       99.93025
2017    2       0       0.349635        84.03468
2017    2       1       0.3297859       80.17482
2017    2       2       0.3250011       79.30594
2017    2       3       0.4718779       105.8695
2017    2       4       0.7569696       146.7962
2017    2       5       0.8137254       153.3829
2017    2       6       0.7490466       145.8784
2017    2       7       0.4789328       106.7613
2017    3       0       0.458594        103.4793
2017    3       1       0.3287085       79.99355
2017    3       2       0.2991273       74.2334
2017    3       3       0.5740941       121.6036
2017    3       4       0.9466812       168.0251
2017    3       5       0.9849206       172.2953
2017    3       6       0.9503809       169.3612
2017    3       7       0.6169063       128.1542
2017    4       0       0.5053488       111.0965
2017    4       1       0.3184355       77.97381
2017    4       2       0.1924637       51.85504
2017    4       3       0.2982802       74.34468
2017    4       4       0.7465022       145.9444
2017    4       5       0.8360484       156.9772
2017    4       6       0.6656409       135.3783
2017    4       7       0.508377        111.9981
2017    5       0       0.2702657       68.57629
2017    5       1       0.1777977       48.57417
2017    5       2       0.1715336       47.17706
2017    5       3       0.3858672       91.15849
2017    5       4       0.6731223       136.1674
2017    5       5       0.5706201       121.3933
2017    5       6       0.3658252       87.37085
2017    5       7       0.1940378       52.46102
2017    6       0       0.1699961       46.77366
2017    6       1       0.1499223       42.06091
2017    6       2       0.1111888       32.88043
2017    6       3       0.1551506       43.42111
2017    6       4       0.3575779       85.46328
2017    6       5       0.3917521       91.96606
2017    6       6       0.2748933       69.59741
2017    6       7       0.1788983       48.99463
2017    7       0       0.1722743       47.30168
2017    7       1       0.1738159       47.61283
2017    7       2       0.1313954       37.8814
2017    7       3       0.1654839       45.94932
2017    7       4       0.3555769       85.41025
2017    7       5       0.4600554       104.0964
2017    7       6       0.3083636       76.25259
2017    7       7       0.2456266       63.41738
2017    8       0       0.1975171       52.97409
2017    8       1       0.178275        48.66079
2017    8       2       0.1765343       48.32093
2017    8       3       0.3565579       85.5041
2017    8       4       0.6831241       137.4675
2017    8       5       0.7027396       140.2495
2017    8       6       0.3965069       92.78391
2017    8       7       0.2391605       62.22394
2017    9       0       0.1790741       48.96768
2017    9       1       0.1466076       41.45036
2017    9       2       0.1554717       43.47163
2017    9       3       0.3587083       85.80555
2017    9       4       0.7020817       139.8758
2017    9       5       0.6253148       129.3354
2017    9       6       0.4656208       104.717
2017    9       7       0.3252067       79.47142
2017    10      0       0.2222135       58.3146
2017    10      1       0.1671439       46.06081
2017    10      2       0.1228459       35.73889
2017    10      3       0.2044662       54.6463
2017    10      4       0.4881789       108.4914
2017    10      5       0.4598996       103.7344
2017    10      6       0.2574844       65.99302
2017    10      7       0.2003243       53.72727
2017    11      0       0.2233285       58.63987
2017    11      1       0.2428858       62.78525
2017    11      2       0.2348201       61.08857
2017    11      3       0.3197642       78.4138
2017    11      4       0.6193136       128.9669
2017    11      5       0.4851902       108.156
2017    11      6       0.3911649       92.16053
2017    11      7       0.343981        83.45821
2017    12      0       0.3367859       82.00053
2017    12      1       0.3206224       78.77605
2017    12      2       0.2905363       72.74493
2017    12      3       0.257406        65.99133
2017    12      4       0.2874378       72.06082
2017    12      5       0.3392079       82.2678
2017    12      6       0.3536069       85.04581
2017    12      7       0.3428271       83.06445
2017    13      0       0.3849145       90.75803
2017    13      1       0.4039578       94.07106
2017    13      2       0.4280628       98.2909
2017    13      3       0.4703867       105.6283
2017    13      4       0.5409158       116.8032
2017    13      5       0.4890278       108.4945
2017    13      6       0.388337        91.35981
2017    13      7       0.3659436       87.2283
2017    14      0       0.4619979       103.9834
2017    14      1       0.5193787       113.3818
2017    14      2       0.5727576       121.784
2017    14      3       0.6064206       126.8644
2017    14      4       0.8428586       157.5505
2017    14      5       0.7751355       149.2975
2017    14      6       0.5617639       120.1781
2017    14      7       0.4967588       109.9879
2017    15      0       0.4839037       107.6929
2017    15      1       0.4643366       104.2175
2017    15      2       0.6128285       127.4011
2017    15      3       0.7425118       145.1115
2017    15      4       0.9650099       170.2476
2017    15      5       0.9995343       173.9662
2017    15      6       0.7515552       146.2375
2017    15      7       0.6687599       135.1303
2017    16      0       0.6049352       126.1839
2017    16      1       0.5658354       120.4725
2017    16      2       0.4849623       107.5602
2017    16      3       0.5895565       123.432
2017    16      4       0.7073044       139.6226
2017    16      5       0.5913547       123.8311
2017    16      6       0.4593209       103.1737
2017    16      7       0.3525721       84.24751
2017    17      0       0.3374987       81.34286
2017    17      1       0.3838092       89.92646
2017    17      2       0.2646935       67.06114
2017    17      3       0.3164829       77.44059
2017    17      4       0.5385392       115.9184
2017    17      5       0.4870278       107.4025
2017    17      6       0.3179222       77.42615
2017    17      7       0.2680373       67.60064
2017    18      0       0.2497603       63.77902
2017    18      1       0.2048202       54.34165
2017    18      2       0.1910238       51.35311
2017    18      3       0.3211441       78.33126
2017    18      4       0.6352315       130.0899
2017    18      5       0.6068203       125.725
2017    18      6       0.3993338       92.53058
2017    18      7       0.2878764       71.53904
2017    19      0       0.3007988       74.02269
2017    19      1       0.2853878       71.027
2017    19      2       0.2686041       67.728
2017    19      3       0.3268322       79.27514
2017    19      4       0.4830185       106.9085
2017    19      5       0.4840361       106.856
2017    19      6       0.3939489       91.57292
2017    19      7       0.3289925       79.6786
2017    20      0       0.3042623       74.78058
2017    20      1       0.2695749       67.83185
2017    20      2       0.2572451       65.36637
2017    20      3       0.4294125       98.22061
2017    20      4       0.8678083       159.8021
2017    20      5       1.037863        177.792
2017    20      6       0.9901647       173.835
2017    20      7       0.771261        149.3961
2017    21      0       0.5650142       120.3854
2017    21      1       0.6120476       126.9822
2017    21      2       0.4988644       109.5982
2017    21      3       0.694492        138.5171
2017    21      4       1.069895        180.0226
2017    21      5       1.083683        181.6762
2017    21      6       0.7390771       144.5736
2017    21      7       0.3561096       84.98805
2017    22      0       0.2807734       70.25761
2017    22      1       0.2521506       64.35089
2017    22      2       0.2578146       65.53293
2017    22      3       0.4096929       94.83831
2017    22      4       0.6308314       129.715
2017    22      5       0.5836516       122.7881
2017    22      6       0.3852903       90.2179
2017    22      7       0.2601685       65.8818
2017    23      0       0.2335065       60.21378
2017    23      1       0.224864        58.36199
2017    23      2       0.2275649       59.06106
2017    23      3       0.3049424       74.89876
2017    23      4       0.5869415       122.9092
2017    23      5       0.4359585       98.78163
2017    23      6       0.2389862       61.55974
2017    23      7       0.182384        49.41177
2017    24      0       0.2050275       54.32247
2017    24      1       0.1903218       51.08347
2017    24      2       0.1746283       47.58906
2017    24      3       0.2760297       69.0619
2017    24      4       0.4512048       101.117
2017    24      5       0.4254438       96.77551
2017    24      6       0.3275523       79.35181
2017    24      7       0.2655264       67.06977
2017    25      0       0.2760459       69.09606
2017    25      1       0.2728568       68.37416
2017    25      2       0.2652679       66.86179
2017    25      3       0.3117929       76.21563
2017    25      4       0.6303472       129.5384
2017    25      5       0.6097301       126.7501
2017    25      6       0.3583587       85.50083
2017    25      7       0.2421235       62.52813
2017    26      0       0.2352095       60.93669
2017    26      1       0.2543918       64.89074
2017    26      2       0.2664949       67.45244
2017    26      3       0.4718673       105.539
2017    26      4       0.745914        144.5398
2017    26      5       0.5827229       122.0888
2017    26      6       0.3305348       79.97952
2017    26      7       0.2113359       55.76743
2017    27      0       0.2238601       58.42231
2017    27      1       0.2155354       56.63806
2017    27      2       0.2142647       56.29741
2017    27      3       0.2784052       69.68535
2017    27      4       0.5468258       117.2749
2017    27      5       0.5321749       115.0209
2017    27      6       0.4706272       105.2383
2017    27      7       0.3408517       81.98366
2017    28      0       0.2858895       71.19525
2017    28      1       0.2232908       58.21805
2017    28      2       0.2064833       54.59641
2017    28      3       0.206316        54.71576
2017    28      4       0.4546248       102.7164
2017    28      5       0.724476        142.871
2017    28      6       0.450332        102.2152
2017    28      7       0.3119244       77.00506
2017    29      0       0.3148522       77.43497
2017    29      1       0.3553449       85.05691
2017    29      2       0.3179815       77.87025
2017    29      3       0.4519713       102.4816
2017    29      4       0.9448151       168.0894
2017    29      5       1.121519        185.4982
2017    29      6       1.059303        180.2619
2017    29      7       1.035608        177.8169
2017    30      0       1.034251        177.2757
2017    30      1       0.967692        170.5369
2017    30      2       0.5904236       123.8725
2017    30      3       0.6895185       137.9788
2017    30      4       1.088293        181.6527
2017    30      5       1.28587         198.3908
2017    30      6       1.102289        184.3149
2017    30      7       0.8708808       161.1999
2018    1       0       1.113376        185.4715
2018    1       1       1.103863        184.8123
2018    1       2       1.070373        181.6718
2018    1       3       0.919285        166.5596
2018    1       4       1.143041        188.0724
2018    1       5       1.128087        186.6146
2018    1       6       1.028659        178.2428
2018    1       7       0.9703335       172.6472
2018    2       0       0.9794179       172.6595
2018    2       1       1.035324        177.0051
2018    2       2       1.036065        177.2983
2018    2       3       1.004152        174.0637
2018    2       4       1.332752        201.4986
2018    2       5       1.270493        196.9636
2018    2       6       1.320655        201.1929
2018    2       7       1.012653        174.7796
2018    3       0       0.7519185       145.322
2018    3       1       0.6223231       127.6744
2018    3       2       0.5594464       118.8188
2018    3       3       0.7986901       151.4768
2018    3       4       1.047071        177.5946
2018    3       5       1.122989        184.7489
2018    3       6       1.056868        180.2481
2018    3       7       0.9673229       171.5504
2018    4       0       0.9800625       172.4342
2018    4       1       1.096365        182.4031
2018    4       2       1.095051        181.9599
2018    4       3       1.130694        185.0953
2018    4       4       1.339883        202.2628
2018    4       5       1.234943        194.6715
2018    4       6       1.34908         203.0682
2018    4       7       0.9566362       168.3918
2018    5       0       0.9702585       169.4403
2018    5       1       0.9466157       166.9563
2018    5       2       0.9727358       169.5115
2018    5       3       0.9734895       169.5931
2018    5       4       1.059631        178.2314
2018    5       5       1.085776        180.4474
2018    5       6       0.9787904       170.3552
2018    5       7       0.8775533       159.1691
2018    6       0       0.8382784       154.5192
2018    6       1       0.7795475       147.9034
2018    6       2       0.7104887       139.2777
2018    6       3       0.9606594       168.3384
2018    6       4       1.266163        194.802
2018    6       5       1.307139        198.8285
2018    6       6       1.264529        196.3069
2018    6       7       0.9873012       171.9032
2018    7       0       0.9077445       163.3373
2018    7       1       0.9721467       169.6482
2018    7       2       0.7664153       146.1492
2018    7       3       0.8294358       153.9139
2018    7       4       1.022922        173.9485
2018    7       5       1.074744        179.2139
2018    7       6       0.9662933       169.7767
2018    7       7       0.7218789       142.1601
2018    8       0       0.6766276       135.8298
2018    8       1       0.6615946       133.6306
2018    8       2       0.6517058       132.4252
2018    8       3       0.8723949       159.3829
2018    8       4       1.219302        192.0789
2018    8       5       1.212656        192.1137
2018    8       6       1.057173        178.7042
2018    8       7       0.6625336       133.5681
2018    9       0       0.5910554       123.62
2018    9       1       0.5830566       122.4942
2018    9       2       0.5262503       114.0394
2018    9       3       0.6512796       132.9064
2018    9       4       0.9491586       168.6385
2018    9       5       0.9553296       169.7428
2018    9       6       0.8288957       156.596
2018    9       7       0.5690473       121.5093
2018    10      0       0.5064344       111.3426
2018    10      1       0.4463751       101.3783
2018    10      2       0.4063484       94.47673
2018    10      3       0.6564783       133.8448
2018    10      4       0.8152203       153.6507
2018    10      5       0.8560564       159.0562
2018    10      6       0.7652336       148.975
2018    10      7       0.479036        107.3186
2018    11      0       0.3715021       88.14665
2018    11      1       0.3035651       75.12109
2018    11      2       0.2862988       71.64995
2018    11      3       0.3108919       76.31867
2018    11      4       0.4754901       106.2588
2018    11      5       0.5520606       118.8234
2018    11      6       0.2975241       73.99241
2018    11      7       0.1617368       44.8313
2018    12      0       0.157549        43.75641
2018    12      1       0.1555392       43.34
2018    12      2       0.1976109       52.62655
2018    12      3       0.2534348       64.47688
2018    12      4       0.373617        88.35934
2018    12      5       0.2983229       74.00618
2018    12      6       0.1884423       50.77992
2018    12      7       0.1810218       49.13589
2018    13      0       0.233595        60.63661
2018    13      1       0.2421518       62.46457
2018    13      2       0.2191508       57.52848
2018    13      3       0.3273688       79.75896
2018    13      4       0.5546594       118.8297
2018    13      5       0.5728733       121.6628
2018    13      6       0.4405246       100.3572
2018    13      7       0.3463397       83.39956
2018    14      0       0.3002763       74.41871
2018    14      1       0.2824991       70.86968
2018    14      2       0.2563753       65.62787
2018    14      3       0.3788935       89.86521
2018    14      4       0.6859019       138.2313
2018    14      5       0.7551139       147.1158
2018    14      6       0.8263494       155.601
2018    14      7       0.8088104       153.7416
2018    15      0       0.5237645       114.1823
2018    15      1       0.354132        84.90182
2018    15      2       0.2789304       70.26862
2018    15      3       0.6468379       132.4719
2018    15      4       1.155213        188.5812
2018    15      5       1.16865         189.9678
2018    15      6       1.062333        180.6888
2018    15      7       0.886047        163.3594
2018    16      0       0.6061416       127.2169
2018    16      1       0.5900477       124.4525
2018    16      2       0.5845254       123.5012
2018    16      3       0.9090979       164.5412
2018    16      4       1.177135        190.1737
2018    16      5       1.222091        194.6982
2018    16      6       1.061741        180.0223
2018    16      7       0.9001947       163.2927
2018    17      0       0.7775887       149.2005
2018    17      1       1.013557        175.7318
2018    17      2       0.7120888       141.3876
2018    17      3       0.6425          131.6428
2018    17      4       1.286325        198.3405
2018    17      5       1.090338        181.5523
2018    17      6       1.101645        183.4268
2018    17      7       0.9435376       168.6148
2018    18      0       0.7452481       145.3779
2018    18      1       0.7512176       146.19
2018    18      2       0.5296235       114.9589
2018    18      3       0.8372611       156.9578
2018    18      4       1.107798        183.4829
2018    18      5       1.058949        179.5102
2018    18      6       0.7445423       145.2699
2018    18      7       0.4711359       105.6087
2018    19      0       0.4115681       95.13057
2018    19      1       0.3798497       89.06661
2018    19      2       0.3890134       90.57896
2018    19      3       0.5336678       115.2461
2018    19      4       0.8424427       156.7191
2018    19      5       0.7003758       139.1141
2018    19      6       0.5214897       113.514
2018    19      7       0.4282635       98.04016
2018    20      0       0.4127144       95.31516
2018    20      1       0.4789626       106.4905
2018    20      2       0.6150165       127.1387
2018    20      3       0.8665179       159.7741
2018    20      4       0.9165017       165.0249
2018    20      5       0.6323598       129.9838
2018    20      6       0.4469264       101.2192
2018    20      7       0.3290352       79.81884
2018    21      0       0.2849552       71.0177
2018    21      1       0.2481354       63.48132
2018    21      2       0.2154263       56.63391
2018    21      3       0.2597671       66.31245
2018    21      4       0.4355395       99.61865
2018    21      5       0.4329564       98.89033
2018    21      6       0.3973462       92.67418
2018    21      7       0.3938627       92.05767
2018    22      0       0.3939121       91.83517
2018    22      1       0.3281796       79.4357
2018    22      2       0.2723077       68.3963
2018    22      3       0.2785879       69.72805
2018    22      4       0.409266        94.6399
2018    22      5       0.5764155       122.1709
2018    22      6       0.6014926       125.8845
2018    22      7       0.5207023       113.4643
2018    23      0       0.4748079       105.7465
2018    23      1       0.4469616       101.077
2018    23      2       0.4759678       105.9697
2018    23      3       0.8169767       154.5826
2018    23      4       1.073259        180.2872
2018    23      5       1.256496        195.8616
2018    23      6       1.227281        193.8013
2018    23      7       1.184471        190.4121
2018    24      0       1.064715        179.2126
2018    24      1       1.084439        181.005
2018    24      2       0.9405485       166.7993
2018    24      3       0.9454267       166.6792
2018    24      4       1.103306        181.9406
2018    24      5       1.034426        175.7979
2018    24      6       0.9863012       170.9477
2018    24      7       0.9156568       164.1052
2018    25      0       0.7636121       146.221
2018    25      1       0.7073732       138.889
2018    25      2       0.6738991       134.3756
2018    25      3       0.8585346       157.2568
2018    25      4       0.8729094       158.6016
2018    25      5       0.8367444       154.7636
2018    25      6       0.7902163       149.9373
2018    25      7       0.6903698       137.6686
2018    26      0       0.8894413       161.8998
2018    26      1       0.8730753       160.0137
2018    26      2       0.7632548       146.7907
2018    26      3       0.7482194       144.781
2018    26      4       0.9611189       168.7712
2018    26      5       1.066249        179.0512
2018    26      6       0.8002824       151.4701
2018    26      7       0.6155883       127.3807
2018    27      0       0.5895522       123.391
2018    27      1       0.5782244       121.637
2018    27      2       0.4965882       108.8591
2018    27      3       0.6196858       127.6406
2018    27      4       1.143714        186.0149
2018    27      5       1.158624        187.9741
2018    27      6       0.9675645       170.9521
2018    27      7       0.8610549       159.929
2018    28      0       1.015196        175.5528
2018    28      1       0.9185462       165.4727
2018    28      2       0.7077056       140.3938
2018    28      3       0.5626285       119.8332
2018    28      4       0.8148402       153.2427
2018    28      5       0.7557577       146.3132
2018    28      6       0.5602384       119.8356
2018    28      7       0.4479641       101.9652
2018    29      0       0.3294428       80.32936
2018    29      1       0.3393252       82.19634
2018    29      2       0.3864271       90.82273
2018    29      3       0.6321338       130.3934
2018    29      4       0.9831422       171.6657
2018    29      5       1.118777        184.716
2018    29      6       1.101278        183.4462
2018    29      7       0.9229239       166.2907
2018    30      0       0.9161668       165.2449
2018    30      1       0.8984053       163.2949
2018    30      2       0.8431191       157.2609
2018    30      3       0.8604221       159.2516
2018    30      4       0.8599782       158.8073
2018    30      5       0.8351694       155.9695
2018    30      6       0.6276701       129.3824
2018    30      7       0.5366698       115.7987
