####################################################################################################
# Month: 03Mar                                                                                     #
# Station: SKS                                                                                     #
# Frequency: 230 GHz                                                                               #
# Columns are: year    day     segment         tau     Tb (K)                                      #
####################################################################################################
2009    1       0       0.1259709       35.64277
2009    1       1       0.07836334      24.28121
2009    1       2       0.1114938       32.34162
2009    1       3       0.1739766       46.89581
2009    1       4       0.2037747       53.19389
2009    1       5       0.2062287       53.42289
2009    1       6       0.2295657       58.13508
2009    1       7       0.2635208       64.70014
2009    2       0       0.3661215       83.1951
2009    2       1       0.496597        104.8894
2009    2       2       0.4607319       100.6959
2009    2       3       0.4397728       98.16733
2009    2       4       0.3878853       88.94948
2009    2       5       0.3708681       85.83421
2009    2       6       0.415124        93.41529
2009    2       7       0.4017655       91.51303
2009    3       0       0.3538295       83.236
2009    3       1       0.353026        83.1209
2009    3       2       0.3905021       89.75669
2009    3       3       0.4284007       96.32495
2009    3       4       0.443653        98.85646
2009    3       5       0.3575747       83.79966
2009    3       6       0.328643        78.53602
2009    3       7       0.3410133       80.87441
2009    4       0       0.3903847       90.26807
2009    4       1       0.38341         89.42425
2009    4       2       0.3779326       88.34951
2009    4       3       0.3069701       75.23895
2009    4       4       0.2302354       59.67721
2009    4       5       0.1223609       35.04233
2009    4       6       0.1528938       41.52349
2009    4       7       0.2545892       62.38696
2009    5       0       0.5719426       118.0298
2009    5       1       0.719721        138.5323
2009    5       2       0.6146493       124.8433
2009    5       3       0.627826        126.3665
2009    5       4       0.8325405       154.0643
2009    5       5       0.5424985       116.9537
2009    5       6       0.4411633       100.088
2009    5       7       0.2084813       53.91521
2009    6       0       0.4090273       92.80257
2009    6       1       0.4410382       98.918
2009    6       2       0.3982917       91.76519
2009    6       3       0.4001483       91.88458
2009    6       4       0.3817528       88.506
2009    6       5       0.3895947       89.63573
2009    6       6       0.4584884       101.3601
2009    6       7       0.5207526       111.1032
2009    7       0       0.5400667       113.78
2009    7       1       0.6082976       122.9162
2009    7       2       0.3438823       80.51562
2009    7       3       0.09291705      27.71588
2009    7       4       0.1456742       39.82554
2009    7       5       0.3376225       79.44085
2009    7       6       0.5182789       109.7191
2009    7       7       0.5869774       120.4559
2009    8       0       0.4599853       100.7892
2009    8       1       0.2805669       68.24321
2009    8       2       0.4386814       96.56276
2009    8       3       0.8665555       154.2613
2009    8       4       0.8748629       155.614
2009    8       5       0.8967727       157.1707
2009    8       6       0.8810531       156.3726
2009    8       7       0.7757111       145.3001
2009    9       0       0.7705189       144.4271
2009    9       1       0.4570811       100.2283
2009    9       2       0.2971744       71.89747
2009    9       3       0.3860591       88.98048
2009    9       4       0.2930326       71.91023
2009    9       5       0.100278        29.9708
2009    9       6       0.08998239      27.35196
2009    9       7       0.114311        33.2235
2009    10      0       0.1178331       34.02784
2009    10      1       0.09150504      28.12712
2009    10      2       0.07660321      24.3754
2009    10      3       0.07791973      24.63244
2009    10      4       0.08512187      26.32734
2009    10      5       0.08427358      25.81369
2009    10      6       0.08520298      25.99359
2009    10      7       0.1129745       32.47558
2009    11      0       0.108485        31.45869
2009    11      1       0.107259        31.31475
2009    11      2       0.1132699       32.76705
2009    11      3       0.1111857       32.21108
2009    11      4       0.1364045       37.98565
2009    11      5       0.1778315       47.51417
2009    11      6       0.2154619       55.73331
2009    11      7       0.2355947       59.73275
2009    12      0       0.2543031       63.26756
2009    12      1       0.2389036       59.84749
2009    12      2       0.2132193       54.4223
2009    12      3       0.2427188       60.69496
2009    12      4       0.4184138       94.41004
2009    12      5       0.7310948       141.8482
2009    12      6       0.8069401       151.103
2009    12      7       0.5200454       111.2135
2009    13      0       0.5852147       120.0365
2009    13      1       0.6622897       128.9297
2009    13      2       0.4480907       97.37483
2009    13      3       0.462493        99.94731
2009    13      4       0.6825338       133.0245
2009    13      5       0.5567343       115.9027
2009    13      6       0.1730239       45.80767
2009    13      7       0.1748637       46.27347
2009    14      0       0.209785        53.72517
2009    14      1       0.2826806       68.57042
2009    14      2       0.2934889       70.6994
2009    14      3       0.2904198       70.031
2009    14      4       0.3577229       83.10621
2009    14      5       0.3467547       81.43855
2009    14      6       0.2714734       66.79771
2009    14      7       0.4417578       98.23286
2009    15      0       0.2377978       59.77077
2009    15      1       0.2740099       66.96673
2009    15      2       0.2904295       70.1109
2009    15      3       0.3200095       75.86592
2009    15      4       0.3252802       76.69849
2009    15      5       0.323763        76.26716
2009    15      6       0.2906316       69.80014
2009    15      7       0.3098767       73.91331
2009    16      0       0.2904206       70.07579
2009    16      1       0.2640043       64.43739
2009    16      2       0.2240918       56.11378
2009    16      3       0.2230771       55.96113
2009    16      4       0.2274524       56.99748
2009    16      5       0.209798        53.80302
2009    16      6       0.23354         58.77026
2009    16      7       0.2840403       68.82326
2009    17      0       0.296989        71.19066
2009    17      1       0.2902685       69.70444
2009    17      2       0.270988        65.78887
2009    17      3       0.277176        66.52409
2009    17      4       0.3275777       75.95511
2009    17      5       0.3149969       74.34759
2009    17      6       0.2905442       69.81179
2009    17      7       0.2580122       63.53658
2009    18      0       0.275836        66.79567
2009    18      1       0.3454059       79.82201
2009    18      2       0.4858692       104.692
2009    18      3       0.5975134       121.7185
2009    18      4       0.527619        111.415
2009    18      5       0.5188669       110.3319
2009    18      6       0.1634385       44.33402
2009    18      7       0.1270913       35.96614
2009    19      0       0.09349614      27.93589
2009    19      1       0.07124216      22.42259
2009    19      2       0.07993543      24.49288
2009    19      3       0.09857158      28.84377
2009    19      4       0.08743697      25.99068
2009    19      5       0.09286467      27.33659
2009    19      6       0.1125174       31.94206
2009    19      7       0.1274582       35.39076
2009    20      0       0.1206984       33.80018
2009    20      1       0.09917719      28.86209
2009    20      2       0.1200994       33.5291
2009    20      3       0.1340495       36.77935
2009    20      4       0.1500002       40.43299
2009    20      5       0.1830413       47.69677
2009    20      6       0.1623031       43.55221
2009    20      7       0.164899        44.1567
2009    21      0       0.2507222       62.13732
2009    21      1       0.277696        67.7773
2009    21      2       0.2776488       68.24738
2009    21      3       0.4494697       99.5699
2009    21      4       0.6354679       127.7867
2009    21      5       0.5012848       108.0337
2009    21      6       0.4670175       102.5662
2009    21      7       0.274249        68.04128
2009    22      0       0.2151978       55.78756
2009    22      1       0.190515        50.42258
2009    22      2       0.1673807       45.2999
2009    22      3       0.3732592       86.74235
2009    22      4       0.4575823       101.1472
2009    22      5       0.6112078       124.3979
2009    22      6       0.5473301       114.3816
2009    22      7       0.6311368       125.9544
2009    23      0       0.4227626       93.01343
2009    23      1       0.6140643       122.4978
2009    23      2       0.5852518       116.9191
2009    23      3       0.6291115       124.9046
2009    23      4       0.6635612       128.8711
2009    23      5       0.4673116       101.3383
2009    23      6       0.5843043       119.9121
2009    23      7       0.4237427       94.84028
2009    24      0       0.3253547       77.11006
2009    24      1       0.2904009       70.48476
2009    24      2       0.2690865       66.70113
2009    24      3       0.5314087       113.5604
2009    24      4       0.2361292       60.07671
2009    24      5       0.228463        58.47244
2009    24      6       0.2002743       52.33352
2009    24      7       0.1817694       48.2388
2009    25      0       0.1410588       38.96504
2009    25      1       0.1173792       34.02071
2009    25      2       0.124882        35.65762
2009    25      3       0.09775661      28.97476
2009    25      4       0.1258555       35.30052
2009    25      5       0.234561        59.19389
2009    25      6       0.2134126       55.13436
2009    25      7       0.3051741       74.26528
2009    26      0       0.2581095       64.52953
2009    26      1       0.1256211       35.67137
2009    26      2       0.1083974       31.41848
2009    26      3       0.1506342       40.67786
2009    26      4       0.3251979       76.61189
2009    26      5       0.5545828       116.5713
2009    26      6       0.9162662       162.7881
2009    26      7       0.9006326       161.0511
2009    27      0       0.9048519       160.2329
2009    27      1       0.7874857       146.4901
2009    27      2       0.5767248       119.7188
2009    27      3       0.1154289       33.15992
2009    27      4       0.1042764       30.07762
2009    27      5       0.1031144       29.51951
2009    27      6       0.1880727       49.04278
2009    27      7       0.2588901       64.13371
2009    28      0       0.2515814       62.59725
2009    28      1       0.1971316       51.49383
2009    28      2       0.1559165       42.75416
2009    28      3       0.1358902       38.46431
2009    28      4       0.1261962       36.29833
2009    28      5       0.117645        34.35891
2009    28      6       0.115483        33.66323
2009    28      7       0.1074219       31.6618
2009    29      0       0.1121637       32.77334
2009    29      1       0.1910179       50.77889
2009    29      2       0.3867383       90.11589
2009    29      3       0.6613918       134.3566
2009    29      4       0.6909199       138.3167
2009    29      5       0.7414497       145.0419
2009    29      6       0.6446108       131.2862
2009    29      7       0.6140544       126.6825
2009    30      0       0.5156525       111.7483
2009    30      1       0.4544544       101.6147
2009    30      2       0.4852921       106.8467
2009    30      3       0.5832317       121.8026
2009    30      4       0.5593159       118.1744
2009    30      5       0.5431803       114.9839
2009    30      6       0.797221        149.6506
2009    30      7       0.858853        156.5372
2009    31      0       0.7851467       148.5103
2009    31      1       0.7381262       142.9303
2009    31      2       0.7684204       146.5339
2009    31      3       0.7333926       142.5957
2009    31      4       0.7676178       146.7084
2009    31      5       0.8108793       151.5964
2009    31      6       0.8839589       159.6493
2009    31      7       0.8612847       157.3836
2010    1       0       0.8161552       154.9252
2010    1       1       0.6053123       125.8435
2010    1       2       0.4696445       104.2986
2010    1       3       0.3770391       88.40196
2010    1       4       0.3611699       86.06416
2010    1       5       0.3726966       88.33892
2010    1       6       0.3744768       88.32013
2010    1       7       0.3827281       88.90672
2010    2       0       0.3401538       81.99022
2010    2       1       0.2877393       72.02287
2010    2       2       0.2522381       65.65861
2010    2       3       0.1389758       40.18077
2010    2       4       0.07581379      24.12541
2010    2       5       0.08278652      25.78869
2010    2       6       0.08551276      26.38736
2010    2       7       0.1092464       31.95327
2010    3       0       0.1128218       32.82693
2010    3       1       0.1450634       40.15986
2010    3       2       0.1174926       34.0416
2010    3       3       0.1372848       38.07956
2010    3       4       0.1924723       50.27956
2010    3       5       0.3110683       74.47255
2010    3       6       0.4294757       96.84249
2010    3       7       0.5845527       123.0974
2010    4       0       0.4841541       107.3055
2010    4       1       0.4130479       94.49589
2010    4       2       0.4858982       107.5412
2010    4       3       0.3242869       78.6777
2010    4       4       0.3658138       85.44397
2010    4       5       0.4298132       97.20369
2010    4       6       0.525886        112.2855
2010    4       7       0.4399952       99.19831
2010    5       0       0.2741659       67.69023
2010    5       1       0.2256268       58.7098
2010    5       2       0.1976812       52.59471
2010    5       3       0.2282166       59.34975
2010    5       4       0.2139712       56.40445
2010    5       5       0.2277871       58.79399
2010    5       6       0.195118        51.27444
2010    5       7       0.1894962       50.18676
2010    6       0       0.2412476       61.05574
2010    6       1       0.2930635       71.34351
2010    6       2       0.2281585       58.81604
2010    6       3       0.2091909       54.88841
2010    6       4       0.3339676       79.80499
2010    6       5       0.5218925       112.0977
2010    6       6       0.5761524       120.2642
2010    6       7       0.5714167       119.3765
2010    7       0       0.5553168       116.363
2010    7       1       0.7640678       143.7087
2010    7       2       0.7288757       140.4697
2010    7       3       0.945922        164.959
2010    7       4       0.9295171       163.7636
2010    7       5       0.6308174       127.6138
2010    7       6       0.5688489       118.4296
2010    7       7       0.4587773       100.6825
2010    8       0       0.3891664       89.01005
2010    8       1       0.3778047       86.56524
2010    8       2       0.3781723       86.65529
2010    8       3       0.483775        105.1464
2010    8       4       0.5796307       120.3614
2010    8       5       0.598888        123.5906
2010    8       6       0.2906922       72.13541
2010    8       7       0.2263395       59.01498
2010    9       0       0.3050578       75.28827
2010    9       1       0.3725744       87.61223
2010    9       2       0.3152775       76.41645
2010    9       3       0.2324324       59.95141
2010    9       4       0.2350264       60.07301
2010    9       5       0.3293468       77.70715
2010    9       6       0.3806412       87.58228
2010    9       7       0.3659786       85.32487
2010    10      0       0.3714007       86.0241
2010    10      1       0.6915041       134.5667
2010    10      2       0.6939313       135.7499
2010    10      3       0.5722069       118.5954
2010    10      4       0.5239035       112.5568
2010    10      5       0.3998088       92.2834
2010    10      6       0.4097096       94.20409
2010    10      7       0.5427323       117.3722
2010    11      0       0.4606029       103.8483
2010    11      1       0.354485        84.98903
2010    11      2       0.1554944       42.24625
2010    11      3       0.1326648       36.89281
2010    11      4       0.1315145       36.76181
2010    11      5       0.1710108       45.36706
2010    11      6       0.2112961       54.06442
2010    11      7       0.1671652       44.88337
2010    12      0       0.1369327       38.08296
2010    12      1       0.1993313       51.3241
2010    12      2       0.2736633       66.92377
2010    12      3       0.4093374       92.95554
2010    12      4       0.6677351       134.3117
2010    12      5       0.5687282       119.5743
2010    12      6       0.5492018       116.6916
2010    12      7       0.5638446       118.5392
2010    13      0       0.5582632       117.7982
2010    13      1       0.5375718       114.371
2010    13      2       0.5048202       109.1841
2010    13      3       0.4474788       100.129
2010    13      4       0.523838        112.5951
2010    13      5       0.5179637       112.1368
2010    13      6       0.4716801       104.4141
2010    13      7       0.4212442       95.89968
2010    14      0       0.4568252       102.3008
2010    14      1       0.4809012       106.2647
2010    14      2       0.5203312       111.2067
2010    14      3       0.6610138       131.3558
2010    14      4       0.6598609       130.9189
2010    14      5       0.7925643       148.685
2010    14      6       0.8930663       160.7958
2010    14      7       0.7618496       146.0975
2010    15      0       0.5710586       119.755
2010    15      1       0.4231815       95.02131
2010    15      2       0.457987        100.4821
2010    15      3       0.5692735       118.5898
2010    15      4       0.6730934       133.4763
2010    15      5       0.6424935       129.2835
2010    15      6       0.4800096       104.593
2010    15      7       0.4465536       99.0365
2010    16      0       0.475842        103.7277
2010    16      1       0.5007046       107.7258
2010    16      2       0.2839583       69.5108
2010    16      3       0.1303103       36.7296
2010    16      4       0.1352587       37.87051
2010    16      5       0.1498694       41.14574
2010    16      6       0.1436827       39.70909
2010    16      7       0.1329835       37.26572
2010    17      0       0.1469723       40.52021
2010    17      1       0.1780912       47.36697
2010    17      2       0.2922554       70.86558
2010    17      3       0.4530463       99.71819
2010    17      4       0.5674336       116.5316
2010    17      5       0.6541992       128.1682
2010    17      6       0.3520501       81.12635
2010    17      7       0.2068602       53.11897
2010    18      0       0.168789        45.04359
2010    18      1       0.3557361       82.77542
2010    18      2       0.3589664       83.58132
2010    18      3       0.1344434       37.37713
2010    18      4       0.09697491      28.34064
2010    18      5       0.1283469       35.78543
2010    18      6       0.1433739       39.11825
2010    18      7       0.125737        34.84768
2010    19      0       0.1711014       45.29299
2010    19      1       0.1947381       50.70428
2010    19      2       0.1484217       40.51172
2010    19      3       0.1255896       35.27892
2010    19      4       0.1189119       33.82954
2010    19      5       0.1142931       32.85064
2010    19      6       0.1013233       29.85513
2010    19      7       0.09283369      27.88726
2010    20      0       0.09492078      28.36271
2010    20      1       0.1030049       30.07628
2010    20      2       0.1008105       29.44032
2010    20      3       0.09590087      28.26865
2010    20      4       0.09182806      27.39147
2010    20      5       0.08886094      26.74383
2010    20      6       0.08839025      26.62373
2010    20      7       0.08801113      26.56098
2010    21      0       0.09128732      27.31974
2010    21      1       0.09328343      27.79386
2010    21      2       0.0834649       25.58994
2010    21      3       0.07532134      23.67828
2010    21      4       0.07529689      23.64011
2010    21      5       0.07655768      23.86525
2010    21      6       0.07432975      23.29721
2010    21      7       0.07724164      24.17045
2010    22      0       0.09428427      28.57548
2010    22      1       0.116742        34.19514
2010    22      2       0.1374904       39.11202
2010    22      3       0.1895225       51.04784
2010    22      4       0.258993        66.09138
2010    22      5       0.3262979       79.67748
2010    22      6       0.3756352       89.06766
2010    22      7       0.3953542       92.58631
2010    23      0       0.4139533       95.74046
2010    23      1       0.4198189       96.74487
2010    23      2       0.3840445       90.56308
2010    23      3       0.3510283       84.42315
2010    23      4       0.3378786       81.86467
2010    23      5       0.3414125       82.38722
2010    23      6       0.3518169       84.24136
2010    23      7       0.3688049       87.26927
2010    24      0       0.3889932       90.66166
2010    24      1       0.4337439       98.12366
2010    24      2       0.4843806       106.3332
2010    24      3       0.6948043       136.9448
2010    24      4       0.910929        162.4239
2010    24      5       0.9331502       163.8212
2010    24      6       0.8541106       155.407
2010    24      7       0.7991397       148.7486
2010    25      0       0.9281894       163.0931
2010    25      1       1.053873        175.7585
2010    25      2       1.29182         195.9866
2010    25      3       1.13623         184.0969
2010    25      4       1.120246        183.3052
2010    25      5       0.5998053       124.5029
2010    25      6       0.3250092       78.47218
2010    25      7       0.3154284       76.67675
2010    26      0       0.3599707       84.94548
2010    26      1       0.3630331       85.16957
2010    26      2       0.3243033       77.60177
2010    26      3       0.3679405       86.11785
2010    26      4       0.3952451       91.54182
2010    26      5       0.3367067       80.95784
2010    26      6       0.2705573       67.94585
2010    26      7       0.2099919       55.09007
2010    27      0       0.1461551       40.77373
2010    27      1       0.1533171       42.44517
2010    27      2       0.1673427       45.71782
2010    27      3       0.1796612       48.36581
2010    27      4       0.2408634       61.2165
2010    27      5       0.2791162       69.43605
2010    27      6       0.5819188       121.576
2010    27      7       0.5359209       114.8507
2010    28      0       0.427221        96.72786
2010    28      1       0.3719842       88.17543
2010    28      2       0.2773426       70.07791
2010    28      3       0.06353896      20.73341
2010    28      4       0.08926177      27.12187
2010    28      5       0.0907631       27.53537
2010    28      6       0.09398202      28.31824
2010    28      7       0.08439251      25.93632
2010    29      0       0.09601106      28.69559
2010    29      1       0.1066327       31.23203
2010    29      2       0.09968248      29.61811
2010    29      3       0.09931556      29.39867
2010    29      4       0.1667508       45.16455
2010    29      5       0.1681038       45.64472
2010    29      6       0.1325128       37.49947
2010    29      7       0.1284684       36.59882
2010    30      0       0.1304948       37.10426
2010    30      1       0.1285727       36.54073
2010    30      2       0.1508187       41.43726
2010    30      3       0.1626397       43.97757
2010    30      4       0.2231167       57.26371
2010    30      5       0.2463582       62.8427
2010    30      6       0.2580178       65.54686
2010    30      7       0.3522812       84.08436
2010    31      0       0.4917072       107.339
2010    31      1       0.4315382       98.07374
2010    31      2       0.3692892       87.04194
2010    31      3       0.4094822       94.74458
2010    31      4       0.3971318       92.44059
2010    31      5       0.3663316       86.74905
2010    31      6       0.2837406       70.90667
2010    31      7       0.2224918       57.47865
2011    1       0       0.3098576       73.75265
2011    1       1       0.3757122       85.3817
2011    1       2       0.3142418       74.78334
2011    1       3       0.2703884       66.63863
2011    1       4       0.2761395       68.04483
2011    1       5       0.2445708       62.00724
2011    1       6       0.2784745       68.80037
2011    1       7       0.3144721       75.75562
2011    2       0       0.335801        79.55963
2011    2       1       0.4183339       93.88061
2011    2       2       0.4023606       91.09053
2011    2       3       0.5737201       117.9255
2011    2       4       0.6087093       125.1994
2011    2       5       0.5273364       112.9042
2011    2       6       0.7803847       148.1519
2011    2       7       0.5014093       107.8232
2011    3       0       0.5120663       109.6095
2011    3       1       0.5385499       112.7597
2011    3       2       0.6161507       124.6277
2011    3       3       0.4956433       108.0707
2011    3       4       0.5025448       109.3422
2011    3       5       0.4602357       102.127
2011    3       6       0.4602732       101.9518
2011    3       7       0.4662492       103.075
2011    4       0       0.5036182       109.3939
2011    4       1       0.6081581       124.8035
2011    4       2       0.5408523       114.3977
2011    4       3       0.4816722       105.5306
2011    4       4       0.4353457       98.01081
2011    4       5       0.4153887       94.3094
2011    4       6       0.3922763       89.38587
2011    4       7       0.5253188       110.8829
2011    5       0       0.6263803       127.5211
2011    5       1       0.5663561       119.775
2011    5       2       0.4333938       97.71947
2011    5       3       0.4048732       92.74141
2011    5       4       0.4175637       96.09109
2011    5       5       0.3657498       86.74241
2011    5       6       0.2641506       66.47615
2011    5       7       0.2240048       57.75163
2011    6       0       0.1558149       42.52188
2011    6       1       0.1451521       40.46778
2011    6       2       0.2338717       60.20035
2011    6       3       0.5159968       112.0888
2011    6       4       0.6013426       124.7904
2011    6       5       0.2270137       58.26195
2011    6       6       0.2647701       65.83411
2011    6       7       0.40461         92.20865
2011    7       0       0.4285762       96.38413
2011    7       1       0.4848267       105.6083
2011    7       2       0.6041849       122.0654
2011    7       3       0.7303423       137.5018
2011    7       4       0.7372513       140.729
2011    7       5       0.89245         159.49
2011    7       6       0.8055692       149.8679
2011    7       7       0.7329903       140.6555
2011    8       0       0.6682795       131.9119
2011    8       1       0.6025869       122.0512
2011    8       2       0.4702126       101.0509
2011    8       3       0.4630275       98.20843
2011    8       4       0.5104796       106.7124
2011    8       5       0.8764159       152.4939
2011    8       6       0.6294276       122.5621
2011    8       7       0.4484883       95.6134
2011    9       0       0.4791848       99.90184
2011    9       1       0.4071478       88.55182
2011    9       2       0.4790138       100.5076
2011    9       3       0.3967774       87.8446
2011    9       4       0.3816604       85.34353
2011    9       5       0.2681235       64.49946
2011    9       6       0.3042771       71.72528
2011    9       7       0.3036519       71.6977
2011    10      0       0.2483123       61.09769
2011    10      1       0.09975457      29.12724
2011    10      2       0.08571418      25.85672
2011    10      3       0.129885        36.2391
2011    10      4       0.1121631       32.19074
2011    10      5       0.07344794      22.88067
2011    10      6       0.08772074      26.27651
2011    10      7       0.1140596       32.3902
2011    11      0       0.1262339       35.18444
2011    11      1       0.1818013       47.75358
2011    11      2       0.2272471       57.46436
2011    11      3       0.2800817       68.04082
2011    11      4       0.2758501       67.26902
2011    11      5       0.241726        60.5204
2011    11      6       0.1882859       49.42301
2011    11      7       0.1612344       43.61248
2011    12      0       0.1492081       41.02815
2011    12      1       0.1450497       40.13213
2011    12      2       0.1345732       37.71367
2011    12      3       0.1312577       36.90388
2011    12      4       0.1287072       36.3609
2011    12      5       0.1185914       34.03948
2011    12      6       0.0914928       27.53446
2011    12      7       0.08368976      25.63448
2011    13      0       0.08159657      25.2236
2011    13      1       0.08405322      25.99297
2011    13      2       0.08762652      26.84425
2011    13      3       0.09081057      27.65709
2011    13      4       0.08843733      27.02379
2011    13      5       0.08917764      27.04801
2011    13      6       0.08317691      25.61103
2011    13      7       0.08450571      25.74403
2011    14      0       0.1103464       31.34924
2011    14      1       0.1612899       42.51487
2011    14      2       0.1924535       49.33177
2011    14      3       0.230731        57.34666
2011    14      4       0.2096555       53.27086
2011    14      5       0.1848662       48.48847
2011    14      6       0.1586744       42.97622
2011    14      7       0.146067        40.26795
2011    15      0       0.1536016       41.87569
2011    15      1       0.1861756       48.95987
2011    15      2       0.2032415       52.67672
2011    15      3       0.2473357       62.46402
2011    15      4       0.2655907       66.66159
2011    15      5       0.2831506       70.45806
2011    15      6       0.2962623       73.1684
2011    15      7       0.305833        75.11668
2011    16      0       0.4988869       109.9719
2011    16      1       0.3503016       83.02974
2011    16      2       0.3752429       87.31266
2011    16      3       0.3969651       90.85085
2011    16      4       0.411572        93.54332
2011    16      5       0.3720606       86.99195
2011    16      6       0.4155688       94.74542
2011    16      7       0.4084924       93.72481
2011    17      0       0.4220774       95.61426
2011    17      1       0.455129        101.4809
2011    17      2       0.5750364       119.9493
2011    17      3       0.6420169       130.3679
2011    17      4       0.7830943       148.7582
2011    17      5       0.7597587       147.0609
2011    17      6       0.8531302       157.6329
2011    17      7       0.8881735       161.2665
2011    18      0       1.129433        184.1329
2011    18      1       1.261499        194.8628
2011    18      2       0.9297793       164.7905
2011    18      3       0.6052207       125.6393
2011    18      4       0.5887136       123.5771
2011    18      5       0.2710999       68.37131
2011    18      6       0.07387779      23.53433
2011    18      7       0.1280207       36.75227
2011    19      0       0.163604        44.95344
2011    19      1       0.1646798       45.15956
2011    19      2       0.1752207       47.40607
2011    19      3       0.1943062       51.44017
2011    19      4       0.2576408       64.69209
2011    19      5       0.2795735       69.30162
2011    19      6       0.2986717       72.71275
2011    19      7       0.2968645       72.32417
2011    20      0       0.2913439       71.19803
2011    20      1       0.3442521       81.10493
2011    20      2       0.4621793       101.7486
2011    20      3       0.4840628       105.0465
2011    20      4       0.6447187       129.4439
2011    20      5       0.7622437       144.963
2011    20      6       0.865319        156.9403
2011    20      7       0.856259        155.7359
2011    21      0       0.77918         146.3347
2011    21      1       0.8064099       149.4546
2011    21      2       0.8914812       158.411
2011    21      3       0.896032        157.4689
2011    21      4       0.8685323       154.1145
2011    21      5       1.191988        186.8297
2011    21      6       0.9751768       167.4307
2011    21      7       0.7952211       148.0904
2011    22      0       0.6011552       122.7531
2011    22      1       0.3947952       89.48965
2011    22      2       0.3257526       77.12569
2011    22      3       0.3013373       72.7135
2011    22      4       0.2665758       65.97841
2011    22      5       0.2468567       61.99183
2011    22      6       0.2462507       61.74648
2011    22      7       0.2563243       63.80855
2011    23      0       0.2392301       60.33128
2011    23      1       0.2038633       52.78241
2011    23      2       0.2000861       51.90936
2011    23      3       0.2039171       52.73292
2011    23      4       0.2181883       55.71176
2011    23      5       0.2028978       52.33738
2011    23      6       0.187107        48.67927
2011    23      7       0.3340109       77.99048
2011    24      0       0.2806492       67.58616
2011    24      1       0.3104692       73.69406
2011    24      2       0.2734285       66.69965
2011    24      3       0.3718129       85.5624
2011    24      4       0.4246024       95.35974
2011    24      5       0.7553014       144.4027
2011    24      6       0.2494088       62.80208
2011    24      7       0.163172        44.21766
2011    25      0       0.1303071       36.64502
2011    25      1       0.1318791       37.0754
2011    25      2       0.1411989       39.52569
2011    25      3       0.1172765       34.10043
2011    25      4       0.1114375       32.7887
2011    25      5       0.106469        31.61799
2011    25      6       0.09687334      29.28782
2011    25      7       0.08615754      26.64792
2011    26      0       0.08301036      25.86726
2011    26      1       0.08393446      26.09726
2011    26      2       0.09539734      28.84071
2011    26      3       0.1091529       32.03037
2011    26      4       0.1102907       31.85666
2011    26      5       0.1290148       36.00748
2011    26      6       0.1576719       42.23505
2011    26      7       0.3027114       71.44532
2011    27      0       0.3152094       74.2774
2011    27      1       0.2188715       55.61388
2011    27      2       0.2003496       51.29925
2011    27      3       0.3293951       77.45601
2011    27      4       0.5322141       112.0445
2011    27      5       0.4671032       102.9032
2011    27      6       0.4601085       101.6486
2011    27      7       0.4150905       94.33873
2011    28      0       0.4173263       94.9263
2011    28      1       0.3655175       85.74173
2011    28      2       0.2820718       69.8164
2011    28      3       0.2150677       56.05239
2011    28      4       0.2060458       53.96297
2011    28      5       0.1961186       51.7987
2011    28      6       0.1884263       50.14781
2011    28      7       0.2051602       53.75125
2011    29      0       0.2170024       56.33501
2011    29      1       0.2145183       55.78503
2011    29      2       0.2840192       70.11267
2011    29      3       0.3455468       82.08953
2011    29      4       0.4026235       92.33924
2011    29      5       0.3951151       90.68086
2011    29      6       0.3974827       90.72748
2011    29      7       0.5146235       110.2942
2011    30      0       0.6022943       122.5668
2011    30      1       0.668951        131.9029
2011    30      2       0.4862426       106.3483
2011    30      3       0.5315272       113.3156
2011    30      4       0.516044        110.4928
2011    30      5       0.4892453       106.3714
2011    30      6       0.4702947       103.4001
2011    30      7       0.4729984       103.9113
2011    31      0       0.7043958       137.2706
2011    31      1       0.6439071       129.5734
2011    31      2       0.6325156       128.1023
2011    31      3       0.7496704       142.804
2011    31      4       0.7838938       146.8336
2011    31      5       0.6300932       126.7731
2011    31      6       0.5877311       121.2511
2011    31      7       0.5687782       119.2891
2012    1       0       0.5399358       111.8505
2012    1       1       0.3595969       82.30903
2012    1       2       0.2811603       67.44785
2012    1       3       0.3446203       78.88604
2012    1       4       0.5348868       109.6795
2012    1       5       0.5033327       105.0526
2012    1       6       0.409273        90.20478
2012    1       7       0.5065252       106.0013
2012    2       0       0.3761819       85.15028
2012    2       1       0.1911425       49.76762
2012    2       2       0.1442673       39.43883
2012    2       3       0.1536986       41.43904
2012    2       4       0.1271114       35.04971
2012    2       5       0.1938308       49.70342
2012    2       6       0.1879161       49.07446
2012    2       7       0.2164235       55.26466
2012    3       0       0.2663257       65.71552
2012    3       1       0.2949843       71.79341
2012    3       2       0.250321        63.23202
2012    3       3       0.1468583       40.91155
2012    3       4       0.1203357       34.74497
2012    3       5       0.1072505       31.364
2012    3       6       0.1359565       37.60953
2012    3       7       0.1752777       46.7277
2012    4       0       0.257413        64.54644
2012    4       1       0.3467784       82.28666
2012    4       2       0.3577097       84.22613
2012    4       3       0.3484913       82.40958
2012    4       4       0.3658263       85.61211
2012    4       5       0.4054253       92.62804
2012    4       6       0.404329        92.33308
2012    4       7       0.380558        87.98131
2012    5       0       0.3971775       90.78327
2012    5       1       0.4003264       90.83632
2012    5       2       0.4034915       90.94786
2012    5       3       0.7056924       137.0559
2012    5       4       0.4523415       98.94828
2012    5       5       0.3401846       79.91556
2012    5       6       0.4453401       98.48184
2012    5       7       0.5632099       117.3169
2012    6       0       1.014664        172.368
2012    6       1       0.622041        126.5163
2012    6       2       0.3901786       89.69342
2012    6       3       0.656242        131.6188
2012    6       4       0.716839        139.9688
2012    6       5       0.6819417       135.5184
2012    6       6       0.4436897       99.52048
2012    6       7       0.4368773       98.25343
2012    7       0       0.3224807       77.31646
2012    7       1       0.2078642       53.91554
2012    7       2       0.2062076       53.27531
2012    7       3       0.3356251       78.85747
2012    7       4       0.4876707       104.7804
2012    7       5       0.4600102       100.6282
2012    7       6       0.4209265       94.28238
2012    7       7       0.4379991       97.21343
2012    8       0       0.4030414       91.43894
2012    8       1       0.3654159       84.87051
2012    8       2       0.3626787       84.18109
2012    8       3       0.3586028       83.28538
2012    8       4       0.3544221       82.55121
2012    8       5       0.3388679       79.94506
2012    8       6       0.3195302       76.47041
2012    8       7       0.2898623       70.72492
2012    9       0       0.286838        70.08146
2012    9       1       0.2579948       64.38204
2012    9       2       0.2390437       60.42286
2012    9       3       0.2124001       54.76325
2012    9       4       0.2986096       73.07095
2012    9       5       0.2047347       53.38461
2012    9       6       0.2305237       58.3442
2012    9       7       0.2875643       69.78423
2012    10      0       0.3043031       73.28759
2012    10      1       0.2710461       67.14957
2012    10      2       0.2747232       67.57002
2012    10      3       0.3427383       80.27456
2012    10      4       0.4035271       91.58409
2012    10      5       0.3941532       90.17586
2012    10      6       0.4484037       99.16362
2012    10      7       0.8299122       154.5186
2012    11      0       0.7773451       148.1735
2012    11      1       0.726114        141.4843
2012    11      2       0.6076903       124.9164
2012    11      3       0.3743236       87.54022
2012    11      4       0.3361585       81.14076
2012    11      5       0.3010138       73.8304
2012    11      6       0.3656184       85.45451
2012    11      7       0.5159345       110.372
2012    12      0       0.6354445       127.4654
2012    12      1       0.819712        151.1241
2012    12      2       0.5558369       116.603
2012    12      3       1.012865        172.0832
2012    12      4       1.200215        187.6438
2012    12      5       0.9955823       169.0849
2012    12      6       0.616327        124.6722
2012    12      7       0.7554077       142.9374
2012    13      0       0.7604647       142.6749
2012    13      1       0.5762028       117.2121
2012    13      2       0.7378142       137.4896
2012    13      3       0.8258087       148.9008
2012    13      4       0.7877387       145.6464
2012    13      5       0.5704475       117.2771
2012    13      6       0.6884278       133.3602
2012    13      7       0.5418103       112.633
2012    14      0       0.7168641       136.6216
2012    14      1       1.008059        169.2662
2012    14      2       0.7416754       140.6763
2012    14      3       0.694377        135.017
2012    14      4       0.5826003       119.7169
2012    14      5       0.3470252       80.74786
2012    14      6       0.3714254       85.78583
2012    14      7       0.1271416       35.78402
2012    15      0       0.09880868      29.14969
2012    15      1       0.1158047       33.17437
2012    15      2       0.141623        39.09593
2012    15      3       0.1464184       40.18673
2012    15      4       0.1398424       38.73432
2012    15      5       0.1422531       39.30225
2012    15      6       0.1773678       47.11761
2012    15      7       0.2335473       59.1948
2012    16      0       0.2286257       58.06635
2012    16      1       0.2510883       62.70018
2012    16      2       0.7474677       142.7788
2012    16      3       0.6677432       132.5042
2012    16      4       0.1598964       43.33088
2012    16      5       0.1290009       36.4354
2012    16      6       0.136444        38.17118
2012    16      7       0.15348         42.048
2012    17      0       0.1895377       50.07093
2012    17      1       0.2219948       56.96841
2012    17      2       0.2286999       58.31157
2012    17      3       0.2108513       54.56801
2012    17      4       0.1951457       51.34121
2012    17      5       0.171393        46.27851
2012    17      6       0.1405232       39.34864
2012    17      7       0.1232368       35.3281
2012    18      0       0.1214235       34.8927
2012    18      1       0.1247944       35.68281
2012    18      2       0.1356546       38.19433
2012    18      3       0.1422131       39.69554
2012    18      4       0.1447188       40.26698
2012    18      5       0.1412883       39.51981
2012    18      6       0.1379458       38.77376
2012    18      7       0.1341119       37.89256
2012    19      0       0.1305341       37.09321
2012    19      1       0.1204182       34.74661
2012    19      2       0.1096315       32.16836
2012    19      3       0.1037341       30.74356
2012    19      4       0.1046894       30.97831
2012    19      5       0.1056264       31.21347
2012    19      6       0.09405762      28.41454
2012    19      7       0.08254014      25.58041
2012    20      0       0.07911451      24.70418
2012    20      1       0.08168433      25.30789
2012    20      2       0.08476312      26.00777
2012    20      3       0.08659365      26.42678
2012    20      4       0.08944689      27.13824
2012    20      5       0.08981916      27.17537
2012    20      6       0.1013048       29.96086
2012    20      7       0.2036962       53.58161
2012    21      0       0.2363402       60.58719
2012    21      1       0.2245266       58.01243
2012    21      2       0.1921913       50.99828
2012    21      3       0.1619725       44.07656
2012    21      4       0.1742986       46.9454
2012    21      5       0.1772211       47.66595
2012    21      6       0.1844792       49.34948
2012    21      7       0.1733041       46.95391
2012    22      0       0.1210485       34.8284
2012    22      1       0.1034234       30.59522
2012    22      2       0.1090829       31.92759
2012    22      3       0.1472123       40.84199
2012    22      4       0.1587369       43.48608
2012    22      5       0.142736        39.84774
2012    22      6       0.1065038       31.40206
2012    22      7       0.08744903      26.76793
2012    23      0       0.1044029       30.91925
2012    23      1       0.1389689       39.10564
2012    23      2       0.1619052       44.32988
2012    23      3       0.1714271       46.39584
2012    23      4       0.1709292       46.22159
2012    23      5       0.176007        47.2835
2012    23      6       0.20298         52.97456
2012    23      7       0.2296301       58.53484
2012    24      0       0.2484567       62.32882
2012    24      1       0.2620701       64.92314
2012    24      2       0.2693695       66.07039
2012    24      3       0.2777781       67.60986
2012    24      4       0.3072675       73.32083
2012    24      5       0.3192195       75.59717
2012    24      6       0.2981732       71.53877
2012    24      7       0.2602629       64.32403
2012    25      0       0.2615861       64.6449
2012    25      1       0.2904019       70.0673
2012    25      2       0.3014593       71.65244
2012    25      3       0.2459334       61.01221
2012    25      4       0.2101051       54.13204
2012    25      5       0.2298841       58.43457
2012    25      6       0.1877533       49.30034
2012    25      7       0.1712299       45.59029
2012    26      0       0.2180457       55.78129
2012    26      1       0.3360777       79.46175
2012    26      2       0.3720356       85.914
2012    26      3       0.5018786       107.2477
2012    26      4       0.3866427       88.08478
2012    26      5       0.2691621       66.42492
2012    26      6       0.2860593       69.83059
2012    26      7       0.2895081       70.56381
2012    27      0       0.3326912       78.7186
2012    27      1       0.3350333       78.98098
2012    27      2       0.3564314       82.39061
2012    27      3       0.4281182       94.51103
2012    27      4       0.408197        91.89198
2012    27      5       0.2783015       68.56699
2012    27      6       0.2513176       63.14
2012    27      7       0.2133922       55.17061
2012    28      0       0.2233918       57.32647
2012    28      1       0.2140069       55.3542
2012    28      2       0.2135592       55.14612
2012    28      3       0.3208559       76.00879
2012    28      4       0.5724904       117.0299
2012    28      5       0.6761068       132.3534
2012    28      6       0.3597457       83.61659
2012    28      7       0.1550148       42.27319
2012    29      0       0.1517102       41.4212
2012    29      1       0.1904626       50.07107
2012    29      2       0.1737803       46.37818
2012    29      3       0.1878975       49.41386
2012    29      4       0.2157436       55.48773
2012    29      5       0.1904919       50.18266
2012    29      6       0.1658087       44.83429
2012    29      7       0.1737645       46.81552
2012    30      0       0.1748428       47.11683
2012    30      1       0.185866        49.60299
2012    30      2       0.1572579       43.29513
2012    30      3       0.1268254       36.17608
2012    30      4       0.1356471       38.24634
2012    30      5       0.1454757       40.58307
2012    30      6       0.1383383       38.84145
2012    30      7       0.1283568       36.37488
2012    31      0       0.142224        39.57623
2012    31      1       0.1487055       41.13012
2012    31      2       0.1456099       40.49985
2012    31      3       0.1377125       38.70559
2012    31      4       0.1356955       38.20037
2012    31      5       0.1671458       45.28075
2012    31      6       0.2130985       54.28389
2012    31      7       0.2999138       71.32213
2013    1       0       0.2296109       58.03149
2013    1       1       0.1998733       51.80113
2013    1       2       0.1637214       43.94092
2013    1       3       0.1239551       34.94533
2013    1       4       0.1189794       33.96543
2013    1       5       0.09366086      27.82337
2013    1       6       0.1021497       29.83856
2013    1       7       0.110784        31.98899
2013    2       0       0.1278091       36.07948
2013    2       1       0.166974        44.88909
2013    2       2       0.2215352       56.69006
2013    2       3       0.2579085       64.21611
2013    2       4       0.2552541       64.06218
2013    2       5       0.3004957       72.12989
2013    2       6       0.2664491       66.26982
2013    2       7       0.3395604       80.48748
2013    3       0       0.4098658       93.53773
2013    3       1       0.7424792       141.743
2013    3       2       0.8918552       159.6134
2013    3       3       0.4827836       103.6852
2013    3       4       0.7546153       143.0314
2013    3       5       0.8623478       157.8918
2013    3       6       0.3010689       73.46662
2013    3       7       0.2554516       64.19144
2013    4       0       0.2670975       66.69601
2013    4       1       0.2821282       69.86049
2013    4       2       0.2679865       66.91217
2013    4       3       0.2167858       56.2901
2013    4       4       0.1512171       41.80368
2013    4       5       0.1041117       30.68561
2013    4       6       0.08271113      25.47721
2013    4       7       0.08148764      25.2305
2013    5       0       0.0825559       25.47042
2013    5       1       0.06978736      22.31733
2013    5       2       0.05876683      19.57487
2013    5       3       0.06227915      20.40197
2013    5       4       0.08309046      25.52213
2013    5       5       0.07719319      24.00805
2013    5       6       0.08893438      26.73645
2013    5       7       0.1047194       30.32458
2013    6       0       0.1166705       32.91472
2013    6       1       0.1561389       41.63951
2013    6       2       0.1916212       49.46519
2013    6       3       0.2227708       56.04047
2013    6       4       0.3306812       77.05564
2013    6       5       0.3720489       85.03717
2013    6       6       0.4180922       93.19308
2013    6       7       0.5281793       110.2743
2013    7       0       0.6692375       132.4215
2013    7       1       0.8144857       150.7496
2013    7       2       0.5240201       111.3531
2013    7       3       0.4551535       100.0842
2013    7       4       0.6098299       125.1766
2013    7       5       0.6356653       129.3684
2013    7       6       0.543191        115.0367
2013    7       7       0.4623538       101.9021
2013    8       0       0.4883354       106.135
2013    8       1       0.4467931       99.13788
2013    8       2       0.4718939       103.2136
2013    8       3       0.7138395       139.473
2013    8       4       1.08103         179.6137
2013    8       5       0.8573529       156.8471
2013    8       6       0.5656219       119.046
2013    8       7       0.5576858       117.7088
2013    9       0       0.5438674       114.9211
2013    9       1       0.4827336       105.5903
2013    9       2       0.7060497       139.0007
2013    9       3       0.9324697       166.3779
2013    9       4       0.4916039       108.0805
2013    9       5       0.2463343       62.66572
2013    9       6       0.2052159       53.68067
2013    9       7       0.1730318       46.78336
2013    10      0       0.2576935       64.13031
2013    10      1       0.6535443       132.0906
2013    10      2       0.5808033       122.1407
2013    10      3       0.5730695       121.256
2013    10      4       0.5364545       115.4387
2013    10      5       0.5686938       120.558
2013    10      6       0.6411924       130.3239
2013    10      7       0.4464119       101.1049
2013    11      0       0.265003        67.37886
2013    11      1       0.4835546       108.8004
2013    11      2       0.2158999       56.98753
2013    11      3       0.2483988       63.19491
2013    11      4       0.2639335       66.25233
2013    11      5       0.3569456       84.76454
2013    11      6       0.4096312       94.21567
2013    11      7       0.3755035       87.93135
2013    12      0       0.4951833       108.128
2013    12      1       0.5621174       118.6578
2013    12      2       0.5083947       110.596
2013    12      3       0.3551966       85.07763
2013    12      4       0.249862        64.25344
2013    12      5       0.1270385       36.34504
2013    12      6       0.1508336       41.86211
2013    12      7       0.1896136       49.92855
2013    13      0       0.2875728       69.26479
2013    13      1       0.3070631       73.57486
2013    13      2       0.3024022       72.97114
2013    13      3       0.4494257       99.88074
2013    13      4       0.5735009       118.8538
2013    13      5       0.6495327       129.8919
2013    13      6       0.606732        124.6505
2013    13      7       0.5698111       118.5978
2013    14      0       0.4347456       97.31716
2013    14      1       0.3858832       87.63854
2013    14      2       0.4322561       96.62271
2013    14      3       0.5010879       109.5574
2013    14      4       0.4364732       98.91874
2013    14      5       0.5511151       116.0431
2013    14      6       0.5521729       115.9085
2013    14      7       0.5936037       122.0359
2013    15      0       0.6458141       129.2525
2013    15      1       0.6843143       133.7064
2013    15      2       0.3282774       78.0728
2013    15      3       0.3417986       81.11057
2013    15      4       0.1964669       51.43606
2013    15      5       0.4021941       90.65457
2013    15      6       0.5131763       108.0154
2013    15      7       0.6557082       129.4914
2013    16      0       0.5330199       110.8148
2013    16      1       0.8687966       154.4858
2013    16      2       0.6728601       130.6174
2013    16      3       0.5706421       116.2335
2013    16      4       0.4934176       104.7689
2013    16      5       0.2959907       71.01014
2013    16      6       0.1540285       41.71725
2013    16      7       0.1513388       41.24112
2013    17      0       0.160437        43.38479
2013    17      1       0.08864333      26.76575
2013    17      2       0.07359132      23.05878
2013    17      3       0.08517165      25.75462
2013    17      4       0.1133596       32.29953
2013    17      5       0.1350083       37.37867
2013    17      6       0.1616568       43.12346
2013    17      7       0.1901722       49.69806
2013    18      0       0.2152059       55.57118
2013    18      1       0.2146616       55.36412
2013    18      2       0.2275999       57.88425
2013    18      3       0.2964528       71.60095
2013    18      4       0.4964747       105.9736
2013    18      5       0.4933873       107.2913
2013    18      6       0.5564464       117.1195
2013    18      7       0.7821447       148.6519
2013    19      0       0.4233328       94.74791
2013    19      1       0.4453404       98.99722
2013    19      2       0.4388875       97.66849
2013    19      3       0.3953457       90.56657
2013    19      4       0.3313699       79.60485
2013    19      5       0.2498901       63.82809
2013    19      6       0.1696668       46.59917
2013    19      7       0.1549848       43.20621
2013    20      0       0.1823315       49.40558
2013    20      1       0.212629        55.55172
2013    20      2       0.2560128       63.88469
2013    20      3       0.4078136       92.53465
2013    20      4       0.4898171       106.3765
2013    20      5       0.5654803       117.4947
2013    20      6       0.4840175       105.0702
2013    20      7       0.428933        96.43787
2013    21      0       0.496216        107.0407
2013    21      1       0.5022816       107.6194
2013    21      2       0.4128432       93.04202
2013    21      3       0.3949677       90.36466
2013    21      4       0.3743619       86.89341
2013    21      5       0.4362061       97.05482
2013    21      6       0.5696835       119.0626
2013    21      7       0.4145519       94.71846
2013    22      0       0.2408353       61.51475
2013    22      1       0.05404014      18.46144
2013    22      2       0.106741        31.41616
2013    22      3       0.1493824       41.34562
2013    22      4       0.1230594       34.7975
2013    22      5       0.1846269       48.62367
2013    22      6       0.2325498       59.01549
2013    22      7       0.235338        59.68118
2013    23      0       0.2208934       56.74195
2013    23      1       0.1834146       48.85954
2013    23      2       0.08520439      26.16546
2013    23      3       0.05131971      17.6602
2013    23      4       0.0756084       23.60005
2013    23      5       0.109101        31.62402
2013    23      6       0.09270218      27.83135
2013    23      7       0.1323543       37.45742
2013    24      0       0.1857922       49.38118
2013    24      1       0.1713091       46.18276
2013    24      2       0.1646997       44.47001
2013    24      3       0.1017086       30.16424
2013    24      4       0.07470816      23.56761
2013    24      5       0.1175651       33.84508
2013    24      6       0.1259455       35.68128
2013    24      7       0.202869        53.82668
2013    25      0       0.275797        69.04093
2013    25      1       0.3665504       85.80955
2013    25      2       0.3599761       83.35297
2013    25      3       0.3727699       86.4567
2013    25      4       0.7385146       142.2175
2013    25      5       0.4995983       107.0177
2013    25      6       0.489554        106.5595
2013    25      7       0.327391        77.94563
2013    26      0       0.2470637       61.43528
2013    26      1       0.1706137       45.96076
2013    26      2       0.3501399       82.80573
2013    26      3       0.9183364       163.9802
2013    26      4       0.7251212       142.0045
2013    26      5       0.3711648       86.56035
2013    26      6       0.2894794       69.77143
2013    26      7       0.3066031       74.1065
2013    27      0       0.4146562       94.70513
2013    27      1       0.4357316       98.31115
2013    27      2       0.4107628       94.14769
2013    27      3       0.4498744       100.5251
2013    27      4       0.5017888       109.098
2013    27      5       0.4761455       104.8585
2013    27      6       0.4843386       106.0959
2013    27      7       0.4791704       105.1419
2013    28      0       0.4874367       106.7779
2013    28      1       0.4487097       99.69925
2013    28      2       0.5477791       115.8376
2013    28      3       0.6276801       126.7669
2013    28      4       0.4763244       105.1363
2013    28      5       0.3428772       82.10435
2013    28      6       0.3805883       89.22996
2013    28      7       0.3809298       89.10479
2013    29      0       0.5419444       115.1326
2013    29      1       0.5861516       121.6517
2013    29      2       0.5707018       119.1609
2013    29      3       0.5391871       114.605
2013    29      4       0.4742414       104.456
2013    29      5       0.4670362       103.0187
2013    29      6       0.5107127       109.9146
2013    29      7       0.5217608       111.71
2013    30      0       0.5140466       109.9182
2013    30      1       0.6688895       132.452
2013    30      2       0.7043751       137.9055
2013    30      3       0.6131694       125.8377
2013    30      4       0.6406968       129.5375
2013    30      5       0.6654348       132.7954
2013    30      6       0.6324918       128.0948
2013    30      7       0.5739503       119.4393
2013    31      0       0.5649162       118.1812
2013    31      1       0.4806939       105.8557
2013    31      2       0.4189531       95.63568
2013    31      3       0.316931        77.04645
2013    31      4       0.3544661       83.79761
2013    31      5       0.4553453       101.5086
2013    31      6       0.4819648       105.6141
2013    31      7       0.4646039       103.0323
2014    1       0       0.5434208       114.4152
2014    1       1       0.7832283       146.0356
2014    1       2       0.558267        115.4012
2014    1       3       0.5484145       113.8252
2014    1       4       0.4820159       104.9144
2014    1       5       0.4743216       103.2242
2014    1       6       0.3935183       89.53451
2014    1       7       0.451284        100.4683
2014    2       0       0.4873506       106.2983
2014    2       1       1.136452        184.2439
2014    2       2       0.48167         106.496
2014    2       3       0.1362721       37.56886
2014    2       4       0.2288111       57.02346
2014    2       5       0.3351844       77.6674
2014    2       6       0.5028352       106.5408
2014    2       7       0.6233129       125.1375
2014    3       0       0.705195        136.4682
2014    3       1       0.9132245       160.72
2014    3       2       1.04763         175.1738
2014    3       3       1.106251        179.9172
2014    3       4       0.9808203       167.0314
2014    3       5       0.7563767       143.4179
2014    3       6       0.7475113       142.2942
2014    3       7       1.172386        185.8624
2014    4       0       0.6061992       124.5035
2014    4       1       0.1434484       39.63386
2014    4       2       0.1555544       41.74939
2014    4       3       0.1692259       44.86997
2014    4       4       0.1416558       38.60062
2014    4       5       0.2181343       55.67774
2014    4       6       0.4060253       92.9745
2014    4       7       0.610611        125.1034
2014    5       0       0.6489097       130.0544
2014    5       1       0.7230839       138.3612
2014    5       2       0.66713         131.4679
2014    5       3       0.7404299       141.2817
2014    5       4       0.3700055       84.54201
2014    5       5       0.2968476       71.31658
2014    5       6       0.3131344       74.68625
2014    5       7       0.4145269       93.4025
2014    6       0       0.2835543       69.13783
2014    6       1       0.5068605       108.6312
2014    6       2       0.8668512       156.0732
2014    6       3       0.4674012       101.6715
2014    6       4       0.5586602       116.9638
2014    6       5       0.460832        101.5443
2014    6       6       0.2771109       67.66887
2014    6       7       0.2477745       61.42891
2014    7       0       0.3275499       76.98426
2014    7       1       0.3888377       88.04936
2014    7       2       0.6764875       132.5359
2014    7       3       0.8863104       157.6172
2014    7       4       1.020361        171.3207
2014    7       5       0.9655632       165.396
2014    7       6       0.9249359       161.6693
2014    7       7       0.7731978       144.4851
2014    8       0       0.736715        140.0763
2014    8       1       0.6844733       133.7058
2014    8       2       0.8886955       159.0343
2014    8       3       0.8979926       159.9668
2014    8       4       0.8191753       151.0059
2014    8       5       0.9777997       168.143
2014    8       6       0.7926625       147.4469
2014    8       7       0.9756251       166.7931
2014    9       0       0.9874982       167.7115
2014    9       1       0.9136155       160.1426
2014    9       2       1.134111        181.9933
2014    9       3       0.9369929       163.8376
2014    9       4       0.7859087       147.3502
2014    9       5       0.7135123       138.4187
2014    9       6       0.5613568       117.3162
2014    9       7       0.491622        106.5652
2014    10      0       0.3234759       77.07908
2014    10      1       0.3704363       85.70991
2014    10      2       0.4624559       101.6705
2014    10      3       0.6401029       128.6644
2014    10      4       0.8440682       154.3579
2014    10      5       0.7609178       144.3228
2014    10      6       0.5368453       113.4147
2014    10      7       0.442159        98.15532
2014    11      0       0.4328646       96.46505
2014    11      1       0.4508817       99.29332
2014    11      2       0.4720822       102.799
2014    11      3       0.4513951       99.49599
2014    11      4       0.6255847       126.4355
2014    11      5       0.4212433       94.59343
2014    11      6       0.4602132       101.0252
2014    11      7       0.6080636       123.8028
2014    12      0       0.542255        114.1356
2014    12      1       0.5252901       111.5563
2014    12      2       0.9026614       160.14
2014    12      3       0.9405408       163.9232
2014    12      4       0.8062345       149.0288
2014    12      5       0.483561        104.3767
2014    12      6       0.4344818       96.70028
2014    12      7       0.4044547       92.09334
2014    13      0       0.1022098       30.14765
2014    13      1       0.08263969      25.2512
2014    13      2       0.09782426      28.58647
2014    13      3       0.06976603      21.99313
2014    13      4       0.06801282      21.76368
2014    13      5       0.0592735       19.76546
2014    13      6       0.07929115      24.67948
2014    13      7       0.1027161       30.50372
2014    14      0       0.09148917      27.67865
2014    14      1       0.1153286       33.46047
2014    14      2       0.128776        36.77836
2014    14      3       0.1182108       34.37815
2014    14      4       0.1109762       32.64347
2014    14      5       0.1104898       32.49764
2014    14      6       0.1027421       30.65195
2014    14      7       0.09458357      28.62248
2014    15      0       0.09485363      28.47767
2014    15      1       0.1122206       32.44267
2014    15      2       0.1334102       37.02404
2014    15      3       0.1718029       45.64282
2014    15      4       0.1842192       48.67927
2014    15      5       0.2355137       59.79157
2014    15      6       0.3807776       88.21699
2014    15      7       0.4068392       92.45846
2014    16      0       0.475395        104.2801
2014    16      1       0.4044864       92.07585
2014    16      2       0.3244572       78.16427
2014    16      3       0.263699        66.35686
2014    16      4       0.3494554       82.15986
2014    16      5       0.3370058       80.37444
2014    16      6       0.338705        80.65239
2014    16      7       0.7801839       148.1153
2014    17      0       0.7953531       149.8912
2014    17      1       0.7404007       143.0245
2014    17      2       0.8321413       154.3239
2014    17      3       1.06512         178.8922
2014    17      4       0.6475766       131.3151
2014    17      5       0.3484111       82.4466
2014    17      6       0.3033381       73.90335
2014    17      7       0.2493227       63.12921
2014    18      0       0.2383766       60.9452
2014    18      1       0.2074502       54.45565
2014    18      2       0.1870107       50.03913
2014    18      3       0.1627971       44.73637
2014    18      4       0.1469683       41.1374
2014    18      5       0.1472946       41.15766
2014    18      6       0.134922        38.18526
2014    18      7       0.1135836       33.0461
2014    19      0       0.1024346       30.36126
2014    19      1       0.09918864      29.56122
2014    19      2       0.09944225      29.62291
2014    19      3       0.09717176      29.11958
2014    19      4       0.0952685       28.69125
2014    19      5       0.09699811      29.11253
2014    19      6       0.1017709       30.27813
2014    19      7       0.1085193       31.94684
2014    20      0       0.1142794       33.32501
2014    20      1       0.1195455       34.64262
2014    20      2       0.1339168       38.1335
2014    20      3       0.1336675       38.11058
2014    20      4       0.1429577       40.33019
2014    20      5       0.149575        41.84339
2014    20      6       0.1363907       38.78601
2014    20      7       0.1323825       37.95345
2014    21      0       0.1076558       32.03549
2014    21      1       0.07376599      23.61507
2014    21      2       0.0623332       20.69815
2014    21      3       0.06387529      21.07615
2014    21      4       0.06994978      22.57062
2014    21      5       0.07376695      23.49827
2014    21      6       0.07980866      24.98223
2014    21      7       0.09014061      27.41108
2014    22      0       0.09034558      27.5384
2014    22      1       0.08685358      26.73101
2014    22      2       0.09098687      27.68054
2014    22      3       0.09121005      27.76244
2014    22      4       0.09174234      27.88453
2014    22      5       0.1038959       30.52324
2014    22      6       0.1121684       32.31887
2014    22      7       0.1222229       34.55419
2014    23      0       0.1302984       36.27809
2014    23      1       0.13169         36.61319
2014    23      2       0.1292416       36.10112
2014    23      3       0.1303152       36.31919
2014    23      4       0.1207957       34.20975
2014    23      5       0.1100759       31.8824
2014    23      6       0.09771789      29.08571
2014    23      7       0.09186992      27.76265
2014    24      0       0.1031934       30.36896
2014    24      1       0.1245808       35.22475
2014    24      2       0.1432141       39.29615
2014    24      3       0.160088        43.08434
2014    24      4       0.1944673       50.46521
2014    24      5       0.2195747       55.71267
2014    24      6       0.3001818       71.59101
2014    24      7       0.3929034       89.43426
2014    25      0       0.4329218       97.28335
2014    25      1       0.314282        76.57487
2014    25      2       0.05912541      19.42872
2014    25      3       0.1369378       38.18474
2014    25      4       0.152034        41.34436
2014    25      5       0.1846145       48.25786
2014    25      6       0.2095994       53.56545
2014    25      7       0.1773317       46.59425
2014    26      0       0.1805075       47.09225
2014    26      1       0.2065249       52.40605
2014    26      2       0.1615748       43.94319
2014    26      3       0.1736864       46.96618
2014    26      4       0.186647        49.55153
2014    26      5       0.2579334       64.70141
2014    26      6       0.2960344       72.30966
2014    26      7       0.1760549       47.20283
2014    27      0       0.2147161       55.68421
2014    27      1       0.3101689       75.80109
2014    27      2       0.3386293       81.54796
2014    27      3       0.3657579       86.64113
2014    27      4       0.3607624       85.56953
2014    27      5       0.3220757       77.86674
2014    27      6       0.3496193       83.35585
2014    27      7       0.3542472       83.7771
2014    28      0       0.3298426       79.04659
2014    28      1       0.2999495       73.20701
2014    28      2       0.2602669       65.35711
2014    28      3       0.2315649       59.52727
2014    28      4       0.2163297       56.21408
2014    28      5       0.1586698       43.4647
2014    28      6       0.08915966      27.09228
2014    28      7       0.0659537       21.44818
2014    29      0       0.07164296      22.84786
2014    29      1       0.1926014       51.04037
2014    29      2       0.5605106       118.0374
2014    29      3       0.5864274       121.9308
2014    29      4       0.5954006       123.0816
2014    29      5       0.5432676       115.5224
2014    29      6       0.2740484       67.9563
2014    29      7       0.1830455       49.02743
2014    30      0       0.1334311       37.86748
2014    30      1       0.08522915      26.35033
2014    30      2       0.07413069      23.56098
2014    30      3       0.07072033      22.65008
2014    30      4       0.06983149      22.3022
2014    30      5       0.07132184      22.58161
2014    30      6       0.07471269      23.31827
2014    30      7       0.09037866      26.87176
2014    31      0       0.1027027       29.63497
2014    31      1       0.1177933       33.12145
2014    31      2       0.137716        37.5687
2014    31      3       0.1604249       42.45434
2014    31      4       0.2114183       53.12569
2014    31      5       0.2974601       70.24548
2014    31      6       0.2538652       62.17502
2014    31      7       0.2317635       57.64767
2015    1       0       0.2212888       56.67703
2015    1       1       0.2409727       60.55372
2015    1       2       0.2973889       71.51296
2015    1       3       0.5432075       113.4177
2015    1       4       0.6810205       132.8003
2015    1       5       0.6746771       132.5669
2015    1       6       0.4546628       100.0077
2015    1       7       0.3906073       89.28481
2015    2       0       0.4193642       94.10638
2015    2       1       0.3763771       86.50455
2015    2       2       0.256875        64.15221
2015    2       3       0.3062113       74.08874
2015    2       4       0.2178135       56.11901
2015    2       5       0.3323997       79.20301
2015    2       6       0.213881        55.44471
2015    2       7       0.1650042       44.34898
2015    3       0       0.2010725       52.06974
2015    3       1       0.2315158       58.81405
2015    3       2       0.4086596       93.81006
2015    3       3       0.4435501       100.1877
2015    3       4       0.4417914       99.86782
2015    3       5       0.3397733       81.25412
2015    3       6       0.3125651       75.9586
2015    3       7       0.3349347       80.21812
2015    4       0       0.327219        78.43522
2015    4       1       0.3373285       79.92662
2015    4       2       0.3849611       89.16096
2015    4       3       0.8048388       152.1728
2015    4       4       0.5386548       115.5824
2015    4       5       0.2785303       69.36301
2015    4       6       0.2449754       62.38414
2015    4       7       0.2653823       66.37165
2015    5       0       0.2972798       72.68634
2015    5       1       0.3385795       80.43459
2015    5       2       0.3844998       88.83166
2015    5       3       0.4532934       101.1635
2015    5       4       0.4349536       98.16461
2015    5       5       0.4700251       103.806
2015    5       6       0.4254215       96.38217
2015    5       7       0.3851477       89.31784
2015    6       0       0.3655461       85.66179
2015    6       1       0.5076918       110.5998
2015    6       2       0.3733969       86.85326
2015    6       3       0.3715148       86.32694
2015    6       4       0.383967        88.69285
2015    6       5       0.3988959       92.03498
2015    6       6       0.4251748       97.03528
2015    6       7       0.4820307       106.7668
2015    7       0       0.4669548       104.1316
2015    7       1       0.4894221       107.2955
2015    7       2       0.531199        113.5815
2015    7       3       0.570274        119.1197
2015    7       4       0.7598267       145.2558
2015    7       5       0.8272678       153.2548
2015    7       6       0.542749        114.8059
2015    7       7       0.2565183       64.20775
2015    8       0       0.2730362       67.42185
2015    8       1       0.3141234       75.38563
2015    8       2       0.2870133       70.30566
2015    8       3       0.4013643       91.85794
2015    8       4       0.3697351       86.45893
2015    8       5       0.3741099       87.30687
2015    8       6       0.2911404       71.43311
2015    8       7       0.3022994       73.56208
2015    9       0       0.3023698       73.26737
2015    9       1       0.2892781       70.85303
2015    9       2       0.5699579       118.6993
2015    9       3       0.6879492       135.7573
2015    9       4       0.897993        161.0324
2015    9       5       0.9631222       167.6464
2015    9       6       0.5902092       121.8452
2015    9       7       0.2649048       65.48364
2015    10      0       0.2197274       55.91218
2015    10      1       0.3458161       80.97999
2015    10      2       0.4293531       95.86957
2015    10      3       0.3955196       89.89152
2015    10      4       0.3769369       86.55725
2015    10      5       0.3400529       79.7606
2015    10      6       0.2671958       65.49195
2015    10      7       0.2896777       69.5468
2015    11      0       0.305498        72.58299
2015    11      1       0.3797187       86.25352
2015    11      2       0.4595112       99.47795
2015    11      3       0.5977503       120.1535
2015    11      4       0.6964824       133.506
2015    11      5       0.6947242       133.5925
2015    11      6       0.4784305       102.4639
2015    11      7       0.5544426       114.9371
2015    12      0       0.5804596       118.5192
2015    12      1       0.5272561       110.4863
2015    12      2       0.3326133       77.93187
2015    12      3       0.4965837       107.1505
2015    12      4       0.4958421       107.2065
2015    12      5       0.3554859       82.82885
2015    12      6       0.3781412       86.96329
2015    12      7       0.4006995       91.00864
2015    13      0       0.3109557       74.31365
2015    13      1       0.4226538       94.46149
2015    13      2       0.7256061       140.095
2015    13      3       1.032247        173.7253
2015    13      4       0.7611675       143.6486
2015    13      5       0.7873914       146.0531
2015    13      6       0.5563482       115.7478
2015    13      7       0.9163223       161.1298
2015    14      0       0.5568858       116.314
2015    14      1       0.4769161       104.1398
2015    14      2       0.4699342       103.311
2015    14      3       0.4426295       98.73725
2015    14      4       0.361485        84.44883
2015    14      5       0.2265176       57.90004
2015    14      6       0.1930806       50.72633
2015    14      7       0.1948891       51.16891
2015    15      0       0.1845487       49.03244
2015    15      1       0.1616774       43.92888
2015    15      2       0.1657851       44.92506
2015    15      3       0.1914171       50.60198
2015    15      4       0.2191027       56.46224
2015    15      5       0.1439437       39.59668
2015    15      6       0.1521011       41.24819
2015    15      7       0.1538806       41.63298
2015    16      0       0.1431957       39.39662
2015    16      1       0.1562133       42.49172
2015    16      2       0.13899         38.5643
2015    16      3       0.1406616       38.95586
2015    16      4       0.1345266       37.49953
2015    16      5       0.1319034       37.00392
2015    16      6       0.1483466       40.65414
2015    16      7       0.1664779       44.89463
2015    17      0       0.1457922       39.93503
2015    17      1       0.1500926       40.78379
2015    17      2       0.1678752       44.43323
2015    17      3       0.1991057       50.86893
2015    17      4       0.2628894       63.47851
2015    17      5       0.375744        84.36733
2015    17      6       0.3356334       78.15547
2015    17      7       0.3006481       72.05382
2015    18      0       0.310069        73.99167
2015    18      1       0.3581626       83.22162
2015    18      2       0.3759484       86.69028
2015    18      3       0.4666324       101.8413
2015    18      4       0.634852        125.9058
2015    18      5       0.5860036       118.8231
2015    18      6       0.4157688       92.99573
2015    18      7       0.3469872       81.04246
2015    19      0       0.2300483       58.45541
2015    19      1       0.1581986       43.11802
2015    19      2       0.1771344       47.10097
2015    19      3       0.2060567       53.35915
2015    19      4       0.1951447       51.04321
2015    19      5       0.1831769       48.39663
2015    19      6       0.2308878       58.732
2015    19      7       0.2721457       67.25563
2015    20      0       0.2646817       65.77378
2015    20      1       0.2535632       63.6066
2015    20      2       0.4977387       108.0303
2015    20      3       0.69478         136.8927
2015    20      4       0.5957279       123.1767
2015    20      5       0.2926505       71.724
2015    20      6       0.2711537       67.31903
2015    20      7       0.3663959       85.90847
2015    21      0       0.3748116       86.62485
2015    21      1       0.3465519       81.24821
2015    21      2       0.234078        59.1149
2015    21      3       0.08408294      25.46986
2015    21      4       0.07255314      22.50819
2015    21      5       0.08916682      26.49049
2015    21      6       0.09335935      27.61288
2015    21      7       0.09608074      28.30272
2015    22      0       0.1300945       36.03499
2015    22      1       0.1701169       45.04526
2015    22      2       0.1700926       45.29433
2015    22      3       0.2542834       63.37792
2015    22      4       0.4014455       92.47496
2015    22      5       0.53214         114.9594
2015    22      6       0.6032532       124.9414
2015    22      7       0.5907142       122.6751
2015    23      0       0.9446028       165.3015
2015    23      1       0.936004        164.7433
2015    23      2       0.8629074       158.7487
2015    23      3       0.5243644       113.8832
2015    23      4       0.358991        85.37327
2015    23      5       0.188987        50.4907
2015    23      6       0.1605333       44.09793
2015    23      7       0.1810833       48.71523
2015    24      0       0.2024549       53.44787
2015    24      1       0.2257577       58.40691
2015    24      2       0.2451371       62.48344
2015    24      3       0.2688552       67.58228
2015    24      4       0.3659885       86.38507
2015    24      5       0.439414        99.13508
2015    24      6       0.4500025       100.2253
2015    24      7       0.3787631       87.59221
2015    25      0       0.4624992       101.6135
2015    25      1       0.8175978       151.149
2015    25      2       1.122701        183.5922
2015    25      3       0.9215937       165.7423
2015    25      4       0.8517683       158.8672
2015    25      5       0.6978476       140.1502
2015    25      6       0.6912225       138.9918
2015    25      7       0.6390121       132.4515
2015    26      0       0.6015795       126.6365
2015    26      1       0.8527703       158.2164
2015    26      2       0.7679748       147.5159
2015    26      3       0.8897347       161.3609
2015    26      4       1.105411        184.3393
2015    26      5       0.9288943       166.5975
2015    26      6       0.7788793       150.553
2015    26      7       0.6415686       132.351
2015    27      0       0.5448727       117.5195
2015    27      1       0.4750696       106.3302
2015    27      2       0.4504109       101.8152
2015    27      3       0.4619478       103.2744
2015    27      4       0.2657748       66.52086
2015    27      5       0.1684811       45.45061
2015    27      6       0.3550582       83.11939
2015    27      7       0.4444816       98.62788
2015    28      0       0.4214842       94.79512
2015    28      1       0.552858        115.6809
2015    28      2       1.000224        169.3206
2015    28      3       0.8059002       149.6394
2015    28      4       0.8044993       151.5314
2015    28      5       0.2401505       61.0338
2015    28      6       0.4917185       107.507
2015    28      7       0.4592774       101.5999
2015    29      0       0.55461         115.8756
2015    29      1       0.5160432       109.4108
2015    29      2       0.6991144       134.2704
2015    29      3       0.8367225       152.1024
2015    29      4       0.7482276       142.5365
2015    29      5       0.8516316       155.2562
2015    29      6       0.7152163       139.3501
2015    29      7       0.5475698       115.7372
2015    30      0       0.5239668       112.1273
2015    30      1       0.5091806       110.0101
2015    30      2       0.4354964       98.01432
2015    30      3       0.3404626       80.89642
2015    30      4       0.2224346       57.44049
2015    30      5       0.1818936       48.72564
2015    30      6       0.1706516       45.5602
2015    30      7       0.3102718       73.3581
2015    31      0       0.8852623       158.085
2015    31      1       0.8399046       153.5455
2015    31      2       0.887055        158.5536
2015    31      3       0.9584899       166.6958
2015    31      4       0.9376676       164.4127
2015    31      5       0.4978733       108.7718
2015    31      6       0.2860241       70.94613
2015    31      7       0.2708376       67.96955
2016    1       0       0.3279881       79.94975
2016    1       1       0.3193517       78.07343
2016    1       2       0.2852739       71.47498
2016    1       3       0.2373428       61.89049
2016    1       4       0.2078918       55.55497
2016    1       5       0.2597614       66.21403
2016    1       6       0.3374765       81.4539
2016    1       7       0.326165        79.01134
2016    2       0       0.3118467       75.93765
2016    2       1       0.2783473       68.91288
2016    2       2       0.2320151       58.89841
2016    2       3       0.1593766       43.09788
2016    2       4       0.1059779       31.19713
2016    2       5       0.2892329       71.00404
2016    2       6       0.4134295       93.77813
2016    2       7       0.4773814       104.286
2016    3       0       0.4787697       104.3504
2016    3       1       0.3548515       82.90506
2016    3       2       0.3788725       87.66811
2016    3       3       0.3822829       88.49122
2016    3       4       0.3206617       77.17094
2016    3       5       0.3850958       88.93803
2016    3       6       0.6589935       131.8706
2016    3       7       0.7626431       145.2878
2016    4       0       0.6915091       135.5849
2016    4       1       0.2574551       64.11524
2016    4       2       0.2504788       62.27005
2016    4       3       0.471811        102.4971
2016    4       4       0.5137178       110.0661
2016    4       5       0.4715491       103.3499
2016    4       6       0.6927922       135.847
2016    4       7       0.2258418       57.82164
2016    5       0       0.1040601       30.53036
2016    5       1       0.1169349       33.67643
2016    5       2       0.06245264      20.50199
2016    5       3       0.06613134      21.40765
2016    5       4       0.07037597      22.41548
2016    5       5       0.06945534      22.14577
2016    5       6       0.07266501      22.78333
2016    5       7       0.08283452      25.0142
2016    6       0       0.09795512      28.46568
2016    6       1       0.1201803       33.55692
2016    6       2       0.1777259       46.15434
2016    6       3       0.1890735       49.12837
2016    6       4       0.1990894       51.82822
2016    6       5       0.2208133       56.85886
2016    6       6       0.236906        60.43818
2016    6       7       0.2644911       66.29359
2016    7       0       0.257101        64.60888
2016    7       1       0.2398346       60.81975
2016    7       2       0.2369194       60.27511
2016    7       3       0.2692267       66.90803
2016    7       4       0.3239799       77.49974
2016    7       5       0.336084        79.63934
2016    7       6       0.2873815       70.31725
2016    7       7       0.3230252       76.79988
2016    8       0       0.3825926       87.15469
2016    8       1       0.4138811       92.36711
2016    8       2       0.5015219       106.5844
2016    8       3       0.4655059       101.0917
2016    8       4       0.4043326       90.97035
2016    8       5       0.3851167       87.94251
2016    8       6       0.4116344       92.58996
2016    8       7       0.4003163       90.75507
2016    9       0       0.3951654       90.5826
2016    9       1       0.4515444       100.8361
2016    9       2       0.5224702       113.1062
2016    9       3       0.3199564       77.72331
2016    9       4       0.3356996       80.96428
2016    9       5       0.2680884       66.98938
2016    9       6       0.2275535       58.14795
2016    9       7       0.2924997       71.09479
2016    10      0       0.2750859       67.85006
2016    10      1       0.3123995       75.34026
2016    10      2       0.5144561       110.3232
2016    10      3       0.5010152       107.853
2016    10      4       0.1879167       49.32274
2016    10      5       0.2273068       57.72037
2016    10      6       0.1744855       46.45196
2016    10      7       0.1321962       36.87058
2016    11      0       0.1066031       30.63903
2016    11      1       0.1341786       37.09305
2016    11      2       0.1824194       47.8874
2016    11      3       0.2746571       67.14271
2016    11      4       0.3764411       86.4517
2016    11      5       0.4465886       98.83886
2016    11      6       0.4658924       102.0508
2016    11      7       0.4360794       97.41098
2016    12      0       0.4519021       100.3682
2016    12      1       0.4270845       95.81681
2016    12      2       0.4204164       94.4385
2016    12      3       0.4522211       99.78595
2016    12      4       0.4984532       107.4148
2016    12      5       0.5567755       116.3297
2016    12      6       0.4510067       100.3291
2016    12      7       0.4660294       103.6435
2016    13      0       0.3787319       88.2015
2016    13      1       0.3102691       74.75959
2016    13      2       0.3447999       80.78815
2016    13      3       0.5137143       108.9896
2016    13      4       0.5423619       114.4372
2016    13      5       0.9100194       161.1934
2016    13      6       0.5912102       120.9314
2016    13      7       0.6948544       136.4614
2016    14      0       0.5689472       118.6648
2016    14      1       0.38745         89.11718
2016    14      2       1.094019        178.8189
2016    14      3       0.9967895       169.0754
2016    14      4       0.9322415       162.7139
2016    14      5       0.6191388       125.2259
2016    14      6       0.4307883       96.11173
2016    14      7       0.4487994       99.28844
2016    15      0       0.3851619       88.34018
2016    15      1       0.3024078       73.29672
2016    15      2       0.2804897       68.99092
2016    15      3       0.2902293       70.57168
2016    15      4       0.3543985       82.56886
2016    15      5       0.5182606       110.3002
2016    15      6       0.5317757       112.2734
2016    15      7       0.4163875       93.36104
2016    16      0       0.4214025       93.90864
2016    16      1       0.3909713       88.7973
2016    16      2       0.5001506       107.2973
2016    16      3       0.6310974       126.541
2016    16      4       0.7627308       143.9082
2016    16      5       0.6920236       134.9361
2016    16      6       0.5138373       109.1395
2016    16      7       0.3829848       87.57112
2016    17      0       0.3452723       80.72794
2016    17      1       0.303335        72.76803
2016    17      2       0.2827441       69.00637
2016    17      3       0.3096056       74.28179
2016    17      4       0.3393518       79.81176
2016    17      5       0.469151        101.9373
2016    17      6       0.3952832       89.62597
2016    17      7       0.4984276       106.4008
2016    18      0       0.4296618       94.89287
2016    18      1       0.312754        74.44118
2016    18      2       0.3801116       86.50135
2016    18      3       0.4300321       95.45646
2016    18      4       0.6464538       128.8668
2016    18      5       0.3840372       88.25278
2016    18      6       0.5245173       111.6196
2016    18      7       0.6172542       125.5899
2016    19      0       0.4752662       104.2199
2016    19      1       0.1936267       51.2006
2016    19      2       0.1453359       40.33746
2016    19      3       0.1482577       41.02949
2016    19      4       0.1837861       49.05748
2016    19      5       0.2827278       69.79774
2016    19      6       0.2392117       60.87589
2016    19      7       0.2304774       59.13373
2016    20      0       0.1846488       49.18639
2016    20      1       0.1658263       45.01622
2016    20      2       0.2391851       60.92848
2016    20      3       0.4456999       99.95831
2016    20      4       0.3514344       83.17186
2016    20      5       0.2375865       60.69206
2016    20      6       0.1317561       37.27083
2016    20      7       0.1635524       44.43195
2016    21      0       0.1639296       44.40749
2016    21      1       0.1413061       39.10787
2016    21      2       0.1967502       51.5378
2016    21      3       0.2532047       63.43862
2016    21      4       0.3080641       74.55733
2016    21      5       0.322756        77.70947
2016    21      6       0.316898        76.44517
2016    21      7       0.2934074       71.53668
2016    22      0       0.2760504       68.0729
2016    22      1       0.2740069       67.74762
2016    22      2       0.2925278       71.37634
2016    22      3       0.2717872       67.24112
2016    22      4       0.2497569       63.03201
2016    22      5       0.2458629       62.37582
2016    22      6       0.2330749       59.71514
2016    22      7       0.296213        71.51002
2016    23      0       0.551544        114.311
2016    23      1       0.366758        84.73723
2016    23      2       0.3448408       80.79196
2016    23      3       0.5215251       111.4688
2016    23      4       0.7401617       143.1356
2016    23      5       0.2527267       64.16416
2016    23      6       0.1528167       42.41915
2016    23      7       0.2173432       56.49853
2016    24      0       0.3041396       74.17862
2016    24      1       0.2483449       62.92719
2016    24      2       0.2621713       65.50148
2016    24      3       0.3084804       74.49597
2016    24      4       0.3194768       76.69588
2016    24      5       0.2934344       71.86929
2016    24      6       0.2122553       55.19485
2016    24      7       0.2484397       62.74177
2016    25      0       0.2580785       64.21865
2016    25      1       0.2905646       70.27606
2016    25      2       0.3537097       82.18483
2016    25      3       0.4097068       92.38535
2016    25      4       0.319082        75.16829
2016    25      5       0.3180488       75.51888
2016    25      6       0.2519396       62.76576
2016    25      7       0.2367547       60.20136
2016    26      0       0.2293648       59.00478
2016    26      1       0.08954481      27.2893
2016    26      2       0.07281613      22.94973
2016    26      3       0.08681465      26.25114
2016    26      4       0.1085578       31.33416
2016    26      5       0.149308        40.36592
2016    26      6       0.1860896       48.22149
2016    26      7       0.2283662       57.15906
2016    27      0       0.2616936       64.60895
2016    27      1       0.2649896       65.5007
2016    27      2       0.44146         97.77055
2016    27      3       0.7756289       145.2471
2016    27      4       0.7225158       138.4178
2016    27      5       0.5607795       116.5113
2016    27      6       0.6131204       124.1207
2016    27      7       0.572753        117.8364
2016    28      0       0.420078        94.35646
2016    28      1       0.203125        52.94572
2016    28      2       0.2617508       65.32374
2016    28      3       0.1999453       52.89559
2016    28      4       0.1111005       32.08353
2016    28      5       0.1200596       34.13803
2016    28      6       0.1603825       43.24761
2016    28      7       0.1986897       52.14263
2016    29      0       0.2124026       55.19951
2016    29      1       0.2897143       71.05293
2016    29      2       0.3447183       81.87005
2016    29      3       0.3921881       90.74118
2016    29      4       0.7069661       139.7335
2016    29      5       0.9459901       167.0202
2016    29      6       0.4551672       101.6873
2016    29      7       0.3350511       80.50432
2016    30      0       0.2812752       69.89263
2016    30      1       0.4554157       102.5407
2016    30      2       0.2625739       65.93441
2016    30      3       0.2590311       65.26556
2016    30      4       0.24153         62.02345
2016    30      5       0.2076936       55.04434
2016    30      6       0.1606746       44.44232
2016    30      7       0.1431836       40.2965
2016    31      0       0.1605115       44.24746
2016    31      1       0.1668369       45.60952
2016    31      2       0.1574016       43.43343
2016    31      3       0.1490643       41.60427
2016    31      4       0.1591941       44.08206
2016    31      5       0.1539318       42.98094
2016    31      6       0.1226958       35.758
2016    31      7       0.1072846       32.06159
2017    1       0       0.3717232       87.42938
2017    1       1       0.3294829       79.51873
2017    1       2       0.3006349       73.91214
2017    1       3       0.2849652       70.79263
2017    1       4       0.3157704       76.81649
2017    1       5       0.3644302       86.19517
2017    1       6       0.2591257       65.56372
2017    1       7       0.1626573       44.60153
2017    2       0       0.3091341       75.53199
2017    2       1       0.7729721       148.1103
2017    2       2       0.1492766       41.3822
2017    2       3       0.2451947       62.40607
2017    2       4       0.1597843       43.84917
2017    2       5       0.1431934       40.03482
2017    2       6       0.1759553       47.53259
2017    2       7       0.2348034       60.44358
2017    3       0       0.2589693       65.6312
2017    3       1       0.2690198       67.51108
2017    3       2       0.2604466       65.60847
2017    3       3       0.2494634       63.55724
2017    3       4       0.2499012       63.6404
2017    3       5       0.2468908       62.94326
2017    3       6       0.2314121       59.69799
2017    3       7       0.2064223       54.36196
2017    4       0       0.2060644       54.33871
2017    4       1       0.2153582       56.29047
2017    4       2       0.216722        56.72944
2017    4       3       0.2052426       54.42244
2017    4       4       0.2005389       53.44695
2017    4       5       0.1992694       53.27285
2017    4       6       0.1860903       50.41951
2017    4       7       0.1731165       47.49362
2017    5       0       0.1762459       48.16824
2017    5       1       0.1751799       47.9159
2017    5       2       0.167194        46.0314
2017    5       3       0.1534737       42.84158
2017    5       4       0.152012        42.49679
2017    5       5       0.1603881       44.33142
2017    5       6       0.178486        48.1849
2017    5       7       0.1981639       52.32087
2017    6       0       0.2206751       56.93029
2017    6       1       0.2378181       60.44451
2017    6       2       0.2483902       62.8559
2017    6       3       0.2508169       63.22584
2017    6       4       0.1750429       47.05198
2017    6       5       0.2373752       60.21982
2017    6       6       0.4882771       106.1785
2017    6       7       0.3699255       86.15862
2017    7       0       0.3616085       85.26822
2017    7       1       0.2043023       53.42656
2017    7       2       0.1705532       45.18018
2017    7       3       0.16415         43.274
2017    7       4       0.9829896       168.0183
2017    7       5       0.6135758       124.2206
2017    7       6       0.8140853       150.4623
2017    7       7       0.9116664       162.3047
2017    8       0       0.8494578       152.5731
2017    8       1       0.6577927       130.3845
2017    8       2       0.434357        96.5885
2017    8       3       0.604902        122.4669
2017    8       4       0.6656913       129.9515
2017    8       5       0.7113108       135.9227
2017    8       6       0.9214372       161.1495
2017    8       7       0.9021918       159.4894
2017    9       0       0.8495768       153.1423
2017    9       1       0.6512881       129.3537
2017    9       2       1.107575        179.7627
2017    9       3       0.8699749       154.9785
2017    9       4       0.6969241       134.7205
2017    9       5       1.039817        172.9827
2017    9       6       1.235984        190.2377
2017    9       7       0.8557316       154.0173
2017    10      0       0.7322031       139.4595
2017    10      1       0.6296693       126.0586
2017    10      2       0.6984324       135.8682
2017    10      3       0.7450531       140.4823
2017    10      4       0.6845928       132.7632
2017    10      5       0.8003214       148.0865
2017    10      6       0.8647262       155.2179
2017    10      7       0.7644168       143.2864
2017    11      0       0.8296636       151.4397
2017    11      1       0.5780704       118.3391
2017    11      2       0.5505376       114.0466
2017    11      3       0.8405747       151.852
2017    11      4       0.8320364       151.5865
2017    11      5       0.7872699       146.0328
2017    11      6       0.9908588       169.296
2017    11      7       1.09462         178.2028
2017    12      0       1.087088        177.6675
2017    12      1       1.010282        171.2603
2017    12      2       1.213469        189.1451
2017    12      3       1.184923        186.9533
2017    12      4       0.5769213       119.3157
2017    12      5       0.414769        93.94586
2017    12      6       0.3339912       79.29819
2017    12      7       0.231207        59.00612
2017    13      0       0.2034446       52.85998
2017    13      1       0.1673409       44.71833
2017    13      2       0.1430116       39.40743
2017    13      3       0.1401596       38.98324
2017    13      4       0.2128141       54.78438
2017    13      5       0.2384848       60.10603
2017    13      6       0.2519095       62.64109
2017    13      7       0.3025862       72.42226
2017    14      0       0.3576912       82.43451
2017    14      1       0.3480852       80.65873
2017    14      2       0.3723915       85.52721
2017    14      3       0.7508447       142.7036
2017    14      4       0.8820046       157.5914
2017    14      5       0.8773228       157.5228
2017    14      6       0.5634761       116.6306
2017    14      7       0.3177136       75.27271
2017    15      0       0.3925061       88.65294
2017    15      1       0.7670413       144.4836
2017    15      2       0.3807733       87.56483
2017    15      3       0.2959005       71.93083
2017    15      4       0.3924206       90.11801
2017    15      5       0.6934722       136.5493
2017    15      6       0.3540102       82.89117
2017    15      7       0.2447754       61.34536
2017    16      0       0.3166967       75.57101
2017    16      1       0.351293        81.81493
2017    16      2       0.6452025       128.9046
2017    16      3       0.9447748       164.7443
2017    16      4       0.8613548       155.9998
2017    16      5       0.5536358       115.8111
2017    16      6       0.3637636       83.35823
2017    16      7       0.2845176       68.31414
2017    17      0       0.2613513       64.09469
2017    17      1       0.3261647       77.14478
2017    17      2       0.3488485       81.74419
2017    17      3       0.3211942       76.99396
2017    17      4       0.2162649       56.15645
2017    17      5       0.1933252       51.14094
2017    17      6       0.1547257       42.33924
2017    17      7       0.1983935       52.2186
2017    18      0       0.1757394       47.26886
2017    18      1       0.1011836       29.94199
2017    18      2       0.07986575      24.72727
2017    18      3       0.07137824      22.65381
2017    18      4       0.1027199       30.50671
2017    18      5       0.08307282      25.71876
2017    18      6       0.1228398       35.25913
2017    18      7       0.1379486       38.69184
2017    19      0       0.1239579       35.52792
2017    19      1       0.1163219       33.68234
2017    19      2       0.123721        35.31901
2017    19      3       0.127903        36.23575
2017    19      4       0.1325955       37.45374
2017    19      5       0.1708004       45.77449
2017    19      6       0.1995267       52.24418
2017    19      7       0.2050886       53.31849
2017    20      0       0.2160878       56.01954
2017    20      1       0.2343122       60.20877
2017    20      2       0.2486857       63.4152
2017    20      3       0.2533889       64.5467
2017    20      4       0.270871        68.30588
2017    20      5       0.2927439       72.8049
2017    20      6       0.3206933       77.70857
2017    20      7       0.3171045       76.53026
2017    21      0       0.3884383       88.80618
2017    21      1       0.2564989       63.76674
2017    21      2       0.2344361       59.05047
2017    21      3       0.3117183       74.05538
2017    21      4       0.4606469       99.92434
2017    21      5       0.4651199       100.5285
2017    21      6       0.6466017       127.58
2017    21      7       0.8881965       158.0532
2017    22      0       0.8329549       152.2774
2017    22      1       0.8649575       155.235
2017    22      2       1.037386        173.2677
2017    22      3       1.001263        169.5266
2017    22      4       0.8968901       160.2274
2017    22      5       0.9649864       168.2372
2017    22      6       0.4747138       104.1032
2017    22      7       0.4200192       95.01869
2017    23      0       0.3780018       88.08664
2017    23      1       0.3227833       78.13726
2017    23      2       0.308012        75.54531
2017    23      3       0.3184833       77.73677
2017    23      4       0.3186967       77.90657
2017    23      5       0.3050953       75.29184
2017    23      6       0.2653784       67.15823
2017    23      7       0.156754        43.54104
2017    24      0       0.08585639      26.53398
2017    24      1       0.08143146      25.42861
2017    24      2       0.1331817       38.10302
2017    24      3       0.1601823       44.47337
2017    24      4       0.1521246       42.6248
2017    24      5       0.1448416       40.97204
2017    24      6       0.1109447       32.88821
2017    24      7       0.1093235       32.41933
2017    25      0       0.1117632       32.9208
2017    25      1       0.1058018       31.3933
2017    25      2       0.09231322      28.03304
2017    25      3       0.08410032      25.88611
2017    25      4       0.08626987      26.45623
2017    25      5       0.0884698       27.20185
2017    25      6       0.09501781      28.92277
2017    25      7       0.09681103      29.36635
2017    26      0       0.1127715       33.16977
2017    26      1       0.1377482       39.13713
2017    26      2       0.1328555       38.03194
2017    26      3       0.1154558       33.67272
2017    26      4       0.08735652      26.49495
2017    26      5       0.1426194       39.11643
2017    26      6       0.26558         65.39901
2017    26      7       0.3838128       87.48024
2017    27      0       0.5945851       121.9327
2017    27      1       0.3599791       84.49771
2017    27      2       0.4108498       94.08344
2017    27      3       0.3473163       82.34034
2017    27      4       0.3778024       88.20612
2017    27      5       0.3366795       80.26632
2017    27      6       0.3040076       73.72728
2017    27      7       0.3487901       82.11659
2017    28      0       0.5345325       114.4104
2017    28      1       0.8041267       150.9146
2017    28      2       0.7170727       140.2585
2017    28      3       0.7030767       137.8655
2017    28      4       0.4984938       108.3259
2017    28      5       0.3951087       91.04892
2017    28      6       0.4031605       92.40375
2017    28      7       0.5205536       111.8177
2017    29      0       0.5393459       114.4028
2017    29      1       0.4984084       107.8083
2017    29      2       0.6493266       130.4496
2017    29      3       0.8711623       158.142
2017    29      4       0.6338042       127.7711
2017    29      5       0.6368348       127.8903
2017    29      6       0.6130393       125.1755
2017    29      7       0.4907648       106.449
2017    30      0       0.4234314       95.37964
2017    30      1       0.3766153       87.3107
2017    30      2       0.4007058       91.62628
2017    30      3       0.7706952       145.4366
2017    30      4       0.8689878       155.776
2017    30      5       0.8975017       159.6908
2017    30      6       1.002444        170.329
2017    30      7       0.8365818       153.0354
2017    31      0       0.6993873       136.3127
2017    31      1       0.5126806       108.88
2017    31      2       0.7476242       140.5367
2017    31      3       0.7915832       145.1188
2017    31      4       0.6270482       124.9469
2017    31      5       0.4700771       102.7663
2017    31      6       0.3179857       75.90599
2017    31      7       0.2198795       56.43839
2018    1       0       0.4368518       97.85074
2018    1       1       0.4771729       104.1375
2018    1       2       0.4237389       95.8536
2018    1       3       0.3932813       90.89276
2018    1       4       0.3417239       81.51679
2018    1       5       0.3292101       79.30739
2018    1       6       0.296691        73.10983
2018    1       7       0.2318096       59.48233
2018    2       0       0.2324821       59.1035
2018    2       1       0.264804        65.5166
2018    2       2       0.3006209       72.39303
2018    2       3       0.2959009       71.49037
2018    2       4       0.4562984       101.7477
2018    2       5       0.4648596       103.7879
2018    2       6       0.4307737       98.06851
2018    2       7       0.3927533       91.70537
2018    3       0       0.3465283       83.45506
2018    3       1       0.3107752       76.11803
2018    3       2       0.1934079       51.20576
2018    3       3       0.1729836       46.44353
2018    3       4       0.2895198       71.31259
2018    3       5       0.4438345       100.0592
2018    3       6       0.5416109       116.6152
2018    3       7       0.4832684       106.728
2018    4       0       0.4852519       106.5896
2018    4       1       0.4424389       100.2824
2018    4       2       0.4526024       101.7966
2018    4       3       0.4767372       105.6466
2018    4       4       0.5149584       111.6153
2018    4       5       0.467028        103.5603
2018    4       6       0.4092858       93.97487
2018    4       7       0.3375857       81.26709
2018    5       0       0.4765874       106.4544
2018    5       1       0.4405169       99.99578
2018    5       2       0.4511342       101.6173
2018    5       3       0.7948384       151.1178
2018    5       4       0.6452282       130.5795
2018    5       5       0.629058        128.6693
2018    5       6       0.1934008       51.98646
2018    5       7       0.2032182       54.15815
2018    6       0       0.09344049      28.32049
2018    6       1       0.129893        36.99938
2018    6       2       0.1992738       52.84208
2018    6       3       0.2407474       61.89696
2018    6       4       0.3478245       82.11041
2018    6       5       0.3151359       75.58445
2018    6       6       0.3389416       80.34458
2018    6       7       0.4819066       105.6129
2018    7       0       0.4620148       102.3127
2018    7       1       0.4937318       107.6958
2018    7       2       0.5239179       112.8263
2018    7       3       0.5188993       111.9899
2018    7       4       0.5834933       121.4671
2018    7       5       0.7003365       138.4672
2018    7       6       0.8008245       150.9213
2018    7       7       0.9891378       170.8312
2018    8       0       0.617802        127.1166
2018    8       1       0.3772254       88.56454
2018    8       2       0.3721564       88.18235
2018    8       3       0.2988546       74.59523
2018    8       4       0.07945673      24.4807
2018    8       5       0.1244455       34.9152
2018    8       6       0.1528488       41.40167
2018    8       7       0.1730801       45.90148
2018    9       0       0.2415358       59.53262
2018    9       1       0.2458976       60.6262
2018    9       2       0.1965048       50.24068
2018    9       3       0.199144        50.62026
2018    9       4       0.2610321       62.88016
2018    9       5       0.3937476       88.55763
2018    9       6       0.3952778       89.73403
2018    9       7       0.4206535       94.89578
2018    10      0       0.3764892       86.70646
2018    10      1       0.3656931       83.8199
2018    10      2       0.3686642       85.12782
2018    10      3       0.3974151       91.01926
2018    10      4       0.3525132       83.52236
2018    10      5       0.2042247       54.2205
2018    10      6       0.1300072       37.51523
2018    10      7       0.1121227       33.3671
2018    11      0       0.1152128       34.08102
2018    11      1       0.1735124       46.99153
2018    11      2       0.1874326       50.36017
2018    11      3       0.2018332       53.53665
2018    11      4       0.2241568       58.26058
2018    11      5       0.1879224       50.61035
2018    11      6       0.2190214       57.83133
2018    11      7       0.3087615       76.7835
2018    12      0       0.3415854       83.12737
2018    12      1       0.3205464       78.76426
2018    12      2       0.2986013       74.54256
2018    12      3       0.2456316       63.31301
2018    12      4       0.2114901       55.42386
2018    12      5       0.399589        93.66186
2018    12      6       1.105759        187.0628
2018    12      7       0.5591443       119.6304
2018    13      0       0.3744698       88.58926
2018    13      1       0.2058665       54.8113
2018    13      2       0.08738073      26.76386
2018    13      3       0.1136981       32.62029
2018    13      4       0.1230381       35.2674
2018    13      5       0.08819381      26.88129
2018    13      6       0.08145555      24.93643
2018    13      7       0.08228957      25.20787
2018    14      0       0.1212304       34.32484
2018    14      1       0.1283664       36.0177
2018    14      2       0.1531308       41.3813
2018    14      3       0.1498251       40.81117
2018    14      4       0.2296977       58.54583
2018    14      5       0.4368596       98.53406
2018    14      6       0.5289694       113.7633
2018    14      7       0.3870342       89.95166
2018    15      0       0.2716011       67.89202
2018    15      1       0.23499         60.21939
2018    15      2       0.2652873       65.68404
2018    15      3       0.6798455       135.4994
2018    15      4       0.7645739       146.9616
2018    15      5       0.5866507       122.8366
2018    15      6       0.10794         31.4414
2018    15      7       0.1045375       30.28271
2018    16      0       0.1644538       43.73786
2018    16      1       0.2391359       59.66669
2018    16      2       0.3257048       77.04813
2018    16      3       0.583397        122.0308
2018    16      4       0.7313905       142.6118
2018    16      5       0.6371785       129.8901
2018    16      6       0.5044926       110.418
2018    16      7       0.4072543       94.72942
2018    17      0       0.3444072       83.50131
2018    17      1       0.3349321       81.58052
2018    17      2       0.3099984       76.71801
2018    17      3       0.3009065       74.42612
2018    17      4       0.2562254       65.16107
2018    17      5       0.2368742       60.38534
2018    17      6       0.2335799       59.33121
2018    17      7       0.2319547       58.44356
2018    18      0       0.1734833       46.37756
2018    18      1       0.1913577       50.88197
2018    18      2       0.3742769       88.03449
2018    18      3       0.4415259       99.22523
2018    18      4       0.5509618       116.1665
2018    18      5       0.243592        63.32212
2018    18      6       0.1444119       40.62264
2018    18      7       0.1338461       36.87268
2018    19      0       0.2298076       56.68949
2018    19      1       0.2222791       55.75365
2018    19      2       0.1993817       51.62025
2018    19      3       0.3342164       80.03015
2018    19      4       0.5533398       118.2605
2018    19      5       0.4013258       92.94447
2018    19      6       0.3549619       83.76584
2018    19      7       0.2968106       72.47605
2018    20      0       0.3060894       74.24466
2018    20      1       0.2572212       64.20524
2018    20      2       0.2224885       56.83487
2018    20      3       0.1330749       37.02414
2018    20      4       0.07586175      23.70026
2018    20      5       0.08193395      25.30344
2018    20      6       0.08423776      25.94491
2018    20      7       0.09468471      28.7058
2018    21      0       0.1287025       37.1003
2018    21      1       0.1345597       38.16423
2018    21      2       0.1462415       40.76669
2018    21      3       0.2184571       56.68903
2018    21      4       0.3217288       77.00027
2018    21      5       0.3121367       75.05446
2018    21      6       0.3154745       75.85764
2018    21      7       0.3631942       85.83218
2018    22      0       0.3238669       78.75639
2018    22      1       0.309239        76.13488
2018    22      2       0.3562562       84.9182
2018    22      3       0.3603394       85.10131
2018    22      4       0.3500415       83.41388
2018    22      5       0.5218018       112.0642
2018    22      6       0.4065271       94.2828
2018    22      7       0.4028537       93.96648
2018    23      0       0.3705197       87.8826
2018    23      1       0.3162899       76.33308
2018    23      2       0.3075233       73.54544
2018    23      3       0.2504452       61.88977
2018    23      4       0.2916661       70.85854
2018    23      5       0.7097208       139.3474
2018    23      6       0.3761304       87.34949
2018    23      7       0.5263246       111.4648
2018    24      0       0.8431023       152.1204
2018    24      1       0.9945503       169.0065
2018    24      2       1.05558         175.8542
2018    24      3       0.9312353       163.4937
2018    24      4       1.043528        174.4666
2018    24      5       0.9939562       167.4319
2018    24      6       0.9223739       162.9534
2018    24      7       0.5430259       115.5219
2018    25      0       0.6225907       126.9952
2018    25      1       0.2959982       71.45124
2018    25      2       0.4426846       97.61258
2018    25      3       0.4643526       101.1382
2018    25      4       0.3247636       77.27034
2018    25      5       0.3006542       72.3612
2018    25      6       0.2820046       68.48862
2018    25      7       0.2669032       65.53078
2018    26      0       0.3038695       72.87786
2018    26      1       0.3502186       81.42911
2018    26      2       0.3137078       74.52862
2018    26      3       0.3330853       77.99893
2018    26      4       0.3945377       89.77581
2018    26      5       0.3875223       89.08621
2018    26      6       0.2838925       69.95588
2018    26      7       0.2570362       64.58632
2018    27      0       0.2953652       72.1375
2018    27      1       0.2918878       71.47262
2018    27      2       0.3625571       84.74258
2018    27      3       0.4225276       94.8814
2018    27      4       0.4690696       102.3296
2018    27      5       0.4189492       94.39906
2018    27      6       0.3766741       87.48311
2018    27      7       0.3820512       88.64248
2018    28      0       0.4075069       92.61964
2018    28      1       0.389652        89.50013
2018    28      2       0.3993817       91.12833
2018    28      3       0.7349032       139.6627
2018    28      4       0.8089683       148.971
2018    28      5       0.725659        139.474
2018    28      6       0.3788331       86.96795
2018    28      7       0.6130229       124.8046
2018    29      0       0.9941576       168.8311
2018    29      1       0.9350701       164.1844
2018    29      2       0.8571177       156.0435
2018    29      3       0.4356516       97.7596
2018    29      4       0.2174898       56.1841
2018    29      5       0.1765967       47.22252
2018    29      6       0.1957053       51.54651
2018    29      7       0.200085        52.98332
2018    30      0       0.1825966       49.41481
2018    30      1       0.1741395       47.45959
2018    30      2       0.204046        53.82086
2018    30      3       0.2190837       56.94455
2018    30      4       0.2347432       60.23048
2018    30      5       0.2268092       58.93415
2018    30      6       0.1992964       52.86572
2018    30      7       0.1907387       50.69674
2018    31      0       0.1891107       50.47236
2018    31      1       0.1937836       51.64709
2018    31      2       0.2173429       56.41513
2018    31      3       0.2606299       65.22107
2018    31      4       0.3084728       73.81087
2018    31      5       0.4200518       93.07765
2018    31      6       0.3300735       77.80435
2018    31      7       0.223803        57.64596
