####################################################################################################
# Month: 04Apr                                                                                     #
# Station: PER                                                                                     #
# Frequency: 345 GHz                                                                               #
# Columns are: year    day     tau     Tb (K)                                                      #
####################################################################################################
2009    1       1.69608213      224.7236125
2009    2       2.876023        260.2049
2009    3       2.43751839      206.15034
2009    4       0.5996183       123.558475
2009    5       0.52331548      113.4722275
2009    6       0.5276557       113.61020875
2009    7       0.83962748      156.192
2009    8       0.98052034      171.6439
2009    9       1.46803625      201.3762875
2009    10      2.29587262      241.5044875
2009    11      1.93743589      219.436525
2009    12      0.73646546      136.216255
2009    13      2.52215275      246.5210375
2009    14      1.72172062      213.1481625
2009    15      0.80065851      145.788815
2009    16      0.99274369      170.642125
2009    17      1.23179792      186.7714625
2009    18      1.20004676      191.497675
2009    19      0.6570949       126.38127625
2009    20      0.610276        125.7447925
2009    21      0.92278111      163.84035
2009    22      0.94514636      164.248075
2009    23      0.89218906      146.89358
2009    24      2.79995738      252.6026375
2009    25      2.20758109      222.948725
2009    26      0.96035832      161.338225
2009    27      1.2139628       183.4921625
2009    28      0.6691637       130.71087625
2009    29      1.15146266      183.6743
2009    30      0.6624533       129.976825
2010    1       1.0526646       175.4795375
2010    2       1.19516048      188.7447
2010    3       1.612784        217.6146125
2010    4       1.40075025      205.8062875
2010    5       1.68707112      221.94365
2010    6       2.67541025      249.95875
2010    7       2.14623125      236.1143
2010    8       1.10466761      175.7359875
2010    9       1.41742485      198.67465
2010    10      2.17860925      237.0641625
2010    11      0.8017348       132.57371125
2010    12      0.34576276      82.0836425
2010    13      0.45156779      101.499335
2010    14      0.51447545      110.23275125
2010    15      0.74958105      144.160025
2010    16      0.77905585      149.1943125
2010    17      1.23106841      195.329125
2010    18      1.61184888      220.7843125
2010    19      2.08510525      240.1596
2010    20      2.391169        247.3463
2010    21      1.68960538      221.4288
2010    22      1.6703305       222.11685
2010    23      2.36465087      243.41925
2010    24      2.37234649      228.919275
2010    25      0.58390311      113.5688825
2010    26      0.49401236      103.22744875
2010    27      1.34387968      197.22825
2010    28      1.22898802      188.09395
2010    29      0.66576959      132.00227
2010    30      1.00301623      171.859025
2011    1       0.89763699      156.3109325
2011    2       0.53504839      113.93778375
2011    3       0.90226955      157.56115
2011    4       0.96781476      171.066125
2011    5       1.01925089      173.1572125
2011    6       0.87338919      156.8745125
2011    7       0.57112408      118.97981875
2011    8       0.38812468      90.6074225
2011    9       2.18052986      231.9712625
2011    10      1.02241271      169.837425
2011    11      1.15481017      181.912475
2011    12      1.87005238      222.6936375
2011    13      1.317383        197.2538625
2011    14      1.52528561      209.308125
2011    15      1.23869365      191.1533875
2011    16      0.43941831      98.9655625
2011    17      0.64849726      131.4477625
2011    18      0.65777414      132.1736375
2011    19      1.6073586       209.1051125
2011    20      2.41827112      244.435125
2011    21      1.3742425       202.1334625
2011    22      1.01957965      168.7302125
2011    23      1.19119374      187.7502125
2011    24      0.9063427       160.3304875
2011    25      1.07424016      177.423275
2011    26      0.66518346      132.34073375
2011    27      0.94825744      161.31257875
2011    28      0.70068936      134.38585375
2011    29      0.63261114      128.69536125
2011    30      1.45586139      208.0816625
2012    1       1.62861728      209.0348125
2012    2       1.39659799      181.530675
2012    3       2.60062925      256.237025
2012    4       1.37627425      207.6355125
2012    5       1.06453964      184.7504875
2012    6       1.72497886      188.1088125
2012    7       0.3719881       86.66336875
2012    8       0.50898184      109.89722625
2012    9       0.68411161      128.58992625
2012    10      0.59642902      120.84197125
2012    11      0.57225306      120.3469125
2012    12      1.03991128      176.747075
2012    13      0.56264859      118.32844375
2012    14      1.52213572      201.0595125
2012    15      1.18384509      188.3830875
2012    16      1.63053425      219.359025
2012    17      2.08225114      227.721075
2012    18      3.25941388      263.511875
2012    19      2.77566425      254.3779375
2012    20      2.16324562      242.107025
2012    21      2.48815688      249.7853625
2012    22      2.21817688      240.494075
2012    23      1.7099635       217.7994
2012    24      1.4503745       201.792025
2012    25      1.51444049      203.7068875
2012    26      1.38784275      201.9867375
2012    27      0.60811496      124.0238625
2012    28      0.57534099      120.24173875
2012    29      0.54474561      114.50827625
2012    30      0.68757251      134.4068125
2013    1       0.95578623      162.7980625
2013    2       1.37000002      198.573525
2013    3       1.3346519       198.3969
2013    4       1.45577625      208.8574875
2013    5       1.78532575      226.1672375
2013    6       2.19630287      238.2750125
2013    7       1.82183338      226.6166375
2013    8       2.15169025      239.1323375
2013    9       1.51593088      212.5214875
2013    10      1.46739062      206.9931875
2013    11      2.48122162      249.720975
2013    12      1.81814475      225.751825
2013    13      1.8743065       224.7229375
2013    14      2.40199387      247.5618875
2013    15      1.75757775      223.3338125
2013    16      1.26602455      190.04475
2013    17      1.59587812      214.3484875
2013    18      1.17919102      180.6675375
2013    19      1.06534877      174.9984375
2013    20      0.56260925      115.150905
2013    21      1.72937179      199.36587
2013    22      1.24288232      189.2582
2013    23      0.31546003      76.42179375
2013    24      0.7726724       143.42506125
2013    25      1.09132679      175.4530625
2013    26      1.13702952      180.2292
2013    27      1.06556414      166.6294375
2013    28      1.94514212      233.0760375
2013    29      2.55138575      247.9147625
2013    30      1.959667        231.50205
2014    1       2.22107625      243.286
2014    2       2.57769588      250.892025
2014    3       3.9216955       270.4628625
2014    4       3.3973745       265.475
2014    5       2.10082975      240.1796125
2014    6       1.18359294      190.096075
2014    7       1.37340674      199.5179375
2014    8       3.21238213      259.7849625
2014    9       4.19263875      271.4884375
2014    10      3.909514        269.4383
2014    11      2.24969862      232.2865
2014    12      1.5623335       215.0945
2014    13      0.84592405      143.4185175
2014    14      0.73010499      138.3755475
2014    15      1.21641436      188.574675
2014    16      1.07068852      178.9099625
2014    17      1.06642234      179.6669
2014    18      0.95748092      146.8237975
2014    19      0.49108294      106.82931375
2014    20      0.66390654      131.9787875
2014    21      2.1872815       238.709625
2014    22      2.01212575      233.774375
2014    23      2.17430762      240.0052125
2014    24      0.43887398      93.10310625
2014    25      1.13740985      172.10841625
2014    26      0.97928736      166.14565125
2014    27      0.39289599      92.194555
2014    28      1.05948976      161.20159
2014    29      2.19006129      223.3644
2014    30      0.47720068      103.34748875
2015    1       2.47782225      248.2490875
2015    2       0.9949875       144.82935
2015    3       1.26544372      192.2596625
2015    4       2.571274        249.7384875
2015    5       1.695057        218.12915
2015    6       2.19975088      238.4194625
2015    7       1.98606025      230.4104875
2015    8       1.02517518      160.2916125
2015    9       0.96849599      167.415575
2015    10      1.21923804      191.7418875
2015    11      1.42622232      203.6108625
2015    12      1.00609085      162.7156125
2015    13      0.83531772      148.49698
2015    14      2.071877        237.2440125
2015    15      1.99745875      234.8579125
2015    16      1.91687212      218.7309
2015    17      3.52091288      265.876175
2015    18      2.38070985      226.3403375
2015    19      0.94193234      160.772725
2015    20      0.50477702      104.07727
2015    21      1.40368396      188.0324875
2015    22      2.30300437      245.7122875
2015    23      2.91634838      257.3635375
2015    24      2.03983712      229.175125
2015    25      1.85822675      226.0263875
2015    26      0.67895389      121.0196175
2015    27      0.4016001       91.9194
2015    28      0.56776286      118.46398875
2015    29      0.66650691      132.627975
2015    30      1.1261961       180.4628
2016    1       1.57512425      214.7349875
2016    2       0.78624705      138.143335
2016    3       0.73528418      142.0238575
2016    4       0.9626575       169.51735
2016    5       1.3446215       204.52785
2016    6       1.59003242      174.03278875
2016    7       1.15203159      173.0863
2016    8       1.05526196      165.9754125
2016    9       0.73834584      142.803225
2016    10      0.78926584      142.87843875
2016    11      1.22749543      189.847775
2016    12      0.77206708      147.939975
2016    13      0.70248784      138.4426625
2016    14      1.19595104      189.9073625
2016    15      2.37298938      245.8741625
2016    16      2.40112613      246.4076625
2016    17      1.62950512      215.6638875
2016    18      1.41023262      206.9621875
2016    19      1.65452725      219.5105375
2016    20      1.70179812      223.807325
2016    21      2.91644738      258.53235
2016    22      1.2844204       177.1079875
2016    23      0.76791985      146.3688375
2016    24      0.61047886      127.1994375
2016    25      0.42162802      98.22841625
2016    26      0.3139959       77.37892375
2016    27      0.51723355      104.67050125
2016    28      1.93481525      230.79225
2016    29      2.88314775      255.669475
2016    30      1.91137818      217.3855
2017    1       0.40340594      93.3116625
2017    2       1.01304879      172.10645
2017    3       1.0309337       169.21065
2017    4       0.85300984      153.82811
2017    5       1.0513653       175.747025
2017    6       1.01355541      172.8097625
2017    7       1.08846773      181.6955625
2017    8       1.98551925      234.03645
2017    9       1.61565546      206.123725
2017    10      1.48365476      189.59615875
2017    11      0.61242615      126.15366625
2017    12      1.11214178      181.7131
2017    13      0.89852071      161.79335
2017    14      0.51365211      111.714085
2017    15      0.37617591      86.94744125
2017    16      1.46257888      206.227975
2017    17      1.87970875      227.5121125
2017    18      1.425558        207.2658875
2017    19      0.95356116      166.1730125
2017    20      1.47013882      202.7896875
2017    21      2.8739225       256.2260125
2017    22      2.01532062      234.164475
2017    23      1.54405812      213.4949
2017    24      2.70696262      246.44655
2017    25      2.33516675      235.0327875
2017    26      1.27161239      179.5389125
2017    27      0.95533568      166.0339125
2017    28      0.95882512      161.469525
2017    29      0.44984264      97.31875
2017    30      0.43752742      97.71000375
2018    1       1.62325135      209.093
2018    2       0.97310039      170.33855
2018    3       0.94565448      168.5958875
2018    4       1.24687019      194.564125
2018    5       1.52332872      206.3189625
2018    6       0.4978318       110.7855075
2018    7       0.45182494      102.53770625
2018    8       1.21613213      181.4484875
2018    9       1.70919462      222.2702125
2018    10      2.88669375      260.01105
2018    11      2.08020088      241.7056625
2018    12      1.94329788      234.060075
2018    13      2.11095844      223.67344875
2018    14      1.60079125      213.0724375
2018    15      2.32594012      249.43145
2018    16      1.20920771      173.97132375
2018    17      0.38151361      88.46633
2018    18      0.77962391      134.2302525
2018    19      1.66905062      219.0601625
2018    20      1.29555539      198.955875
2018    21      1.2597775       194.8495625
2018    22      1.20023209      187.284775
2018    23      0.82281155      153.0558
2018    24      1.58363062      218.321875
2018    25      1.95333178      224.7150625
2018    26      0.77321046      140.6586275
2018    27      1.2457006       192.1807125
2018    28      0.78594806      148.8681
2018    29      0.91889079      159.7232125
2018    30      1.17571888      190.0386375
