####################################################################################################
# Month: 04Apr                                                                                     #
# Station: PER                                                                                     #
# Frequency: 230 GHz                                                                               #
# Columns are: year    day     segment         tau     Tb (K)                                      #
####################################################################################################
2009    1       0       0.3116378       77.16797
2009    1       1       0.5478551       118.9882
2009    1       2       0.6860397       139.3728
2009    1       3       0.5242556       115.9982
2009    1       4       0.4152936       97.34961
2009    1       5       0.4307649       99.98498
2009    1       6       0.4881045       109.8047
2009    1       7       0.5370703       117.654
2009    2       0       0.5704136       122.5939
2009    2       1       1.01819         177.7763
2009    2       2       1.046465        180.3727
2009    2       3       1.151674        189.8395
2009    2       4       0.8745331       162.3235
2009    2       5       0.8049236       154.0182
2009    2       6       0.8169926       155.4785
2009    2       7       1.185859        192.7911
2009    3       0       0.9463776       169.7146
2009    3       1       1.373528        205.4863
2009    3       2       1.426563        208.8775
2009    3       3       1.382786        205.639
2009    3       4       0.7627583       147.0294
2009    3       5       0.3268736       80.19556
2009    3       6       0.06597155      21.6253
2009    3       7       0.07971112      25.0449
2009    4       0       0.1102994       32.26062
2009    4       1       0.1943735       51.46899
2009    4       2       0.2550118       64.29139
2009    4       3       0.2168697       56.32755
2009    4       4       0.1853465       49.93325
2009    4       5       0.1427868       40.49416
2009    4       6       0.1253363       36.40045
2009    4       7       0.1372114       39.11883
2009    5       0       0.1500322       42.0556
2009    5       1       0.187859        50.44109
2009    5       2       0.1839474       49.49837
2009    5       3       0.1432075       40.44282
2009    5       4       0.161032        44.5663
2009    5       5       0.1494503       41.64868
2009    5       6       0.124029        35.48838
2009    5       7       0.1053839       31.13784
2009    6       0       0.1021988       30.14707
2009    6       1       0.1114404       32.30419
2009    6       2       0.1479629       41.33222
2009    6       3       0.1465934       41.19648
2009    6       4       0.1515135       42.2818
2009    6       5       0.1956186       52.18049
2009    6       6       0.1952724       52.1436
2009    6       7       0.1642574       45.11448
2009    7       0       0.1746567       47.47133
2009    7       1       0.2268045       58.89347
2009    7       2       0.292861        72.53596
2009    7       3       0.2702251       67.98455
2009    7       4       0.2472765       63.15255
2009    7       5       0.2335502       60.11924
2009    7       6       0.2351903       60.47477
2009    7       7       0.2271589       58.8008
2009    8       0       0.2253959       58.40309
2009    8       1       0.2889846       71.57096
2009    8       2       0.3256573       78.95786
2009    8       3       0.3137212       76.85161
2009    8       4       0.3090876       75.9754
2009    8       5       0.2914194       72.40326
2009    8       6       0.2454721       62.99684
2009    8       7       0.232958        60.33756
2009    9       0       0.2322699       60.17604
2009    9       1       0.3221665       78.35779
2009    9       2       0.3260725       79.26803
2009    9       3       0.2794695       70.09831
2009    9       4       0.3398749       81.84516
2009    9       5       0.5760026       121.4253
2009    9       6       0.6303088       129.2154
2009    9       7       0.9518261       168.1109
2009    10      0       1.095517        182.2903
2009    10      1       0.7493086       143.7184
2009    10      2       0.9687256       166.6092
2009    10      3       0.977798        168.1672
2009    10      4       0.9319107       164.8635
2009    10      5       0.8998331       162.2358
2009    10      6       0.5556133       117.937
2009    10      7       0.41566         95.21584
2009    11      0       0.4463198       100.2062
2009    11      1       0.7583045       143.4115
2009    11      2       0.9376137       163.5405
2009    11      3       0.76883         144.8549
2009    11      4       1.043197        176.0603
2009    11      5       0.8774245       160.623
2009    11      6       0.2991587       73.79608
2009    11      7       0.2595238       65.99258
2009    12      0       0.1162901       33.89392
2009    12      1       0.1048098       31.17414
2009    12      2       0.2080884       55.17273
2009    12      3       0.1586135       43.96598
2009    12      4       0.1197203       34.74814
2009    12      5       0.2144603       56.37703
2009    12      6       0.3565917       85.02895
2009    12      7       0.422121        96.83376
2009    13      0       0.4272614       97.71532
2009    13      1       0.5077718       110.6328
2009    13      2       0.6376639       129.5907
2009    13      3       0.7350192       143.0228
2009    13      4       0.8756994       160.2135
2009    13      5       1.06501         179.3221
2009    13      6       1.296595        199.0109
2009    13      7       0.8703293       159.5577
2009    14      0       0.761763        146.2058
2009    14      1       1.133034        184.6503
2009    14      2       0.8347331       155.1427
2009    14      3       0.4308876       98.22736
2009    14      4       0.3160184       77.16817
2009    14      5       0.3287257       79.31487
2009    14      6       0.3175173       76.89103
2009    14      7       0.3155478       76.58577
2009    15      0       0.4271716       97.00961
2009    15      1       0.2861927       70.95752
2009    15      2       0.1633691       44.64335
2009    15      3       0.1479625       40.78873
2009    15      4       0.124874        35.65023
2009    15      5       0.1904649       50.53093
2009    15      6       0.2899196       71.33529
2009    15      7       0.2219211       56.9945
2009    16      0       0.2799585       68.99474
2009    16      1       0.3206057       77.30945
2009    16      2       0.2784808       68.7516
2009    16      3       0.2852247       70.44044
2009    16      4       0.3223542       77.53399
2009    16      5       0.3203962       76.57898
2009    16      6       0.2358457       59.8627
2009    16      7       0.2061126       53.9935
2009    17      0       0.1752915       47.32404
2009    17      1       0.2015028       53.04491
2009    17      2       0.3111469       75.54783
2009    17      3       0.4064841       93.70881
2009    17      4       0.6144694       127.2688
2009    17      5       0.333802        80.24051
2009    17      6       0.3590164       85.03677
2009    17      7       0.3933454       91.37654
2009    18      0       0.3854243       90.05512
2009    18      1       0.3716759       87.7792
2009    18      2       0.3862968       90.67187
2009    18      3       0.3811703       89.74915
2009    18      4       0.30528         75.29394
2009    18      5       0.2641449       66.84082
2009    18      6       0.306188        74.87618
2009    18      7       0.3302579       79.64782
2009    19      0       0.2522112       64.81549
2009    19      1       0.2953645       73.62878
2009    19      2       0.4205042       96.92742
2009    19      3       0.211559        55.89879
2009    19      4       0.1258648       36.40935
2009    19      5       0.09399268      28.69133
2009    19      6       0.08778971      27.10052
2009    19      7       0.09361707      28.44474
2009    20      0       0.09726994      29.19517
2009    20      1       0.1906539       50.98551
2009    20      2       0.23822         61.30508
2009    20      3       0.1914582       51.1294
2009    20      4       0.1699134       46.28435
2009    20      5       0.153023        42.4381
2009    20      6       0.1677299       45.76699
2009    20      7       0.1975837       52.46505
2009    21      0       0.222129        57.86179
2009    21      1       0.36822         87.07027
2009    21      2       0.3803039       89.44852
2009    21      3       0.3212488       78.35827
2009    21      4       0.2588228       65.7094
2009    21      5       0.2100168       55.2939
2009    21      6       0.192922        51.50578
2009    21      7       0.2046521       54.02148
2009    22      0       0.1732354       47.02871
2009    22      1       0.2556979       64.99032
2009    22      2       0.3722617       87.96217
2009    22      3       0.3822514       89.86971
2009    22      4       0.3683269       87.26867
2009    22      5       0.2770242       69.47364
2009    22      6       0.222758        58.17685
2009    22      7       0.1373246       39.06634
2009    23      0       0.1667459       45.95964
2009    23      1       0.139312        39.6358
2009    23      2       0.2329749       60.6516
2009    23      3       0.1224277       35.505
2009    23      4       0.1168351       33.9259
2009    23      5       0.236018        59.71803
2009    23      6       0.3810978       88.25513
2009    23      7       0.695403        136.8194
2009    24      0       1.131675        184.0348
2009    24      1       1.043582        175.1655
2009    24      2       1.138371        185.7358
2009    24      3       1.131806        184.3073
2009    24      4       1.140441        183.4972
2009    24      5       1.254395        194.3164
2009    24      6       0.7747397       147.5628
2009    24      7       0.5936442       123.7128
2009    25      0       0.7473086       144.015
2009    25      1       1.040096        175.4843
2009    25      2       1.311573        197.3216
2009    25      3       1.097076        179.9634
2009    25      4       1.280931        195.6987
2009    25      5       0.7319016       140.3044
2009    25      6       0.2611          64.61192
2009    25      7       0.3123056       73.9863
2009    26      0       0.4340015       95.0954
2009    26      1       0.5092602       107.1846
2009    26      2       0.4336499       95.56973
2009    26      3       0.4443118       97.22481
2009    26      4       0.4064852       91.09618
2009    26      5       0.2029278       52.32785
2009    26      6       0.1868623       48.84347
2009    26      7       0.1808437       47.49857
2009    27      0       0.2544013       62.52966
2009    27      1       0.542089        113.0685
2009    27      2       0.5872316       119.6209
2009    27      3       0.3608822       83.40452
2009    27      4       0.6497631       128.973
2009    27      5       0.3423233       80.24165
2009    27      6       0.2727317       67.12186
2009    27      7       0.2510149       62.85782
2009    28      0       0.3362462       80.3908
2009    28      1       0.3470665       81.79919
2009    28      2       0.2712578       67.20382
2009    28      3       0.1956761       52.05447
2009    28      4       0.1431787       39.55236
2009    28      5       0.1261561       34.98328
2009    28      6       0.1643731       43.06215
2009    28      7       0.2251536       55.46793
2009    29      0       0.2786829       66.67292
2009    29      1       0.3699459       85.56433
2009    29      2       0.3549781       83.40161
2009    29      3       0.3481559       82.36554
2009    29      4       0.3870068       88.19825
2009    29      5       0.3876175       88.27454
2009    29      6       0.3526058       82.11155
2009    29      7       0.3370745       79.41876
2009    30      0       0.2594877       64.72487
2009    30      1       0.2881771       70.49773
2009    30      2       0.2512229       63.27335
2009    30      3       0.1466326       40.72308
2009    30      4       0.1479689       40.88922
2009    30      5       0.1474301       40.5607
2009    30      6       0.1460525       40.28446
2009    30      7       0.1389027       38.72925
2010    1       0       0.2364744       60.68292
2010    1       1       0.3658737       86.84644
2010    1       2       0.4032372       93.90217
2010    1       3       0.4101297       94.48806
2010    1       4       0.3585953       85.10469
2010    1       5       0.2316147       59.59311
2010    1       6       0.2087123       54.97525
2010    1       7       0.1880478       50.4898
2010    2       0       0.1837749       49.70477
2010    2       1       0.3599029       86.08328
2010    2       2       0.4637571       104.5748
2010    2       3       0.4612366       104.1645
2010    2       4       0.4058783       94.48812
2010    2       5       0.2912743       72.69368
2010    2       6       0.2974515       73.62673
2010    2       7       0.2969528       73.47691
2010    3       0       0.3759709       88.55626
2010    3       1       0.4787698       106.4765
2010    3       2       0.5505201       117.8778
2010    3       3       0.7897465       150.9481
2010    3       4       0.6449573       132.1587
2010    3       5       0.462165        103.8436
2010    3       6       0.3930679       91.68871
2010    3       7       0.4189214       96.15783
2010    4       0       0.4383123       99.5569
2010    4       1       0.5677486       120.6773
2010    4       2       0.5426588       117.1168
2010    4       3       0.4470476       101.5952
2010    4       4       0.4219771       97.26097
2010    4       5       0.3759304       88.76955
2010    4       6       0.3158119       77.19902
2010    4       7       0.3345659       80.64619
2010    5       0       0.3603516       85.48394
2010    5       1       0.4797341       106.5163
2010    5       2       0.4815996       106.6981
2010    5       3       0.4923449       108.3702
2010    5       4       0.5181792       112.6364
2010    5       5       0.512923        111.6691
2010    5       6       0.527235        113.7114
2010    5       7       0.5421151       115.5325
2010    6       0       0.5779608       120.5646
2010    6       1       0.59123         121.9373
2010    6       2       0.5327465       113.4926
2010    6       3       0.5967952       124.189
2010    6       4       0.9284646       164.4068
2010    6       5       1.072301        179.4321
2010    6       6       1.073127        181.8363
2010    6       7       1.432749        210.8371
2010    7       0       0.4883528       109.1922
2010    7       1       0.7767996       149.8198
2010    7       2       0.9214291       165.3651
2010    7       3       1.039649        176.3291
2010    7       4       0.7270019       141.7241
2010    7       5       0.625872        127.4835
2010    7       6       0.4540213       101.9028
2010    7       7       0.4869688       107.5832
2010    8       0       0.4027428       93.40979
2010    8       1       0.5585805       119.6375
2010    8       2       0.7728741       149.8662
2010    8       3       0.3747862       89.7234
2010    8       4       0.1844456       49.71598
2010    8       5       0.1827111       49.41736
2010    8       6       0.191885        51.52776
2010    8       7       0.211032        55.87692
2010    9       0       0.2297683       59.64623
2010    9       1       0.2250231       58.59315
2010    9       2       0.2611839       65.41668
2010    9       3       0.3255729       77.6933
2010    9       4       0.4627358       102.6214
2010    9       5       0.6413251       132.6088
2010    9       6       0.5057709       111.9757
2010    9       7       0.6243005       129.6703
2010    10      0       0.7581805       147.9774
2010    10      1       0.6261823       129.9568
2010    10      2       1.31328         201.9014
2010    10      3       1.0443          179.4052
2010    10      4       0.9701026       172.1476
2010    10      5       0.4680801       104.8986
2010    10      6       0.3838072       90.05681
2010    10      7       0.4340246       98.86691
2010    11      0       0.5678784       120.0679
2010    11      1       0.6985421       138.4552
2010    11      2       0.402403        92.62752
2010    11      3       0.107956        31.75268
2010    11      4       0.07889212      24.66828
2010    11      5       0.08372317      25.86715
2010    11      6       0.1110198       32.47898
2010    11      7       0.1825105       49.04414
2010    12      0       0.1103259       32.46936
2010    12      1       0.09861169      29.69765
2010    12      2       0.08885196      27.36128
2010    12      3       0.07189871      23.07875
2010    12      4       0.06374126      20.73371
2010    12      5       0.1160709       33.24793
2010    12      6       0.1287654       36.3343
2010    12      7       0.1327021       37.46432
2010    13      0       0.1380894       38.82148
2010    13      1       0.1351541       38.31593
2010    13      2       0.1318187       37.75847
2010    13      3       0.1279496       36.80463
2010    13      4       0.139451        38.97388
2010    13      5       0.1381115       38.63415
2010    13      6       0.1225562       35.00772
2010    13      7       0.106307        30.85779
2010    14      0       0.1198566       34.02269
2010    14      1       0.1360228       37.89064
2010    14      2       0.1228899       35.15161
2010    14      3       0.1273593       36.07264
2010    14      4       0.1421424       39.31195
2010    14      5       0.171843        45.6757
2010    14      6       0.1832417       48.45476
2010    14      7       0.1763734       47.3962
2010    15      0       0.1577786       43.55533
2010    15      1       0.1637641       45.01351
2010    15      2       0.26468         66.72484
2010    15      3       0.2999102       73.66086
2010    15      4       0.2504855       63.73286
2010    15      5       0.2127018       55.78726
2010    15      6       0.186982        50.18619
2010    15      7       0.1656112       45.43058
2010    16      0       0.1585884       43.81791
2010    16      1       0.2212865       57.85605
2010    16      2       0.2990649       74.14143
2010    16      3       0.2569234       65.62901
2010    16      4       0.2009145       53.52095
2010    16      5       0.1792683       48.60247
2010    16      6       0.216044        56.80168
2010    16      7       0.2403092       62.08614
2010    17      0       0.2583193       65.89543
2010    17      1       0.3592756       85.8537
2010    17      2       0.3731581       88.63159
2010    17      3       0.352658        84.87925
2010    17      4       0.3457776       83.55358
2010    17      5       0.3615901       86.54794
2010    17      6       0.376043        89.21065
2010    17      7       0.3882481       91.32423
2010    18      0       0.3773043       89.2584
2010    18      1       0.5411271       117.2617
2010    18      2       0.5644308       120.7708
2010    18      3       0.4976614       110.0051
2010    18      4       0.4474466       101.5817
2010    18      5       0.4809743       107.3527
2010    18      6       0.4986755       111.2223
2010    18      7       0.5322523       116.4716
2010    19      0       0.5319487       115.4663
2010    19      1       0.7580987       147.8568
2010    19      2       0.8526864       159.0035
2010    19      3       0.7126766       141.6297
2010    19      4       0.6528737       133.3058
2010    19      5       0.6767946       136.4436
2010    19      6       0.6130041       127.4675
2010    19      7       0.5551504       118.6681
2010    20      0       0.6405746       130.8965
2010    20      1       1.107783        183.8221
2010    20      2       0.9508447       167.7169
2010    20      3       0.8271253       153.8602
2010    20      4       0.7275114       141.8072
2010    20      5       0.6305275       128.9233
2010    20      6       0.6015583       124.6875
2010    20      7       0.615246        126.7144
2010    21      0       0.6299767       129.2079
2010    21      1       0.6723379       135.6192
2010    21      2       0.61949         128.219
2010    21      3       0.5017482       110.1473
2010    21      4       0.4243402       97.2548
2010    21      5       0.4043765       93.96237
2010    21      6       0.3752528       88.78934
2010    21      7       0.372387        88.25332
2010    22      0       0.4039937       93.95314
2010    22      1       0.6213912       128.8827
2010    22      2       0.6543877       133.6139
2010    22      3       0.4770372       106.4675
2010    22      4       0.4497715       101.8454
2010    22      5       0.4377256       99.86132
2010    22      6       0.4253673       97.73982
2010    22      7       0.449386        101.3415
2010    23      0       0.3964472       92.17693
2010    23      1       0.4602755       103.1554
2010    23      2       0.6691858       134.6059
2010    23      3       0.6828823       136.0405
2010    23      4       0.7645246       146.9279
2010    23      5       0.8729232       160.1899
2010    23      6       0.9111722       163.3693
2010    23      7       1.091758        181.7251
2010    24      0       1.301918        198.0809
2010    24      1       1.204319        190.224
2010    24      2       1.403197        204.6965
2010    24      3       0.9013584       160.2633
2010    24      4       0.6848415       136.1446
2010    24      5       0.735904        143.3264
2010    24      6       0.5136154       110.8363
2010    24      7       0.1830811       48.8781
2010    25      0       0.2274789       58.35381
2010    25      1       0.4403099       98.53517
2010    25      2       0.3351706       79.46945
2010    25      3       0.3302477       78.39018
2010    25      4       0.1851678       49.44562
2010    25      5       0.05586866      18.84247
2010    25      6       0.05157025      17.57884
2010    25      7       0.07632797      23.55874
2010    26      0       0.09487661      28.10653
2010    26      1       0.1140462       32.53761
2010    26      2       0.1365017       37.59118
2010    26      3       0.1127258       32.47539
2010    26      4       0.1001214       29.35771
2010    26      5       0.1614941       42.36639
2010    26      6       0.199715        50.37131
2010    26      7       0.2958061       69.57184
2010    27      0       0.4472311       96.94279
2010    27      1       0.5138577       108.9697
2010    27      2       0.4476223       99.27334
2010    27      3       0.4928314       107.0232
2010    27      4       0.4941118       107.7068
2010    27      5       0.4588706       102.9747
2010    27      6       0.3087466       75.20867
2010    27      7       0.2493989       62.12925
2010    28      0       0.362768        84.74186
2010    28      1       0.4487516       100.5586
2010    28      2       0.4137189       95.0043
2010    28      3       0.3545002       84.17816
2010    28      4       0.4563407       102.3741
2010    28      5       0.4313237       99.26169
2010    28      6       0.2075057       55.02763
2010    28      7       0.1583778       43.22361
2010    29      0       0.1556536       42.76925
2010    29      1       0.1263517       36.29081
2010    29      2       0.09763731      29.57694
2010    29      3       0.1503135       42.26153
2010    29      4       0.2481535       63.92304
2010    29      5       0.2431554       62.52914
2010    29      6       0.2301844       59.58196
2010    29      7       0.274233        68.58375
2010    30      0       0.2976619       72.98701
2010    30      1       0.3176422       76.76085
2010    30      2       0.3666866       86.06792
2010    30      3       0.3402445       81.44044
2010    30      4       0.2764466       69.02592
2010    30      5       0.2303454       59.39833
2010    30      6       0.2205219       57.12159
2010    30      7       0.2212696       56.85852
2011    1       0       0.2819629       70.42791
2011    1       1       0.287221        71.58578
2011    1       2       0.3019746       74.59764
2011    1       3       0.3126727       76.49144
2011    1       4       0.3633908       85.83281
2011    1       5       0.3264604       79.25783
2011    1       6       0.1043027       30.83342
2011    1       7       0.08387312      25.57414
2011    2       0       0.1142609       32.71048
2011    2       1       0.1413353       39.2185
2011    2       2       0.1929555       51.2067
2011    2       3       0.1931884       51.2644
2011    2       4       0.1587474       43.46598
2011    2       5       0.136391        38.25382
2011    2       6       0.1323024       37.31383
2011    2       7       0.1570564       42.83355
2011    3       0       0.160587        43.93042
2011    3       1       0.1378636       39.26039
2011    3       2       0.1551387       43.25518
2011    3       3       0.2302527       59.73463
2011    3       4       0.3597142       85.10122
2011    3       5       0.3904256       90.49816
2011    3       6       0.3590147       84.7243
2011    3       7       0.2528219       63.99603
2011    4       0       0.2428386       62.0205
2011    4       1       0.2683037       67.29843
2011    4       2       0.3259905       79.20569
2011    4       3       0.3060999       75.68208
2011    4       4       0.2595006       66.15232
2011    4       5       0.2509664       64.24516
2011    4       6       0.2604901       66.17027
2011    4       7       0.2858923       71.24995
2011    5       0       0.2704344       68.07017
2011    5       1       0.3319546       80.29572
2011    5       2       0.4081242       94.54899
2011    5       3       0.4822533       108.4906
2011    5       4       0.301201        74.56247
2011    5       5       0.2305623       59.92584
2011    5       6       0.1958136       52.26681
2011    5       7       0.1955943       52.16869
2011    6       0       0.1976956       52.66943
2011    6       1       0.3153314       77.2411
2011    6       2       0.3797165       89.50071
2011    6       3       0.3422802       82.50822
2011    6       4       0.2628069       66.76132
2011    6       5       0.2119773       55.92239
2011    6       6       0.1674592       45.96552
2011    6       7       0.1307935       37.428
2011    7       0       0.126099        36.37652
2011    7       1       0.1995559       53.34537
2011    7       2       0.2733198       69.08546
2011    7       3       0.2405224       62.26481
2011    7       4       0.1539986       43.18881
2011    7       5       0.1191615       34.95213
2011    7       6       0.1129804       33.4526
2011    7       7       0.08999893      27.8054
2011    8       0       0.08927701      27.58607
2011    8       1       0.09466241      28.8597
2011    8       2       0.1009753       30.39813
2011    8       3       0.09029517      27.78621
2011    8       4       0.08947607      27.64328
2011    8       5       0.1023646       30.8625
2011    8       6       0.1397398       39.81064
2011    8       7       0.1983145       53.13941
2011    9       0       0.2856167       71.49645
2011    9       1       0.4040944       93.71754
2011    9       2       0.7247608       143.0037
2011    9       3       0.5790701       122.4274
2011    9       4       0.761724        147.1104
2011    9       5       0.9009614       162.4169
2011    9       6       1.410109        206.6861
2011    9       7       1.01407         172.3441
2011    10      0       0.3266681       76.85165
2011    10      1       0.2979986       72.59412
2011    10      2       0.3703687       86.22601
2011    10      3       0.5845277       120.6156
2011    10      4       0.5815337       120.0945
2011    10      5       0.3863236       88.48388
2011    10      6       0.2686169       66.00469
2011    10      7       0.221294        56.11537
2011    11      0       0.306888        73.51366
2011    11      1       0.3899375       88.76462
2011    11      2       0.388136        88.41181
2011    11      3       0.3047208       72.88323
2011    11      4       0.3333903       78.2208
2011    11      5       0.3937359       89.32598
2011    11      6       0.375415        85.97516
2011    11      7       0.4604246       99.33591
2011    12      0       0.6429893       127.0135
2011    12      1       0.8044655       147.8831
2011    12      2       0.8875903       157.3031
2011    12      3       0.9631069       164.9076
2011    12      4       0.6994622       136.4123
2011    12      5       0.8274602       153.6306
2011    12      6       0.3593223       84.37188
2011    12      7       0.3310761       79.15293
2011    13      0       0.3851274       89.06007
2011    13      1       0.376886        87.37649
2011    13      2       0.4884465       106.3981
2011    13      3       0.4706479       103.6655
2011    13      4       0.3759548       86.9855
2011    13      5       0.3386664       80.11644
2011    13      6       0.3288847       77.99449
2011    13      7       0.4479599       99.34223
2011    14      0       0.5434844       115.0985
2011    14      1       0.6715005       134.4837
2011    14      2       0.6379518       130.4683
2011    14      3       0.5875783       123.2486
2011    14      4       0.6293314       129.3649
2011    14      5       0.4017176       92.94918
2011    14      6       0.3019132       74.08418
2011    14      7       0.2848053       70.82588
2011    15      0       0.2438547       62.56384
2011    15      1       0.4458605       100.9085
2011    15      2       0.5678559       120.408
2011    15      3       0.6254299       129.0011
2011    15      4       0.4445174       100.5338
2011    15      5       0.3896849       90.6223
2011    15      6       0.3091099       75.26553
2011    15      7       0.2529535       64.00558
2011    16      0       0.1835759       49.22277
2011    16      1       0.1407388       39.62669
2011    16      2       0.128483        36.90359
2011    16      3       0.1120371       32.89678
2011    16      4       0.09618508      28.9568
2011    16      5       0.1023444       30.28223
2011    16      6       0.1189344       34.16421
2011    16      7       0.1356741       37.91834
2011    17      0       0.1501526       41.15374
2011    17      1       0.173991        46.50983
2011    17      2       0.191084        50.6011
2011    17      3       0.1837924       49.28896
2011    17      4       0.1918031       51.15432
2011    17      5       0.1992396       52.74511
2011    17      6       0.1909311       50.90166
2011    17      7       0.1912807       50.90685
2011    18      0       0.1919563       50.99546
2011    18      1       0.2031616       53.54718
2011    18      2       0.1803362       48.60589
2011    18      3       0.1717106       46.59712
2011    18      4       0.1660156       45.1859
2011    18      5       0.1623647       44.09944
2011    18      6       0.1886495       49.48333
2011    18      7       0.2407451       59.86468
2011    19      0       0.2454848       60.98174
2011    19      1       0.2511671       62.55325
2011    19      2       0.433347        96.11948
2011    19      3       0.4916956       105.9491
2011    19      4       0.5270743       112.3354
2011    19      5       0.597535        123.812
2011    19      6       0.747601        144.5141
2011    19      7       0.7242843       140.6708
2011    20      0       0.7242003       140.1117
2011    20      1       0.7294929       140.0129
2011    20      2       0.9804526       167.407
2011    20      3       1.096782        178.112
2011    20      4       1.170595        185.0874
2011    20      5       0.9083819       161.8901
2011    20      6       1.027539        175.3921
2011    20      7       0.6306846       128.7231
2011    21      0       0.3086462       75.09248
2011    21      1       0.5759903       121.064
2011    21      2       0.5864287       123.1511
2011    21      3       0.6611181       134.0966
2011    21      4       0.5432207       116.387
2011    21      5       0.3925417       90.89964
2011    21      6       0.4106735       93.60359
2011    21      7       0.4265947       95.86468
2011    22      0       0.3275673       77.4953
2011    22      1       0.5074781       109.7203
2011    22      2       0.6256192       128.4739
2011    22      3       0.4368759       97.95119
2011    22      4       0.2498933       63.13974
2011    22      5       0.188434        50.06975
2011    22      6       0.1888742       50.0441
2011    22      7       0.2175261       56.147
2011    23      0       0.2420076       61.28658
2011    23      1       0.291551        71.27813
2011    23      2       0.3593743       84.5121
2011    23      3       0.4331822       97.91342
2011    23      4       0.4173117       95.22058
2011    23      5       0.3673945       86.22939
2011    23      6       0.3242025       78.06155
2011    23      7       0.2549381       63.97096
2011    24      0       0.2284601       58.44421
2011    24      1       0.1806166       47.55264
2011    24      2       0.1910385       49.8894
2011    24      3       0.2508399       62.72588
2011    24      4       0.2814637       69.07291
2011    24      5       0.2970865       72.26039
2011    24      6       0.3108888       75.08697
2011    24      7       0.3105859       75.01717
2011    25      0       0.2880554       70.735
2011    25      1       0.3918644       90.91535
2011    25      2       0.420319        96.27509
2011    25      3       0.3885387       90.79271
2011    25      4       0.2942758       72.81844
2011    25      5       0.2366987       60.85491
2011    25      6       0.2102592       55.0864
2011    25      7       0.2171056       56.52332
2011    26      0       0.2027123       53.38531
2011    26      1       0.2064465       54.26861
2011    26      2       0.2491363       63.28632
2011    26      3       0.245928        62.45968
2011    26      4       0.2027777       53.35736
2011    26      5       0.1694856       46.08734
2011    26      6       0.1419169       39.88589
2011    26      7       0.09667846      29.21002
2011    27      0       0.08325466      25.93922
2011    27      1       0.177664        48.18627
2011    27      2       0.4201827       96.34282
2011    27      3       0.3825479       89.26838
2011    27      4       0.3365326       80.53252
2011    27      5       0.2944728       72.43695
2011    27      6       0.2524822       64.35088
2011    27      7       0.211699        55.90129
2011    28      0       0.1685681       46.27741
2011    28      1       0.2489723       63.7885
2011    28      2       0.3979553       92.97062
2011    28      3       0.3182662       78.10122
2011    28      4       0.205376        54.6453
2011    28      5       0.1188314       34.72521
2011    28      6       0.1066767       31.8231
2011    28      7       0.1080389       32.18106
2011    29      0       0.1070062       31.91275
2011    29      1       0.1418963       40.29416
2011    29      2       0.2425601       62.67567
2011    29      3       0.2360002       61.31637
2011    29      4       0.1671476       46.05414
2011    29      5       0.136421        38.8552
2011    29      6       0.1593697       44.16267
2011    29      7       0.2659023       67.09563
2011    30      0       0.254419        64.7726
2011    30      1       0.332703        80.59499
2011    30      2       0.6219651       129.2074
2011    30      3       0.4805028       107.1254
2011    30      4       0.5494496       118.4024
2011    30      5       0.535931        115.9534
2011    30      6       0.5749369       121.8443
2011    30      7       0.5334313       114.9347
2012    1       0       0.611793        127.6348
2012    1       1       0.5738346       122.1718
2012    1       2       0.8615481       159.5488
2012    1       3       0.6796398       136.8739
2012    1       4       0.5972685       125.5949
2012    1       5       0.4287677       98.31274
2012    1       6       0.2328329       60.30732
2012    1       7       0.1490719       41.82634
2012    2       0       0.152442        42.76103
2012    2       1       0.2026042       54.35889
2012    2       2       0.1704469       46.85436
2012    2       3       0.216663        57.04598
2012    2       4       0.2474228       63.37251
2012    2       5       0.5297755       114.3002
2012    2       6       0.7687856       149.516
2012    2       7       0.9287793       167.895
2012    3       0       0.7890071       152.3005
2012    3       1       0.8145142       155.853
2012    3       2       0.9152923       167.2982
2012    3       3       0.7881598       151.638
2012    3       4       0.6551711       133.5619
2012    3       5       0.6557385       133.9509
2012    3       6       0.6810353       138.1785
2012    3       7       0.6327061       131.6684
2012    4       0       0.5292687       116.3278
2012    4       1       0.4561072       104.4823
2012    4       2       0.425716        99.42044
2012    4       3       0.3875808       92.59367
2012    4       4       0.3708394       89.35601
2012    4       5       0.338757        83.21521
2012    4       6       0.3133679       78.31251
2012    4       7       0.3035121       76.47508
2012    5       0       0.3037415       76.61953
2012    5       1       0.3175039       79.35637
2012    5       2       0.3126486       78.41153
2012    5       3       0.30364         76.58268
2012    5       4       0.3011576       75.98118
2012    5       5       0.2972883       75.07406
2012    5       6       0.2791916       71.24248
2012    5       7       0.3096685       77.14943
2012    6       0       0.3349415       81.76145
2012    6       1       0.3979234       93.35992
2012    6       2       0.7313574       145.5124
2012    6       3       0.6807478       137.6295
2012    6       4       0.8563372       158.7564
2012    6       5       1.462261        213.9836
2012    6       6       0.04122556      15.30675
2012    6       7       0.04696554      16.61778
2012    7       0       0.07837946      24.49892
2012    7       1       0.07525054      23.96303
2012    7       2       0.09015197      27.4478
2012    7       3       0.1208424       34.73714
2012    7       4       0.1221102       35.16416
2012    7       5       0.1391469       38.82007
2012    7       6       0.1188695       33.86144
2012    7       7       0.1238984       34.75279
2012    8       0       0.1245361       34.77245
2012    8       1       0.1322227       36.83122
2012    8       2       0.1850228       48.623
2012    8       3       0.1598498       43.66866
2012    8       4       0.1000238       29.96781
2012    8       5       0.1464475       41.1077
2012    8       6       0.1765026       47.92956
2012    8       7       0.1756801       47.58095
2012    9       0       0.2610567       65.64059
2012    9       1       0.3022563       73.73112
2012    9       2       0.4964284       107.2928
2012    9       3       0.3849397       86.79099
2012    9       4       0.2256417       56.76115
2012    9       5       0.1448965       39.50139
2012    9       6       0.09832109      28.95212
2012    9       7       0.088289        26.68077
2012    10      0       0.1211909       34.48974
2012    10      1       0.1244771       34.78337
2012    10      2       0.1682761       44.5052
2012    10      3       0.1809454       47.41505
2012    10      4       0.1963411       50.99525
2012    10      5       0.2097573       53.77247
2012    10      6       0.1996591       51.82489
2012    10      7       0.1758653       46.94314
2012    11      0       0.1611657       43.85809
2012    11      1       0.156955        43.09496
2012    11      2       0.1879165       50.22102
2012    11      3       0.1871101       50.06782
2012    11      4       0.1711013       46.42845
2012    11      5       0.1316776       37.44556
2012    11      6       0.1391748       39.02182
2012    11      7       0.1747506       46.79246
2012    12      0       0.2305119       58.9039
2012    12      1       0.2727843       67.84424
2012    12      2       0.3032638       74.08576
2012    12      3       0.3260735       78.62481
2012    12      4       0.3297676       79.48803
2012    12      5       0.3200166       77.73466
2012    12      6       0.2989958       73.57455
2012    12      7       0.2640849       66.59432
2012    13      0       0.239375        61.49842
2012    13      1       0.2001023       53.17613
2012    13      2       0.1606709       44.34959
2012    13      3       0.1439717       40.40126
2012    13      4       0.1286139       36.87658
2012    13      5       0.125613        35.85577
2012    13      6       0.1423141       39.28942
2012    13      7       0.149066        40.64967
2012    14      0       0.1694287       44.69554
2012    14      1       0.4278408       95.10287
2012    14      2       0.7797661       146.5094
2012    14      3       0.7225267       139.2778
2012    14      4       0.5361073       113.4342
2012    14      5       0.3307595       79.36877
2012    14      6       0.3775438       88.69342
2012    14      7       0.2970452       73.22137
2012    15      0       0.2706324       67.55252
2012    15      1       0.4046515       94.2895
2012    15      2       0.5111057       111.5418
2012    15      3       0.3923979       90.96785
2012    15      4       0.3170059       76.63964
2012    15      5       0.2669724       66.68404
2012    15      6       0.2730481       68.09631
2012    15      7       0.3587818       84.66686
2012    16      0       0.4413368       99.35658
2012    16      1       0.4525991       101.4792
2012    16      2       0.5306424       114.2468
2012    16      3       0.5855865       122.5704
2012    16      4       0.494509        108.6875
2012    16      5       0.4548995       102.2692
2012    16      6       0.4390653       99.448
2012    16      7       0.4260957       96.88638
2012    17      0       0.3641601       85.81399
2012    17      1       0.2840311       70.24814
2012    17      2       0.5178907       112.2995
2012    17      3       0.5472015       117.1856
2012    17      4       0.7188834       140.3709
2012    17      5       0.9165494       163.5082
2012    17      6       1.086548        180.3371
2012    17      7       0.9981135       172.2154
2012    18      0       1.225284        193.5317
2012    18      1       1.178692        190.3991
2012    18      2       0.9177543       164.5721
2012    18      3       1.2844          197.4193
2012    18      4       1.249035        195.6323
2012    18      5       1.232714        194.678
2012    18      6       1.240071        193.7324
2012    18      7       1.217204        191.4997
2012    19      0       1.355155        201.8012
2012    19      1       1.299534        197.4686
2012    19      2       0.9573523       168.6528
2012    19      3       0.8601639       157.7611
2012    19      4       0.8163632       151.8402
2012    19      5       0.7300652       142.1808
2012    19      6       0.7799473       148.7588
2012    19      7       0.8000981       151.545
2012    20      0       0.6635601       134.0313
2012    20      1       0.8174512       154.3976
2012    20      2       0.7932204       151.7423
2012    20      3       0.6723636       135.9586
2012    20      4       0.6161877       127.6915
2012    20      5       0.7315193       143.3551
2012    20      6       0.856271        158.2131
2012    20      7       0.5892093       123.3416
2012    21      0       0.5575437       118.7696
2012    21      1       1.135844        186.7289
2012    21      2       0.8319638       155.6147
2012    21      3       1.01917         175.9641
2012    21      4       0.6897608       137.4477
2012    21      5       0.6724541       135.1206
2012    21      6       0.7872196       148.9096
2012    21      7       0.9688668       169.8621
2012    22      0       0.7641069       145.4922
2012    22      1       0.7099753       139.2048
2012    22      2       0.6283901       130.0219
2012    22      3       0.4782806       106.5644
2012    22      4       1.131124        186.7507
2012    22      5       0.8774856       161.6787
2012    22      6       0.4597812       103.5101
2012    22      7       0.9199021       164.8162
2012    23      0       0.8643517       157.6162
2012    23      1       0.6526574       131.8702
2012    23      2       0.4306652       98.14959
2012    23      3       0.423776        96.36869
2012    23      4       0.5938166       123.2765
2012    23      5       0.7234227       140.3133
2012    23      6       0.5013782       107.8331
2012    23      7       0.4654579       101.1664
2012    24      0       0.4049247       90.37861
2012    24      1       0.4533396       97.82542
2012    24      2       0.5783546       117.5231
2012    24      3       0.5390592       112.1175
2012    24      4       0.4908812       104.5712
2012    24      5       0.5302933       110.637
2012    24      6       0.474086        102.4592
2012    24      7       0.5735057       118.2248
2012    25      0       0.477659        103.0976
2012    25      1       0.6174401       125.5866
2012    25      2       0.7462848       143.8866
2012    25      3       0.5530636       117.0327
2012    25      4       0.5026275       109.7486
2012    25      5       0.270099        67.24292
2012    25      6       0.2619696       65.03676
2012    25      7       0.259904        64.20002
2012    26      0       0.3243273       76.71496
2012    26      1       0.3804264       87.39897
2012    26      2       0.4087258       92.36579
2012    26      3       0.4455722       98.73643
2012    26      4       0.4401384       97.83394
2012    26      5       0.4166302       94.15911
2012    26      6       0.3842174       88.86976
2012    26      7       0.3378843       80.60506
2012    27      0       0.2827157       69.74687
2012    27      1       0.2202512       56.83104
2012    27      2       0.1587431       43.62703
2012    27      3       0.1301674       37.21073
2012    27      4       0.1443938       40.36163
2012    27      5       0.165877        45.17597
2012    27      6       0.149253        41.33653
2012    27      7       0.1400384       39.27824
2012    28      0       0.1474351       41.07912
2012    28      1       0.1855795       49.83106
2012    28      2       0.1700671       46.35512
2012    28      3       0.1701835       46.00659
2012    28      4       0.1777898       48.29594
2012    28      5       0.2311811       59.74827
2012    28      6       0.141234        38.61289
2012    28      7       0.1060386       30.98823
2012    29      0       0.09670143      28.88169
2012    29      1       0.1377525       38.03396
2012    29      2       0.1693323       45.07946
2012    29      3       0.1793171       47.36003
2012    29      4       0.1722738       45.89186
2012    29      5       0.1615869       43.83281
2012    29      6       0.1626505       44.20543
2012    29      7       0.1668987       45.19105
2012    30      0       0.1738953       46.58882
2012    30      1       0.18081         47.96461
2012    30      2       0.1986251       51.92161
2012    30      3       0.2025032       52.97645
2012    30      4       0.2355766       59.04971
2012    30      5       0.2605769       63.64356
2012    30      6       0.1561624       41.95248
2012    30      7       0.1801263       47.15957
2013    1       0       0.2150803       56.26563
2013    1       1       0.2356098       60.36751
2013    1       2       0.2474277       63.11493
2013    1       3       0.2476631       63.21198
2013    1       4       0.2139403       56.03499
2013    1       5       0.1832839       49.10527
2013    1       6       0.2656733       66.0985
2013    1       7       0.5603985       117.7687
2013    2       0       0.5393541       115.7933
2013    2       1       0.4522927       102.1984
2013    2       2       0.6082579       126.9707
2013    2       3       0.514685        112.4904
2013    2       4       0.6183636       128.3968
2013    2       5       0.4063714       93.78838
2013    2       6       0.2324096       59.221
2013    2       7       0.2048906       53.17364
2013    3       0       0.2048253       53.36067
2013    3       1       0.4187106       95.7782
2013    3       2       0.5990022       125.0131
2013    3       3       0.6357592       130.3023
2013    3       4       0.5131779       112.9117
2013    3       5       0.3745233       88.0202
2013    3       6       0.3937747       91.34145
2013    3       7       0.3593916       84.66015
2013    4       0       0.3794641       88.36231
2013    4       1       0.513877        111.7021
2013    4       2       0.476823        105.9247
2013    4       3       0.4972654       109.419
2013    4       4       0.4634903       103.8307
2013    4       5       0.4290493       97.57547
2013    4       6       0.3816859       89.09795
2013    4       7       0.3308972       79.55126
2013    5       0       0.4304274       97.78294
2013    5       1       0.5923591       123.9567
2013    5       2       0.5820731       122.2513
2013    5       3       0.6669401       134.3624
2013    5       4       0.6240093       128.1886
2013    5       5       0.6014522       124.6693
2013    5       6       0.6105484       126.0475
2013    5       7       0.5716495       120.2739
2013    6       0       0.5891144       122.1316
2013    6       1       1.073396        178.707
2013    6       2       1.011953        172.583
2013    6       3       0.9785525       169.6937
2013    6       4       0.8389057       154.1801
2013    6       5       0.6637221       132.4318
2013    6       6       0.5545443       117.1852
2013    6       7       0.4198929       95.44468
2013    7       0       0.3584055       84.2465
2013    7       1       0.702603        138.0428
2013    7       2       0.7076604       139.1609
2013    7       3       0.5718216       120.3426
2013    7       4       0.5235885       112.7644
2013    7       5       0.4827444       105.9812
2013    7       6       0.5212248       112.0964
2013    7       7       0.5892002       122.5151
2013    8       0       0.6358512       129.1332
2013    8       1       0.8154071       152.2734
2013    8       2       0.8464306       155.6573
2013    8       3       0.7456945       143.8436
2013    8       4       0.6216369       127.39
2013    8       5       0.5766469       120.739
2013    8       6       0.5201882       112.2671
2013    8       7       0.4561005       101.9447
2013    9       0       0.4490993       100.7226
2013    9       1       0.4888765       107.4363
2013    9       2       0.5249135       113.2365
2013    9       3       0.4986201       108.9596
2013    9       4       0.4372673       98.97112
2013    9       5       0.4228427       96.36151
2013    9       6       0.3767553       88.27274
2013    9       7       0.3579565       84.82323
2013    10      0       0.351284        83.4731
2013    10      1       0.4240183       96.45789
2013    10      2       0.4632904       102.9456
2013    10      3       0.3381196       80.33545
2013    10      4       0.3445769       81.72775
2013    10      5       0.3459708       82.04634
2013    10      6       0.4741798       104.794
2013    10      7       0.6494924       131.6288
2013    11      0       0.6074231       125.7669
2013    11      1       0.7161146       140.7712
2013    11      2       0.9114262       163.9515
2013    11      3       0.8070184       151.8577
2013    11      4       0.7584294       146.202
2013    11      5       0.8512401       157.224
2013    11      6       0.7260359       141.8076
2013    11      7       0.6493042       131.3889
2013    12      0       0.6445685       130.749
2013    12      1       0.6654011       133.5674
2013    12      2       0.6271279       128.311
2013    12      3       0.5544602       118.0253
2013    12      4       0.5085361       110.9395
2013    12      5       0.4567366       102.4646
2013    12      6       0.3848732       90.22922
2013    12      7       0.3285443       79.80713
2013    13      0       0.30059         74.06141
2013    13      1       0.3789049       88.66416
2013    13      2       0.424113        96.15751
2013    13      3       0.4869219       106.3164
2013    13      4       0.8351062       154.2878
2013    13      5       0.7315063       141.9178
2013    13      6       0.6096257       126.3629
2013    13      7       0.6044173       125.8939
2013    14      0       0.6619601       133.5978
2013    14      1       0.7177873       140.6845
2013    14      2       0.7264681       142.2688
2013    14      3       0.6582657       133.3648
2013    14      4       0.8024856       151.3092
2013    14      5       0.9116391       163.2748
2013    14      6       0.7911447       150.377
2013    14      7       0.5161455       111.5769
2013    15      0       0.5646869       119.7506
2013    15      1       0.8276941       154.2233
2013    15      2       0.7016683       138.4486
2013    15      3       0.5864958       122.7633
2013    15      4       0.5088651       110.802
2013    15      5       0.4570812       102.1813
2013    15      6       0.4797654       105.8558
2013    15      7       0.4728478       104.7962
2013    16      0       0.6091408       126.2785
2013    16      1       0.6825297       136.8523
2013    16      2       0.6574118       133.5936
2013    16      3       0.4478589       101.293
2013    16      4       0.46169         103.5281
2013    16      5       0.2827142       70.43828
2013    16      6       0.2206702       57.48491
2013    16      7       0.1844242       49.49624
2013    17      0       0.4240927       96.79856
2013    17      1       0.6870698       136.8702
2013    17      2       0.5106402       110.7728
2013    17      3       0.5268236       112.9495
2013    17      4       0.6531797       131.0886
2013    17      5       0.6568925       131.3458
2013    17      6       0.5111144       109.8573
2013    17      7       0.4197581       95.12538
2013    18      0       0.3307527       79.15457
2013    18      1       0.6083014       125.4681
2013    18      2       0.5683893       119.436
2013    18      3       0.6244311       126.6856
2013    18      4       0.3956203       90.73564
2013    18      5       0.2347077       59.40106
2013    18      6       0.2941212       71.3549
2013    18      7       0.3469146       81.44238
2013    19      0       0.3900145       89.54634
2013    19      1       0.3328784       78.94709
2013    19      2       0.306899        73.67279
2013    19      3       0.3864641       88.38493
2013    19      4       0.3281092       77.52762
2013    19      5       0.3986992       90.52496
2013    19      6       0.3974354       90.53947
2013    19      7       0.4371393       96.75526
2013    20      0       0.2378386       60.26404
2013    20      1       0.1787498       47.85893
2013    20      2       0.3218321       77.22013
2013    20      3       0.1604357       43.72713
2013    20      4       0.1080524       31.55301
2013    20      5       0.131259        37.07329
2013    20      6       0.1212146       34.68092
2013    20      7       0.08859162      26.77093
2013    21      0       0.1136978       32.88531
2013    21      1       0.1504324       41.50611
2013    21      2       0.3731348       86.87537
2013    21      3       0.6323314       128.369
2013    21      4       1.196637        188.3044
2013    21      5       1.0476          173.73
2013    21      6       0.975803        168.1712
2013    21      7       0.612249        125.1439
2013    22      0       0.5985254       123.8231
2013    22      1       0.4517253       101.0344
2013    22      2       0.2767232       68.81073
2013    22      3       0.2264075       58.56971
2013    22      4       0.2472609       62.55966
2013    22      5       0.4380911       98.75735
2013    22      6       0.4849285       106.835
2013    22      7       0.4147777       95.75337
2013    23      0       0.1377397       39.42939
2013    23      1       0.11054         32.53557
2013    23      2       0.06262891      20.64893
2013    23      3       0.08535326      26.00916
2013    23      4       0.1025096       29.88965
2013    23      5       0.09958689      29.30305
2013    23      6       0.09388354      28.10003
2013    23      7       0.0922838       27.64594
2013    24      0       0.1086037       31.52117
2013    24      1       0.1699349       45.59352
2013    24      2       0.2259821       57.33586
2013    24      3       0.2449909       60.64724
2013    24      4       0.3020338       72.07059
2013    24      5       0.2827492       69.4031
2013    24      6       0.2261688       58.23091
2013    24      7       0.2087634       54.03831
2013    25      0       0.1488757       40.47326
2013    25      1       0.222797        56.58421
2013    25      2       0.2745472       67.3292
2013    25      3       0.332055        78.77318
2013    25      4       0.4129349       93.8278
2013    25      5       0.3889214       89.21459
2013    25      6       0.3636276       84.41471
2013    25      7       0.3265123       77.94155
2013    26      0       0.4171668       95.47866
2013    26      1       0.4370904       99.07746
2013    26      2       0.4844337       107.1988
2013    26      3       0.3807825       89.37833
2013    26      4       0.2699091       68.05155
2013    26      5       0.2125229       56.00544
2013    26      6       0.1774834       48.32136
2013    26      7       0.1945941       52.12353
2013    27      0       0.2215093       57.7724
2013    27      1       0.2051005       53.84407
2013    27      2       0.1959946       51.53153
2013    27      3       0.1758793       47.34063
2013    27      4       0.1705071       45.67451
2013    27      5       0.3086085       74.98409
2013    27      6       0.6127102       126.9198
2013    27      7       0.5389011       115.9745
2013    28      0       0.4578201       102.8037
2013    28      1       0.5684195       120.6827
2013    28      2       0.5679795       120.7205
2013    28      3       0.5941955       124.9597
2013    28      4       0.5609618       119.9561
2013    28      5       0.4581524       103.5734
2013    28      6       0.474156        104.9056
2013    28      7       0.8184559       153.4318
2013    29      0       1.043268        177.1952
2013    29      1       0.9284761       165.6362
2013    29      2       1.066313        177.8351
2013    29      3       0.8165696       151.6264
2013    29      4       0.6464898       130.4577
2013    29      5       0.724978        140.9187
2013    29      6       0.7027174       139.3659
2013    29      7       0.4363792       98.7859
2013    30      0       0.5504641       116.4345
2013    30      1       0.6694225       133.9604
2013    30      2       0.7513188       144.3483
2013    30      3       0.7099139       139.0296
2013    30      4       0.5699228       119.838
2013    30      5       0.4534154       101.8142
2013    30      6       0.4369264       98.86376
2013    30      7       0.4404611       99.43394
2014    1       0       0.6947197       137.1608
2014    1       1       0.8950111       161.5651
2014    1       2       0.796586        151.1564
2014    1       3       0.6701847       135.7895
2014    1       4       0.5878124       124.4286
2014    1       5       0.5683384       121.4372
2014    1       6       0.5207278       114.2093
2014    1       7       0.4602933       104.4786
2014    2       0       0.4467992       101.9745
2014    2       1       0.485224        108.2644
2014    2       2       0.6923529       138.7671
2014    2       3       0.916045        164.8842
2014    2       4       0.7677688       147.9086
2014    2       5       0.8564994       158.9934
2014    2       6       0.944179        168.2517
2014    2       7       0.8861982       162.3542
2014    3       0       1.147067        188.153
2014    3       1       1.378855        206.2726
2014    3       2       1.295519        199.1562
2014    3       3       1.251909        195.4069
2014    3       4       0.9918382       172.7986
2014    3       5       1.388507        206.0483
2014    3       6       1.363713        203.7358
2014    3       7       1.5725          217.5701
2014    4       0       1.623389        221.3434
2014    4       1       1.460566        211.9585
2014    4       2       1.359685        205.2834
2014    4       3       1.191539        192.4442
2014    4       4       1.211469        193.724
2014    4       5       1.309668        201.3523
2014    4       6       1.183796        191.3722
2014    4       7       0.9120123       165.5901
2014    5       0       0.7641326       148.1977
2014    5       1       0.8037211       152.9444
2014    5       2       0.9171495       165.9346
2014    5       3       0.7250057       143.0891
2014    5       4       0.6643675       135.376
2014    5       5       0.6345162       131.1178
2014    5       6       0.6410211       132.0627
2014    5       7       0.5840422       123.6621
2014    6       0       0.4445244       101.3657
2014    6       1       0.5864671       124.2534
2014    6       2       0.4386934       100.6068
2014    6       3       0.3510419       85.53184
2014    6       4       0.2987433       75.33818
2014    6       5       0.3164317       78.86737
2014    6       6       0.3268274       80.82081
2014    6       7       0.1950504       52.82271
2014    7       0       0.2055535       55.11762
2014    7       1       0.2791917       70.92505
2014    7       2       0.4750138       107.3795
2014    7       3       0.6697436       135.1944
2014    7       4       0.4681066       101.5093
2014    7       5       0.342972        80.75016
2014    7       6       0.4084051       92.6742
2014    7       7       0.5148472       110.7594
2014    8       0       0.5896378       122.6508
2014    8       1       0.7202465       140.5923
2014    8       2       0.7069286       139.376
2014    8       3       0.9097152       163.6727
2014    8       4       1.19694         190.6814
2014    8       5       1.361541        203.4433
2014    8       6       1.372184        204.5024
2014    8       7       1.239342        194.5572
2014    9       0       1.331124        201.4421
2014    9       1       1.347778        202.5066
2014    9       2       1.348565        202.5376
2014    9       3       1.426151        208.1724
2014    9       4       1.577678        218.0918
2014    9       5       1.559814        217.0992
2014    9       6       1.558595        216.9042
2014    9       7       1.379706        205.0804
2014    10      0       1.400403        206.2203
2014    10      1       1.477037        211.5125
2014    10      2       1.591           219.3758
2014    10      3       1.393714        206.8102
2014    10      4       1.453231        210.0585
2014    10      5       1.026711        176.131
2014    10      6       0.9609634       169.676
2014    10      7       1.448133        210.2057
2014    11      0       1.397759        207.9448
2014    11      1       1.102362        184.648
2014    11      2       1.157541        187.3634
2014    11      3       0.811472        152.9554
2014    11      4       0.4696248       104.2347
2014    11      5       0.3759524       88.32914
2014    11      6       0.3519054       84.19128
2014    11      7       0.3520604       84.07652
2014    12      0       0.3690657       87.17911
2014    12      1       0.4439186       100.3965
2014    12      2       0.6584565       133.4057
2014    12      3       0.5547578       118.407
2014    12      4       0.3765845       88.42544
2014    12      5       0.4272739       97.36092
2014    12      6       0.4719347       104.8792
2014    12      7       0.5552254       118.3143
2014    13      0       0.3789553       88.92687
2014    13      1       0.3779675       88.74361
2014    13      2       0.5599499       119.3434
2014    13      3       0.337192        81.27126
2014    13      4       0.1325762       37.63884
2014    13      5       0.09919819      29.48997
2014    13      6       0.09423964      28.13862
2014    13      7       0.1177628       33.17683
2014    14      0       0.1230947       34.46276
2014    14      1       0.1350196       37.25406
2014    14      2       0.2125203       54.81837
2014    14      3       0.2837797       69.37106
2014    14      4       0.2680136       66.17756
2014    14      5       0.2326182       59.00665
2014    14      6       0.2056803       53.34441
2014    14      7       0.1985789       51.84902
2014    15      0       0.2125949       55.05993
2014    15      1       0.417492        95.14288
2014    15      2       0.5420056       115.8672
2014    15      3       0.4796518       106.1009
2014    15      4       0.4156664       95.2065
2014    15      5       0.3695074       86.79405
2014    15      6       0.286555        70.94555
2014    15      7       0.2458288       62.84405
2014    16      0       0.2467538       63.16177
2014    16      1       0.4723305       105.4215
2014    16      2       0.4320344       99.50341
2014    16      3       0.2666736       67.01301
2014    16      4       0.3135185       75.66894
2014    16      5       0.3219844       77.15911
2014    16      6       0.2822945       69.37862
2014    16      7       0.2817348       69.26587
2014    17      0       0.2675684       66.7254
2014    17      1       0.3331823       80.20267
2014    17      2       0.4606532       103.5858
2014    17      3       0.2816609       70.59651
2014    17      4       0.2353235       61.1025
2014    17      5       0.2993445       74.37987
2014    17      6       0.3334005       81.02207
2014    17      7       0.2598483       66.65175
2014    18      0       0.291982        73.58594
2014    18      1       0.7194631       144.4296
2014    18      2       0.6300045       130.0065
2014    18      3       0.9292399       168.1644
2014    18      4       0.1585799       44.01849
2014    18      5       0.06325859      20.71484
2014    18      6       0.0941708       28.23941
2014    18      7       0.09648314      28.92892
2014    19      0       0.09796759      29.19959
2014    19      1       0.1283859       36.21407
2014    19      2       0.1674328       45.16317
2014    19      3       0.1676539       45.33943
2014    19      4       0.1460572       40.61166
2014    19      5       0.1017896       30.54865
2014    19      6       0.1238191       35.6371
2014    19      7       0.1934254       50.97469
2014    20      0       0.1913749       50.37537
2014    20      1       0.1935624       50.39988
2014    20      2       0.1474468       40.4678
2014    20      3       0.1379815       38.69671
2014    20      4       0.1548837       42.59823
2014    20      5       0.2008277       52.77417
2014    20      6       0.239403        61.00525
2014    20      7       0.2464307       62.44754
2014    21      0       0.3258591       77.35765
2014    21      1       0.5872624       121.3321
2014    21      2       0.6711493       134.1378
2014    21      3       0.797412        150.4008
2014    21      4       0.6875322       136.9682
2014    21      5       0.7385272       143.6234
2014    21      6       0.6627201       133.735
2014    21      7       0.6215131       128.1339
2014    22      0       0.4996397       109.4543
2014    22      1       0.372529        87.34022
2014    22      2       0.5563221       118.0815
2014    22      3       0.5933042       123.9223
2014    22      4       0.5861164       122.6518
2014    22      5       0.7434911       144.0002
2014    22      6       0.8803871       160.0286
2014    22      7       0.6960185       137.2525
2014    23      0       0.6585409       132.0434
2014    23      1       0.6113323       125.5708
2014    23      2       0.6045379       124.4065
2014    23      3       0.6114382       125.3334
2014    23      4       0.5640573       118.2745
2014    23      5       0.6152035       125.7742
2014    23      6       0.9219547       164.5333
2014    23      7       0.7518266       144.8608
2014    24      0       0.257338        64.85296
2014    24      1       0.1701515       46.51025
2014    24      2       0.3297841       79.88692
2014    24      3       0.07460113      23.60574
2014    24      4       0.0668275       21.6041
2014    24      5       0.07165509      22.75414
2014    24      6       0.06801676      21.85515
2014    24      7       0.0679524       21.87206
2014    25      0       0.08340484      25.87161
2014    25      1       0.1397012       39.52785
2014    25      2       0.2068686       54.65157
2014    25      3       0.3842426       89.72022
2014    25      4       0.428178        97.15296
2014    25      5       0.4620497       101.5778
2014    25      6       0.4219558       95.00278
2014    25      7       0.5619043       116.7961
2014    26      0       0.3315452       80.02259
2014    26      1       0.485587        109.0114
2014    26      2       0.4231716       98.74558
2014    26      3       0.4221822       99.20121
2014    26      4       0.4387877       102.3167
2014    26      5       0.1992589       53.90158
2014    26      6       0.1220559       35.30445
2014    26      7       0.1197179       34.62187
2014    27      0       0.1020292       30.36852
2014    27      1       0.1023118       30.64112
2014    27      2       0.1851703       50.72456
2014    27      3       0.1448962       41.10179
2014    27      4       0.1093826       32.58561
2014    27      5       0.09939346      30.12667
2014    27      6       0.08996409      27.83836
2014    27      7       0.09202446      28.45427
2014    28      0       0.09008283      27.86463
2014    28      1       0.0998083       29.93629
2014    28      2       0.1287515       36.41158
2014    28      3       0.2163426       55.47527
2014    28      4       0.4161813       94.49444
2014    28      5       0.4703949       104.7581
2014    28      6       0.4816031       106.8895
2014    28      7       0.5043781       110.5424
2014    29      0       0.465309        103.5884
2014    29      1       0.8599262       159.5011
2014    29      2       0.7478503       144.3114
2014    29      3       0.9500529       167.9421
2014    29      4       1.502497        212.7706
2014    29      5       0.9493985       168.7237
2014    29      6       0.201779        53.70859
2014    29      7       0.2757986       69.06347
2014    30      0       0.226134        57.93968
2014    30      1       0.2445924       61.8689
2014    30      2       0.1125668       32.76378
2014    30      3       0.1007464       29.78432
2014    30      4       0.1088563       31.55895
2014    30      5       0.1143572       32.80222
2014    30      6       0.126822        35.73334
2014    30      7       0.1328996       37.25051
2015    1       0       0.4209515       97.63721
2015    1       1       0.5544356       119.4092
2015    1       2       0.645422        132.5033
2015    1       3       0.6217315       130.0051
2015    1       4       0.7958438       153.1488
2015    1       5       0.8695796       161.1856
2015    1       6       1.368963        204.9674
2015    1       7       1.0301          176.8914
2015    2       0       0.8802794       160.875
2015    2       1       0.5498431       118.1624
2015    2       2       0.2822114       70.85605
2015    2       3       0.1674102       46.10346
2015    2       4       0.111696        33.03464
2015    2       5       0.1080002       32.11529
2015    2       6       0.1135434       33.4601
2015    2       7       0.1232399       35.78451
2015    3       0       0.1415576       40.09219
2015    3       1       0.2580632       65.86478
2015    3       2       0.4081999       94.8785
2015    3       3       0.4343182       99.4362
2015    3       4       0.393242        91.9945
2015    3       5       0.3862795       90.49323
2015    3       6       0.4456839       100.7266
2015    3       7       0.5003454       109.5201
2015    4       0       0.6775987       135.6302
2015    4       1       0.9216099       164.4431
2015    4       2       1.166884        187.461
2015    4       3       1.091511        181.0589
2015    4       4       0.8840006       159.9007
2015    4       5       0.7962925       149.8205
2015    4       6       0.6962799       138.0099
2015    4       7       0.5812367       122.2751
2015    5       0       0.5264482       114.079
2015    5       1       0.9142331       164.9272
2015    5       2       0.7018986       139.441
2015    5       3       0.3388234       81.21671
2015    5       4       0.3568881       84.53132
2015    5       5       0.4263561       97.02776
2015    5       6       0.4439482       100.0933
2015    5       7       0.9393443       166.7703
2015    6       0       0.7233699       140.6944
2015    6       1       1.059479        178.025
2015    6       2       1.11259         182.8189
2015    6       3       0.9505122       166.469
2015    6       4       0.7840468       147.0833
2015    6       5       0.5395509       114.1175
2015    6       6       0.5975752       123.3199
2015    6       7       0.7004728       137.2698
2015    7       0       0.6945434       135.6215
2015    7       1       0.6729314       132.3595
2015    7       2       0.6142006       123.8147
2015    7       3       0.9723532       167.7132
2015    7       4       0.7263972       140.1472
2015    7       5       0.9008309       160.9621
2015    7       6       0.5384365       113.9689
2015    7       7       0.4224161       95.81555
2015    8       0       0.4981979       108.2318
2015    8       1       0.5755637       120.2954
2015    8       2       0.4367445       98.81837
2015    8       3       0.3761661       88.47859
2015    8       4       0.1477467       41.0359
2015    8       5       0.1356947       37.9238
2015    8       6       0.1340497       37.66499
2015    8       7       0.1373946       38.59669
2015    9       0       0.1555758       42.66528
2015    9       1       0.18953         50.1289
2015    9       2       0.3110031       75.52231
2015    9       3       0.3146799       76.18888
2015    9       4       0.2751271       68.39123
2015    9       5       0.2903486       71.65258
2015    9       6       0.3303241       79.53535
2015    9       7       0.3283184       79.30092
2015    10      0       0.3326532       80.18868
2015    10      1       0.3676773       86.68833
2015    10      2       0.4203138       96.16503
2015    10      3       0.4195691       96.03272
2015    10      4       0.3858721       90.0662
2015    10      5       0.3184752       77.3496
2015    10      6       0.2864721       70.81322
2015    10      7       0.2575976       64.90685
2015    11      0       0.2637324       66.28188
2015    11      1       0.3844147       89.71412
2015    11      2       0.5505484       117.6064
2015    11      3       0.3699072       86.91554
2015    11      4       0.3247819       78.0224
2015    11      5       0.4346866       97.29309
2015    11      6       0.4845033       105.4014
2015    11      7       0.6099994       124.6133
2015    12      0       0.4878873       106.2514
2015    12      1       0.5656367       119.205
2015    12      2       0.4638711       103.689
2015    12      3       0.3026274       74.74819
2015    12      4       0.2605388       66.17935
2015    12      5       0.1401205       39.69993
2015    12      6       0.1388982       39.41839
2015    12      7       0.1182028       34.51572
2015    13      0       0.1081071       32.07626
2015    13      1       0.1902714       51.13895
2015    13      2       0.2465401       63.74548
2015    13      3       0.2311136       59.59408
2015    13      4       0.1821388       48.75594
2015    13      5       0.1797189       47.56776
2015    13      6       0.2859155       69.58127
2015    13      7       0.518546        109.9393
2015    14      0       0.6813548       134.4517
2015    14      1       0.7587997       145.0255
2015    14      2       0.6574276       132.4603
2015    14      3       0.5614612       119.1199
2015    14      4       0.5171147       112.231
2015    14      5       0.5569984       117.9085
2015    14      6       0.5427938       115.6545
2015    14      7       0.5933693       123.1623
2015    15      0       0.7906167       149.4254
2015    15      1       0.64031         130.6191
2015    15      2       0.6589681       133.5185
2015    15      3       0.6621666       134.3423
2015    15      4       0.6346221       130.966
2015    15      5       0.5005361       110.9827
2015    15      6       0.4246211       97.63426
2015    15      7       0.3993213       92.75519
2015    16      0       0.2629562       65.76329
2015    16      1       0.3430548       81.36336
2015    16      2       0.3385786       80.00859
2015    16      3       0.4456003       97.96704
2015    16      4       0.5901484       120.298
2015    16      5       0.8037235       150.0376
2015    16      6       0.8849763       159.9678
2015    16      7       1.084467        180.1604
2015    17      0       1.220549        191.8455
2015    17      1       1.110045        182.0778
2015    17      2       1.17108         189.0443
2015    17      3       1.028723        175.7557
2015    17      4       1.364244        203.9609
2015    17      5       1.339246        201.7958
2015    17      6       1.226677        192.373
2015    17      7       1.08133         179.6496
2015    18      0       1.299466        198.2456
2015    18      1       1.252059        194.8535
2015    18      2       1.432467        207.7131
2015    18      3       1.026117        173.8809
2015    18      4       0.7023106       138.8083
2015    18      5       0.1816049       48.745
2015    18      6       0.3666052       85.21411
2015    18      7       0.4933645       107.6199
2015    19      0       0.5127534       110.3642
2015    19      1       0.4972824       107.1511
2015    19      2       0.4054879       91.25863
2015    19      3       0.2751658       66.90458
2015    19      4       0.2454917       60.64646
2015    19      5       0.2443304       60.24937
2015    19      6       0.2163601       55.10337
2015    19      7       0.22041         55.98411
2015    20      0       0.2368119       59.13286
2015    20      1       0.2301725       58.04955
2015    20      2       0.2219242       56.47988
2015    20      3       0.1617342       43.48115
2015    20      4       0.1217853       34.65256
2015    20      5       0.0965541       28.67144
2015    20      6       0.0690535       21.89249
2015    20      7       0.06249668      20.18057
2015    21      0       0.1471055       40.35319
2015    21      1       0.2412563       60.33086
2015    21      2       0.285515        68.16657
2015    21      3       0.361974        82.12529
2015    21      4       0.391064        88.23695
2015    21      5       0.468342        102.6668
2015    21      6       0.7085884       139.1646
2015    21      7       0.8522059       157.1925
2015    22      0       0.7501601       145.6006
2015    22      1       0.493384        109.337
2015    22      2       0.608961        127.3486
2015    22      3       0.5796996       122.8744
2015    22      4       0.6413314       131.4256
2015    22      5       0.7728147       148.8443
2015    22      6       0.809094        152.6511
2015    22      7       0.8063331       151.9383
2015    23      0       0.6063201       126.0737
2015    23      1       0.6986385       139.5877
2015    23      2       1.022753        176.6075
2015    23      3       1.03881         177.8429
2015    23      4       0.850947        157.5881
2015    23      5       0.9786913       170.7591
2015    23      6       1.203485        191.8504
2015    23      7       1.46653         211.2149
2015    24      0       1.393236        206.302
2015    24      1       1.045807        177.9304
2015    24      2       0.7083634       139.574
2015    24      3       0.4906161       107.2077
2015    24      4       0.450387        100.4545
2015    24      5       0.5826642       121.9078
2015    24      6       0.408266        93.45204
2015    24      7       0.4281836       96.38919
2015    25      0       0.5173458       110.3537
2015    25      1       0.6566608       130.9173
2015    25      2       0.76243         144.6566
2015    25      3       0.6899946       134.8344
2015    25      4       0.5715797       117.7348
2015    25      5       0.4971184       106.4798
2015    25      6       0.4903389       105.9606
2015    25      7       0.6237341       126.2624
2015    26      0       0.5006413       108.4358
2015    26      1       0.4346457       97.9761
2015    26      2       0.3182098       76.84126
2015    26      3       0.1221424       35.08721
2015    26      4       0.0729337       23.17987
2015    26      5       0.08452732      26.02171
2015    26      6       0.1031977       30.43977
2015    26      7       0.09844171      29.07636
2015    27      0       0.09712249      28.80315
2015    27      1       0.08317121      25.56965
2015    27      2       0.1346814       37.94169
2015    27      3       0.1508393       41.50663
2015    27      4       0.1302421       36.70675
2015    27      5       0.1079772       31.47667
2015    27      6       0.113466        32.79527
2015    27      7       0.1241515       35.30457
2015    28      0       0.1111992       32.30665
2015    28      1       0.1641718       44.53391
2015    28      2       0.2075953       54.13396
2015    28      3       0.2029735       53.24577
2015    28      4       0.1953739       51.58529
2015    28      5       0.1654904       44.91872
2015    28      6       0.13763         38.48032
2015    28      7       0.1283688       36.23793
2015    29      0       0.1425684       39.5055
2015    29      1       0.2306201       58.86702
2015    29      2       0.2400992       60.97051
2015    29      3       0.2305089       59.0804
2015    29      4       0.1959749       51.79239
2015    29      5       0.1743722       47.01234
2015    29      6       0.1660782       45.03786
2015    29      7       0.1588124       43.28324
2015    30      0       0.19438         51.02298
2015    30      1       0.3065028       74.06956
2015    30      2       0.406415        92.66151
2015    30      3       0.467106        102.8417
2015    30      4       0.362052        84.57705
2015    30      5       0.3342669       79.28615
2015    30      6       0.3019157       73.07121
2015    30      7       0.2600998       64.86511
2016    1       0       0.3024656       73.85898
2016    1       1       0.3352169       80.47393
2016    1       2       0.5027945       109.3036
2016    1       3       0.5608789       118.2022
2016    1       4       0.5507332       117.3667
2016    1       5       0.5296472       114.7973
2016    1       6       0.3588674       84.82904
2016    1       7       0.4896829       107.9273
2016    2       0       0.4495928       101.7259
2016    2       1       0.35722         85.45267
2016    2       2       0.3266679       79.98452
2016    2       3       0.2701111       68.70688
2016    2       4       0.1081438       32.1154
2016    2       5       0.09940583      29.65851
2016    2       6       0.09739062      28.99726
2016    2       7       0.0978126       29.22611
2016    3       0       0.1235457       35.34216
2016    3       1       0.1697644       46.16536
2016    3       2       0.2699698       67.8713
2016    3       3       0.2472668       63.09855
2016    3       4       0.2120148       55.41045
2016    3       5       0.2135344       55.49629
2016    3       6       0.2195528       56.55878
2016    3       7       0.2115266       54.70147
2016    4       0       0.193419        50.94674
2016    4       1       0.2308643       59.55859
2016    4       2       0.3275004       79.69762
2016    4       3       0.2752108       69.24853
2016    4       4       0.2600546       66.30175
2016    4       5       0.232143        60.36618
2016    4       6       0.3173227       77.75667
2016    4       7       0.3398502       81.67283
2016    5       0       0.3770394       88.81245
2016    5       1       0.3367793       81.55825
2016    5       2       0.4282861       99.45439
2016    5       3       0.4200073       97.90214
2016    5       4       0.4197049       97.35021
2016    5       5       0.3840204       90.42192
2016    5       6       0.3382961       81.65207
2016    5       7       0.337782        81.56348
2016    6       0       0.4423336       100.8462
2016    6       1       0.62226         128.6365
2016    6       2       0.9864817       171.9745
2016    6       3       1.029496        176.0468
2016    6       4       0.5288522       114.655
2016    6       5       0.04590503      16.38296
2016    6       6       0.07534249      24.07004
2016    6       7       0.07790413      24.72193
2016    7       0       0.1112356       32.84557
2016    7       1       0.1525102       42.54802
2016    7       2       0.2384399       60.52751
2016    7       3       0.3289731       77.69816
2016    7       4       0.3648047       84.31778
2016    7       5       0.3231447       76.88432
2016    7       6       0.5536618       115.2704
2016    7       7       0.6529527       130.503
2016    8       0       0.5960651       122.7479
2016    8       1       0.5191388       111.4295
2016    8       2       0.3547408       83.84365
2016    8       3       0.1858662       49.57124
2016    8       4       0.1682161       45.49215
2016    8       5       0.1930203       51.02241
2016    8       6       0.2052324       53.68313
2016    8       7       0.1951          51.62356
2016    9       0       0.1766203       47.62589
2016    9       1       0.1752401       47.4745
2016    9       2       0.2031185       53.63379
2016    9       3       0.2040811       53.39891
2016    9       4       0.2121584       54.73109
2016    9       5       0.2284947       58.08495
2016    9       6       0.2326442       59.10258
2016    9       7       0.2391255       60.47423
2016    10      0       0.2897248       70.63582
2016    10      1       0.2702077       66.71202
2016    10      2       0.1854818       49.36781
2016    10      3       0.1388232       39.13136
2016    10      4       0.09238736      27.93343
2016    10      5       0.1301257       37.14909
2016    10      6       0.2849922       70.8871
2016    10      7       0.3999581       92.30031
2016    11      0       0.5547085       116.6499
2016    11      1       0.3500863       83.06779
2016    11      2       0.2714028       67.82898
2016    11      3       0.2933374       71.8308
2016    11      4       0.2881956       70.68431
2016    11      5       0.2887383       71.13357
2016    11      6       0.383535        89.01747
2016    11      7       0.3701065       86.46422
2016    12      0       0.228156        58.65427
2016    12      1       0.2232911       58.05371
2016    12      2       0.2886317       71.69534
2016    12      3       0.2751817       69.19787
2016    12      4       0.2335185       60.80016
2016    12      5       0.1907406       51.81175
2016    12      6       0.1617888       45.08441
2016    12      7       0.1617936       44.38277
2016    13      0       0.1519525       41.68883
2016    13      1       0.1835794       49.89708
2016    13      2       0.2235619       58.3258
2016    13      3       0.1984763       52.45709
2016    13      4       0.2040583       53.08347
2016    13      5       0.1854169       48.92948
2016    13      6       0.2058866       53.67276
2016    13      7       0.24748         62.25629
2016    14      0       0.2562636       64.42429
2016    14      1       0.3178795       76.96955
2016    14      2       0.3558586       84.41787
2016    14      3       0.3009641       74.00153
2016    14      4       0.2563879       65.14895
2016    14      5       0.3396123       82.09802
2016    14      6       0.4384842       100.0183
2016    14      7       0.4578196       103.5173
2016    15      0       0.4838237       107.6661
2016    15      1       0.6100221       127.6235
2016    15      2       0.7053917       141.0121
2016    15      3       0.584144        123.4228
2016    15      4       0.7727183       149.0165
2016    15      5       0.9426066       168.6227
2016    15      6       1.035359        177.7316
2016    15      7       1.386725        206.405
2016    16      0       1.07416         180.6438
2016    16      1       0.5895261       121.1984
2016    16      2       0.8406648       152.9814
2016    16      3       0.8269027       152.8178
2016    16      4       0.8768742       159.4576
2016    16      5       0.8824091       158.84
2016    16      6       0.9816926       168.5646
2016    16      7       0.8290692       152.4207
2016    17      0       0.6961354       136.3091
2016    17      1       0.6221903       125.7971
2016    17      2       0.5270517       111.5843
2016    17      3       0.5252422       111.2757
2016    17      4       0.5001908       107.9601
2016    17      5       0.4077632       92.90879
2016    17      6       0.3793534       88.02321
2016    17      7       0.3529913       83.42846
2016    18      0       0.3188283       77.25063
2016    18      1       0.428092        97.64745
2016    18      2       0.4665478       104.4406
2016    18      3       0.4779276       106.4599
2016    18      4       0.4428266       100.6158
2016    18      5       0.4117088       95.19158
2016    18      6       0.4129311       95.22626
2016    18      7       0.3841189       90.01775
2016    19      0       0.4014241       92.94424
2016    19      1       0.5825041       122.7964
2016    19      2       0.6768351       136.5532
2016    19      3       0.5495167       117.8463
2016    19      4       0.5354816       115.468
2016    19      5       0.5016498       109.9905
2016    19      6       0.3781119       88.68882
2016    19      7       0.3131153       76.59561
2016    20      0       0.3615504       85.91823
2016    20      1       0.4727265       105.6339
2016    20      2       0.4883198       108.4143
2016    20      3       0.4808024       106.9284
2016    20      4       0.492852        108.4207
2016    20      5       0.5479964       116.9963
2016    20      6       0.5331695       114.6164
2016    20      7       0.5112808       110.5257
2016    21      0       0.7576739       144.8063
2016    21      1       0.9107734       162.3367
2016    21      2       0.7690556       147.4992
2016    21      3       0.830118        154.8482
2016    21      4       0.9041643       163.3332
2016    21      5       0.9074928       163.8406
2016    21      6       1.158053        186.5099
2016    21      7       1.067108        179.0896
2016    22      0       0.8614489       158.7338
2016    22      1       0.769518        147.5311
2016    22      2       0.7909441       150.4666
2016    22      3       0.4375754       99.73663
2016    22      4       0.2282787       59.42102
2016    22      5       0.1498212       41.34188
2016    22      6       0.14847         40.2853
2016    22      7       0.1527013       41.32378
2016    23      0       0.1604614       43.8014
2016    23      1       0.2531379       64.4209
2016    23      2       0.2961224       73.14708
2016    23      3       0.2736772       68.83956
2016    23      4       0.2315605       59.87553
2016    23      5       0.1893079       50.68368
2016    23      6       0.1811962       48.63508
2016    23      7       0.1639547       44.69754
2016    24      0       0.1416263       39.69965
2016    24      1       0.188           50.38953
2016    24      2       0.2310287       60.03267
2016    24      3       0.2137593       56.52993
2016    24      4       0.1741154       47.78694
2016    24      5       0.1619622       44.98757
2016    24      6       0.1513907       42.58119
2016    24      7       0.1365453       39.11769
2016    25      0       0.1158782       34.16935
2016    25      1       0.1096807       32.67626
2016    25      2       0.1504272       42.48516
2016    25      3       0.1424703       40.65123
2016    25      4       0.1167982       34.47275
2016    25      5       0.1122398       33.32023
2016    25      6       0.1171945       34.49466
2016    25      7       0.1142764       33.78639
2016    26      0       0.1095105       32.6207
2016    26      1       0.1157817       34.17429
2016    26      2       0.1439047       40.97343
2016    26      3       0.1011558       30.68136
2016    26      4       0.0679422       22.30694
2016    26      5       0.0689018       22.58007
2016    26      6       0.07082287      23.0061
2016    26      7       0.06438251      21.2161
2016    27      0       0.06091166      20.26333
2016    27      1       0.0638901       21.09843
2016    27      2       0.09129766      28.03681
2016    27      3       0.08453542      26.10506
2016    27      4       0.1269992       35.92917
2016    27      5       0.1862231       49.4217
2016    27      6       0.273034        67.69017
2016    27      7       0.3446825       81.38435
2016    28      0       0.4129348       94.19147
2016    28      1       0.4969548       108.5958
2016    28      2       0.532989        113.9112
2016    28      3       0.5375339       113.4579
2016    28      4       0.4731937       103.5797
2016    28      5       0.7789032       149.1007
2016    28      6       0.828408        155.4491
2016    28      7       0.939916        167.5952
2016    29      0       0.7789225       148.3864
2016    29      1       0.6797409       134.446
2016    29      2       0.768256        147.211
2016    29      3       1.390902        205.4819
2016    29      4       1.113329        182.9298
2016    29      5       1.093424        181.4885
2016    29      6       1.10093         181.5179
2016    29      7       0.7842105       150.2264
2016    30      0       0.6997043       139.9626
2016    30      1       0.5881518       124.4536
2016    30      2       0.3924862       92.58178
2016    30      3       0.2289839       60.2306
2016    30      4       0.2367248       61.70606
2016    30      5       0.7858803       151.0633
2016    30      6       1.345988        203.7293
2016    30      7       1.316684        200.9387
2017    1       0       0.140038        39.65167
2017    1       1       0.05213137      18.0612
2017    1       2       0.1365646       39.06842
2017    1       3       0.1552599       43.3549
2017    1       4       0.1346376       38.49557
2017    1       5       0.1123677       33.10592
2017    1       6       0.1071275       31.75789
2017    1       7       0.1026668       30.62739
2017    2       0       0.128616        36.79684
2017    2       1       0.2867164       71.11328
2017    2       2       0.3129103       76.38486
2017    2       3       0.3234985       78.48845
2017    2       4       0.3247928       78.78317
2017    2       5       0.3300249       79.60097
2017    2       6       0.3283935       79.07955
2017    2       7       0.3074          74.90501
2017    3       0       0.3049731       74.37185
2017    3       1       0.5906055       121.386
2017    3       2       0.5407139       114.4623
2017    3       3       0.3963388       91.36089
2017    3       4       0.2839022       70.34743
2017    3       5       0.2322112       59.78314
2017    3       6       0.1902946       50.77976
2017    3       7       0.1441131       40.29107
2017    4       0       0.1212111       34.85472
2017    4       1       0.3243658       78.18285
2017    4       2       0.3596568       84.88197
2017    4       3       0.3424608       81.75104
2017    4       4       0.2374928       60.84244
2017    4       5       0.2267225       58.47566
2017    4       6       0.2395517       61.06367
2017    4       7       0.1721003       46.34389
2017    5       0       0.1685485       45.48801
2017    5       1       0.3157418       76.30437
2017    5       2       0.3339152       79.86421
2017    5       3       0.3183313       76.93433
2017    5       4       0.3382645       80.81341
2017    5       5       0.3390574       80.87494
2017    5       6       0.3054983       74.29654
2017    5       7       0.2925114       71.64529
2017    6       0       0.333166        79.62934
2017    6       1       0.3304849       79.31811
2017    6       2       0.3277235       78.8894
2017    6       3       0.3450308       82.13103
2017    6       4       0.3328488       80.13719
2017    6       5       0.2962913       73.09705
2017    6       6       0.2009496       53.22402
2017    6       7       0.1985546       52.62045
2017    7       0       0.2171459       56.68518
2017    7       1       0.3065443       75.12304
2017    7       2       0.338543        81.53725
2017    7       3       0.2738347       68.95296
2017    7       4       0.3003426       74.25695
2017    7       5       0.3319895       80.43183
2017    7       6       0.355989        85.0025
2017    7       7       0.3679045       87.13194
2017    8       0       0.4181033       96.03403
2017    8       1       0.8519186       158.1547
2017    8       2       0.8517663       157.974
2017    8       3       0.6840178       136.5905
2017    8       4       0.5980673       124.5992
2017    8       5       0.657211        133.0319
2017    8       6       0.6591736       132.0948
2017    8       7       0.6706808       134.3152
2017    9       0       0.8865073       161.3692
2017    9       1       0.8107279       150.7289
2017    9       2       0.6225367       125.4983
2017    9       3       0.3868096       87.04343
2017    9       4       0.4825521       103.207
2017    9       5       0.5298987       110.0628
2017    9       6       0.4708489       100.8426
2017    9       7       0.2905615       68.66586
2017    10      0       0.8303666       151.7824
2017    10      1       1.061012        177.6178
2017    10      2       0.6366356       128.8443
2017    10      3       0.4955359       108.8313
2017    10      4       0.3203787       78.34722
2017    10      5       0.2422117       62.6506
2017    10      6       0.1720352       47.12416
2017    10      7       0.1037178       30.95546
2017    11      0       0.1007332       30.20986
2017    11      1       0.1165228       34.06768
2017    11      2       0.1992246       53.08722
2017    11      3       0.1796633       48.70669
2017    11      4       0.1867041       50.18965
2017    11      5       0.2027974       53.71466
2017    11      6       0.2062153       54.48629
2017    11      7       0.2182923       56.97963
2017    12      0       0.2314395       59.70193
2017    12      1       0.3327098       80.0637
2017    12      2       0.4132961       94.94788
2017    12      3       0.4778205       105.9718
2017    12      4       0.3880085       90.37211
2017    12      5       0.3477967       82.90252
2017    12      6       0.2882843       71.414
2017    12      7       0.2205719       57.56468
2017    13      0       0.2456875       62.94064
2017    13      1       0.3881872       90.80016
2017    13      2       0.4169069       96.5228
2017    13      3       0.2846002       70.85338
2017    13      4       0.210146        55.0648
2017    13      5       0.2081057       54.34788
2017    13      6       0.2292757       59.09347
2017    13      7       0.2148233       56.24476
2017    14      0       0.1998897       53.12343
2017    14      1       0.1895769       50.87114
2017    14      2       0.1436903       40.39685
2017    14      3       0.1358346       38.54607
2017    14      4       0.1399899       39.5497
2017    14      5       0.1260984       36.24062
2017    14      6       0.1237194       35.51243
2017    14      7       0.1232734       35.36596
2017    15      0       0.1143572       33.28193
2017    15      1       0.1031689       30.67235
2017    15      2       0.1068219       31.7003
2017    15      3       0.07979026      25.07666
2017    15      4       0.0681841       22.08716
2017    15      5       0.09355309      27.78251
2017    15      6       0.142561        39.11906
2017    15      7       0.1716207       45.70041
2017    16      0       0.3098956       73.49563
2017    16      1       0.4303061       96.0303
2017    16      2       0.5323174       112.1543
2017    16      3       0.4215442       95.45658
2017    16      4       0.3978322       91.23432
2017    16      5       0.4153973       93.92782
2017    16      6       0.4329461       96.65227
2017    16      7       0.4104136       92.77507
2017    17      0       0.3942581       90.1209
2017    17      1       0.4739109       104.0089
2017    17      2       0.5320265       113.3095
2017    17      3       0.5295595       112.7386
2017    17      4       0.596504        122.7194
2017    17      5       0.7277285       140.0301
2017    17      6       0.6742585       133.0402
2017    17      7       0.4603989       101.7781
2017    18      0       0.4578358       101.7139
2017    18      1       0.4152724       94.45054
2017    18      2       0.4939628       108.2544
2017    18      3       0.4468599       100.8312
2017    18      4       0.3938057       91.98735
2017    18      5       0.3569543       85.35299
2017    18      6       0.3464562       83.3355
2017    18      7       0.3490529       83.82881
2017    19      0       0.3306476       80.41145
2017    19      1       0.3545076       84.99538
2017    19      2       0.3513779       84.60154
2017    19      3       0.317548        78.05613
2017    19      4       0.3016718       74.48509
2017    19      5       0.1717917       46.34266
2017    19      6       0.1724172       46.472
2017    19      7       0.1886151       50.04579
2017    20      0       0.2142588       55.57242
2017    20      1       0.276214        68.63429
2017    20      2       0.3908346       90.45143
2017    20      3       0.4086292       93.49105
2017    20      4       0.3832583       88.67392
2017    20      5       0.4299897       96.77233
2017    20      6       0.5608115       117.9067
2017    20      7       0.7688288       144.9844
2017    21      0       0.7324641       141.4713
2017    21      1       0.9697412       168.3889
2017    21      2       0.9778443       169.7976
2017    21      3       0.8776963       158.6905
2017    21      4       0.9147037       162.5716
2017    21      5       1.088316        181.9673
2017    21      6       1.267969        196.5496
2017    21      7       1.09209         180.7438
2017    22      0       0.7920143       149.6278
2017    22      1       0.8471749       155.7438
2017    22      2       0.8464855       155.8765
2017    22      3       0.7290229       141.675
2017    22      4       0.7067873       139.1333
2017    22      5       0.543454        115.98
2017    22      6       0.4841741       106.4516
2017    22      7       0.4383997       98.85531
2017    23      0       0.4312653       97.75089
2017    23      1       0.637636        130.3909
2017    23      2       0.699395        139.0336
2017    23      3       0.5082875       111.1442
2017    23      4       0.4240783       97.19906
2017    23      5       0.4014041       93.17673
2017    23      6       0.3770706       88.68262
2017    23      7       0.3565089       84.68894
2017    24      0       0.3837837       89.51201
2017    24      1       0.5942298       123.9328
2017    24      2       0.8187214       153.8908
2017    24      3       0.6930509       137.5779
2017    24      4       0.8157659       152.7202
2017    24      5       0.9809936       171.0856
2017    24      6       1.560152        216.8654
2017    24      7       1.572367        217.9
2017    25      0       1.369528        203.6155
2017    25      1       1.440733        208.7112
2017    25      2       1.152943        187.2023
2017    25      3       0.8854754       161.4428
2017    25      4       0.6709889       135.035
2017    25      5       0.5273758       113.4776
2017    25      6       0.7091603       139.2614
2017    25      7       0.4234869       95.86092
2017    26      0       0.6988866       136.0841
2017    26      1       0.8300559       151.472
2017    26      2       0.7728874       144.9845
2017    26      3       0.498086        106.6834
2017    26      4       0.2803489       68.01141
2017    26      5       0.2025931       52.11595
2017    26      6       0.1632599       44.17225
2017    26      7       0.1938622       51.45989
2017    27      0       0.2629322       65.87041
2017    27      1       0.2835496       70.22424
2017    27      2       0.3293857       79.33249
2017    27      3       0.2123484       55.70693
2017    27      4       0.2031999       53.43432
2017    27      5       0.2899012       70.58717
2017    27      6       0.3268775       77.85951
2017    27      7       0.3658056       85.21243
2017    28      0       0.3810698       88.36554
2017    28      1       0.42603         96.39278
2017    28      2       0.422872        96.05489
2017    28      3       0.2645241       66.92862
2017    28      4       0.155007        43.7013
2017    28      5       0.1602789       44.25961
2017    28      6       0.1410441       39.56252
2017    28      7       0.2209692       57.64156
2017    29      0       0.2856771       71.58759
2017    29      1       0.1866333       50.42425
2017    29      2       0.1206919       35.10026
2017    29      3       0.07249021      22.9283
2017    29      4       0.080484        24.8431
2017    29      5       0.09447133      28.29581
2017    29      6       0.1012175       29.90336
2017    29      7       0.1028899       30.26352
2017    30      0       0.1028786       30.26945
2017    30      1       0.1084269       31.59813
2017    30      2       0.1244446       35.37162
2017    30      3       0.1333789       37.31257
2017    30      4       0.1355262       37.64261
2017    30      5       0.1313513       36.66334
2017    30      6       0.1309592       36.28363
2017    30      7       0.1436161       39.51594
2018    1       0       0.1388765       38.89382
2018    1       1       0.3120625       75.44085
2018    1       2       0.4286252       96.24825
2018    1       3       0.4838025       105.9513
2018    1       4       0.6167511       126.4743
2018    1       5       0.6960078       137.0194
2018    1       6       0.643452        131.3229
2018    1       7       0.5308123       115.1515
2018    2       0       0.3817921       90.53263
2018    2       1       0.3671429       88.07876
2018    2       2       0.3187625       78.83836
2018    2       3       0.2178473       57.58947
2018    2       4       0.1918178       51.72301
2018    2       5       0.211974        55.64027
2018    2       6       0.2826628       70.15646
2018    2       7       0.2392266       61.9048
2018    3       0       0.2027997       54.16101
2018    3       1       0.3348735       81.70379
2018    3       2       0.3841096       91.16267
2018    3       3       0.334592        82.03206
2018    3       4       0.2517979       65.4277
2018    3       5       0.2169496       57.80543
2018    3       6       0.2278106       60.06974
2018    3       7       0.1995755       53.75509
2018    4       0       0.1596939       44.59539
2018    4       1       0.2998414       75.00467
2018    4       2       0.3850268       91.57626
2018    4       3       0.3561581       86.19998
2018    4       4       0.351547        85.27263
2018    4       5       0.3779818       90.22146
2018    4       6       0.4344435       100.4164
2018    4       7       0.4912104       110.0932
2018    5       0       0.5263637       115.8144
2018    5       1       0.6467965       133.8758
2018    5       2       0.7729668       151.3552
2018    5       3       0.5307062       117.1741
2018    5       4       0.4580217       104.936
2018    5       5       0.2951197       74.20512
2018    5       6       0.2057533       54.85226
2018    5       7       0.191214        51.29005
2018    6       0       0.1648307       45.41886
2018    6       1       0.1334065       38.26562
2018    6       2       0.1668143       46.22498
2018    6       3       0.1481217       41.77423
2018    6       4       0.1399447       39.73114
2018    6       5       0.1325116       38.11488
2018    6       6       0.1310613       37.73223
2018    6       7       0.1248306       36.1532
2018    7       0       0.1208675       35.17014
2018    7       1       0.1040886       31.07225
2018    7       2       0.1089876       32.29991
2018    7       3       0.1148964       33.73598
2018    7       4       0.140185        39.79173
2018    7       5       0.148139        41.65505
2018    7       6       0.1307653       37.52539
2018    7       7       0.1722653       47.40839
2018    8       0       0.1719363       47.36779
2018    8       1       0.1980581       53.40436
2018    8       2       0.2120169       56.54649
2018    8       3       0.2047066       54.85579
2018    8       4       0.3069182       76.22312
2018    8       5       0.4673737       105.0563
2018    8       6       0.6262366       128.654
2018    8       7       0.5728154       120.8597
2018    9       0       0.4293271       99.29056
2018    9       1       0.3773773       89.88761
2018    9       2       0.3864359       91.26921
2018    9       3       0.3586627       85.79119
2018    9       4       0.4326561       98.70282
2018    9       5       0.6309155       129.9654
2018    9       6       0.6169329       127.7325
2018    9       7       0.6596705       133.6177
2018    10      0       0.8696358       160.143
2018    10      1       0.8017373       152.0535
2018    10      2       0.836428        156.1661
2018    10      3       0.8005891       152.7831
2018    10      4       1.16004         187.9611
2018    10      5       0.8965154       163.8544
2018    10      6       0.7246087       142.6128
2018    10      7       0.6595417       133.9856
2018    11      0       0.6663871       135.5141
2018    11      1       0.6665718       135.821
2018    11      2       0.6306772       130.6229
2018    11      3       0.604977        126.8119
2018    11      4       0.5506477       118.5875
2018    11      5       0.501581        110.6538
2018    11      6       0.5509513       118.4252
2018    11      7       0.5791803       122.7868
2018    12      0       0.6556629       134.3419
2018    12      1       0.6658122       135.8437
2018    12      2       0.6781101       137.7951
2018    12      3       0.695229        140.1011
2018    12      4       0.5809284       123.9222
2018    12      5       0.4443321       101.9729
2018    12      6       0.3483044       84.221
2018    12      7       0.4337703       99.982
2018    13      0       0.5129017       113.2475
2018    13      1       0.6811938       137.5548
2018    13      2       0.9821828       171.4866
2018    13      3       0.7166159       141.3552
2018    13      4       0.7724713       147.5185
2018    13      5       1.084352        180.6575
2018    13      6       0.3413438       81.72264
2018    13      7       0.1183497       34.08449
2018    14      0       0.3330077       78.16224
2018    14      1       0.5450672       113.7868
2018    14      2       0.6114913       124.4694
2018    14      3       0.6612437       131.7924
2018    14      4       0.3483575       81.83049
2018    14      5       0.5071909       109.6788
2018    14      6       0.6214815       127.5685
2018    14      7       0.5907628       123.813
2018    15      0       0.6645716       134.7856
2018    15      1       0.923963        167.6986
2018    15      2       1.027676        179.7545
2018    15      3       0.969478        174.1439
2018    15      4       0.7265266       145.1456
2018    15      5       0.6357631       131.7468
2018    15      6       0.6620911       135.2389
2018    15      7       0.6414243       132.6519
2018    16      0       0.4807416       107.6801
2018    16      1       0.426968        99.13355
2018    16      2       0.6377257       133.1871
2018    16      3       0.7647279       150.3593
2018    16      4       0.4942772       110.0078
2018    16      5       0.1574039       43.49986
2018    16      6       0.09253263      27.80782
2018    16      7       0.07782731      24.29662
2018    17      0       0.08230953      25.39317
2018    17      1       0.09229469      27.91559
2018    17      2       0.1119619       32.66127
2018    17      3       0.120803        34.54009
2018    17      4       0.123954        35.20381
2018    17      5       0.1219299       34.63594
2018    17      6       0.1194563       34.08106
2018    17      7       0.1145326       33.04135
2018    18      0       0.1143179       33.02309
2018    18      1       0.1214727       34.9021
2018    18      2       0.1200948       34.60621
2018    18      3       0.1209432       34.81508
2018    18      4       0.1282922       36.5398
2018    18      5       0.2169325       56.63769
2018    18      6       0.4391638       99.54987
2018    18      7       0.5433518       116.3541
2018    19      0       0.633508        129.4003
2018    19      1       0.595821        124.4941
2018    19      2       0.6497171       132.8294
2018    19      3       0.5101479       111.6679
2018    19      4       0.4558492       102.6365
2018    19      5       0.4157988       95.48952
2018    19      6       0.341364        81.50154
2018    19      7       0.3029553       74.16677
2018    20      0       0.2969182       73.24355
2018    20      1       0.4133763       95.51064
2018    20      2       0.4614509       104.1511
2018    20      3       0.4287449       98.70973
2018    20      4       0.3924016       92.2279
2018    20      5       0.3735654       88.68459
2018    20      6       0.3281037       80.04782
2018    20      7       0.2611118       66.52471
2018    21      0       0.2416402       62.29107
2018    21      1       0.4032063       93.78042
2018    21      2       0.4999058       110.3538
2018    21      3       0.4162607       96.06718
2018    21      4       0.3624211       85.98593
2018    21      5       0.3313044       79.70224
2018    21      6       0.3068548       74.6305
2018    21      7       0.3450172       81.77238
2018    22      0       0.4399779       99.16803
2018    22      1       0.4464924       100.8077
2018    22      2       0.575139        121.6975
2018    22      3       0.39596         92.17354
2018    22      4       0.2978319       73.58756
2018    22      5       0.2441339       62.63141
2018    22      6       0.232637        60.18544
2018    22      7       0.2234218       58.15192
2018    23      0       0.2002178       53.26388
2018    23      1       0.2325862       60.55835
2018    23      2       0.26754         67.95734
2018    23      3       0.1544286       43.12782
2018    23      4       0.133691        38.23824
2018    23      5       0.2285868       59.9389
2018    23      6       0.320106        78.83767
2018    23      7       0.3447417       83.59247
2018    24      0       0.3607865       86.49936
2018    24      1       0.3800448       89.93481
2018    24      2       0.466171        105.0896
2018    24      3       0.5134285       112.8237
2018    24      4       0.4530323       102.6889
2018    24      5       0.4599647       103.48
2018    24      6       0.4863057       107.6199
2018    24      7       0.5066175       110.4034
2018    25      0       0.6494041       131.0201
2018    25      1       0.7069776       139.0707
2018    25      2       0.7009942       138.0707
2018    25      3       0.6362705       129.0544
2018    25      4       0.6207788       126.9256
2018    25      5       0.5635805       118.5721
2018    25      6       0.5315664       114.1457
2018    25      7       0.1497807       41.70456
2018    26      0       0.05096623      17.69898
2018    26      1       0.08888244      27.23028
2018    26      2       0.2167104       56.35455
2018    26      3       0.2861885       70.66185
2018    26      4       0.2830575       69.89573
2018    26      5       0.2778282       68.72838
2018    26      6       0.2783383       68.6606
2018    26      7       0.2755988       68.02966
2018    27      0       0.2760365       68.35647
2018    27      1       0.3127752       75.60915
2018    27      2       0.3950566       90.6842
2018    27      3       0.4168669       94.19968
2018    27      4       0.3929412       89.92684
2018    27      5       0.3653873       85.03798
2018    27      6       0.3430017       80.98764
2018    27      7       0.3081607       74.51922
2018    28      0       0.2559168       64.36067
2018    28      1       0.2612601       65.7874
2018    28      2       0.2475454       63.16341
2018    28      3       0.2241744       58.30433
2018    28      4       0.2046087       54.01966
2018    28      5       0.1675095       45.70206
2018    28      6       0.182978        48.87972
2018    28      7       0.2495052       62.42304
2018    29      0       0.2301405       59.04947
2018    29      1       0.4258094       95.92957
2018    29      2       0.4925036       106.7254
2018    29      3       0.2823272       69.60496
2018    29      4       0.1732122       46.66975
2018    29      5       0.167479        45.17449
2018    29      6       0.2041025       53.08354
2018    29      7       0.3098724       74.70368
2018    30      0       0.321203        77.13851
2018    30      1       0.2881149       70.9938
2018    30      2       0.3201539       77.62394
2018    30      3       0.34868         83.54848
2018    30      4       0.350208        84.01969
2018    30      5       0.3479173       83.55682
2018    30      6       0.3335451       80.78359
2018    30      7       0.3405395       81.9475
