####################################################################################################
# Month: 11Nov                                                                                     #
# Station: BGA                                                                                     #
# Frequency: 230 GHz                                                                               #
# Columns are: year    day     segment         tau     Tb (K)                                      #
####################################################################################################
2009    1       0       0.07288213      22.36916
2009    1       1       0.05770174      18.8024
2009    1       2       0.05706166      18.74269
2009    1       3       0.0555911       18.42614
2009    1       4       0.04837302      16.61114
2009    1       5       0.04317501      15.23484
2009    1       6       0.04441273      15.46637
2009    1       7       0.04845195      16.41652
2009    2       0       0.06044514      19.26039
2009    2       1       0.07480875      22.59651
2009    2       2       0.07285003      22.17221
2009    2       3       0.06349463      20.12821
2009    2       4       0.0549746       18.21202
2009    2       5       0.05085512      17.32649
2009    2       6       0.05891907      19.35146
2009    2       7       0.07117613      22.12833
2009    3       0       0.09852539      28.18307
2009    3       1       0.2176756       54.04361
2009    3       2       0.3718935       83.64916
2009    3       3       0.4901262       102.954
2009    3       4       0.5341236       110.7284
2009    3       5       0.4022975       89.90493
2009    3       6       0.2891897       68.86153
2009    3       7       0.3073087       72.70627
2009    4       0       0.2202167       55.21704
2009    4       1       0.2582465       61.98612
2009    4       2       0.1972271       50.09671
2009    4       3       0.1165937       32.94877
2009    4       4       0.1031688       29.93709
2009    4       5       0.1217154       34.34055
2009    4       6       0.1239109       34.6428
2009    4       7       0.2098994       53.42636
2009    5       0       0.290229        69.57443
2009    5       1       0.3986898       89.40543
2009    5       2       0.3231914       76.30932
2009    5       3       0.2301859       58.37298
2009    5       4       0.2171591       56.03573
2009    5       5       0.2340749       59.37454
2009    5       6       0.3063252       72.77706
2009    5       7       0.3980405       89.49418
2009    6       0       0.4939204       105.4601
2009    6       1       0.504494        107.1416
2009    6       2       0.4155283       92.71449
2009    6       3       0.3536407       81.85676
2009    6       4       0.3507387       81.30919
2009    6       5       0.3662489       84.22046
2009    6       6       0.375511        85.99992
2009    6       7       0.4240296       94.42516
2009    7       0       0.4626792       100.7653
2009    7       1       0.4009021       90.43036
2009    7       2       0.3613031       83.58884
2009    7       3       0.3978063       89.94758
2009    7       4       0.4488694       98.52782
2009    7       5       0.4514929       98.41701
2009    7       6       0.4171692       92.5306
2009    7       7       0.4842241       103.7538
2009    8       0       0.3915698       88.96593
2009    8       1       0.2953518       71.44055
2009    8       2       0.2947928       71.50658
2009    8       3       0.3673475       84.77649
2009    8       4       0.5102395       108.2396
2009    8       5       0.5694561       118.5357
2009    8       6       0.5114658       109.2848
2009    8       7       0.409436        92.60854
2009    9       0       0.338075        79.74704
2009    9       1       0.2532515       63.11206
2009    9       2       0.2839952       68.8028
2009    9       3       0.6247894       125.871
2009    9       4       0.6500853       129.5814
2009    9       5       0.5574397       116.3071
2009    9       6       0.4568882       100.6392
2009    9       7       0.3406708       79.65761
2009    10      0       0.4978857       106.6359
2009    10      1       0.5841708       119.236
2009    10      2       0.6129437       122.3505
2009    10      3       0.555164        113.6546
2009    10      4       0.4621529       98.86527
2009    10      5       0.4678519       99.53603
2009    10      6       0.4014917       88.86334
2009    10      7       0.3106822       73.47154
2009    11      0       0.2734377       66.16712
2009    11      1       0.1957382       50.31948
2009    11      2       0.1447753       39.13319
2009    11      3       0.2249877       56.08648
2009    11      4       0.4563626       98.04268
2009    11      5       0.4375399       94.67851
2009    11      6       0.3530558       80.60355
2009    11      7       0.3362974       77.65402
2009    12      0       0.2912203       69.33674
2009    12      1       0.2358401       58.48215
2009    12      2       0.188099        48.35524
2009    12      3       0.2697147       64.46937
2009    12      4       0.2983614       70.56747
2009    12      5       0.2489733       61.26572
2009    12      6       0.1815847       47.56599
2009    12      7       0.1427084       38.90996
2009    13      0       0.1014836       29.50862
2009    13      1       0.09345983      27.67523
2009    13      2       0.1331095       36.75048
2009    13      3       0.1670223       44.00458
2009    13      4       0.1401774       38.21973
2009    13      5       0.1274952       35.48986
2009    13      6       0.14643         39.70284
2009    13      7       0.1594313       42.70425
2009    14      0       0.1663666       44.07355
2009    14      1       0.1728974       45.51459
2009    14      2       0.2473582       60.89802
2009    14      3       0.3014648       71.43657
2009    14      4       0.2388353       59.61146
2009    14      5       0.2140246       54.59883
2009    14      6       0.198409        51.40237
2009    14      7       0.1608032       43.31154
2009    15      0       0.136726        38.02987
2009    15      1       0.178803        47.07101
2009    15      2       0.2222275       55.44703
2009    15      3       0.316483        73.21211
2009    15      4       0.3007674       70.65905
2009    15      5       0.2396969       59.36143
2009    15      6       0.2179737       55.03913
2009    15      7       0.1726316       45.35925
2009    16      0       0.1474313       39.66378
2009    16      1       0.1763982       45.79253
2009    16      2       0.2390445       58.77258
2009    16      3       0.3375587       77.47709
2009    16      4       0.3379647       78.26298
2009    16      5       0.352491        81.47613
2009    16      6       0.3962759       89.48516
2009    16      7       0.3858831       87.86936
2009    17      0       0.3728101       85.89691
2009    17      1       0.3572152       83.39966
2009    17      2       0.3186261       76.39831
2009    17      3       0.2901086       71.03582
2009    17      4       0.258424        64.8428
2009    17      5       0.2184796       56.629
2009    17      6       0.1889035       50.28452
2009    17      7       0.1593412       43.63587
2009    18      0       0.1027641       30.44423
2009    18      1       0.07956451      24.62544
2009    18      2       0.09112612      27.50221
2009    18      3       0.1282468       36.14597
2009    18      4       0.1353511       37.69481
2009    18      5       0.1130499       32.53357
2009    18      6       0.125533        35.18273
2009    18      7       0.174467        46.11321
2009    19      0       0.2381893       59.5979
2009    19      1       0.3013477       71.90301
2009    19      2       0.1687019       45.30119
2009    19      3       0.1160313       33.30937
2009    19      4       0.08876216      26.70056
2009    19      5       0.0777177       23.89498
2009    19      6       0.1032292       29.89363
2009    19      7       0.1838969       48.32925
2009    20      0       0.2293631       58.29053
2009    20      1       0.2182999       56.15722
2009    20      2       0.1997664       52.28168
2009    20      3       0.1869279       49.54108
2009    20      4       0.1706531       45.97379
2009    20      5       0.143254        39.79464
2009    20      6       0.1091268       31.85045
2009    20      7       0.07696563      24.0198
2009    21      0       0.05067714      17.40094
2009    21      1       0.04252862      15.30748
2009    21      2       0.0497391       17.21637
2009    21      3       0.04820101      16.75933
2009    21      4       0.1122116       32.52197
2009    21      5       0.1599777       43.3902
2009    21      6       0.136014        37.92799
2009    21      7       0.109623        31.8531
2009    22      0       0.1069775       31.03445
2009    22      1       0.1361139       37.405
2009    22      2       0.1549005       41.67397
2009    22      3       0.1430723       39.15314
2009    22      4       0.1355096       37.5966
2009    22      5       0.1348834       37.57128
2009    22      6       0.1334303       37.32481
2009    22      7       0.1425285       39.39348
2009    23      0       0.1439687       39.65165
2009    23      1       0.1448641       39.83539
2009    23      2       0.1455321       39.98805
2009    23      3       0.1417666       39.12837
2009    23      4       0.1388035       38.43486
2009    23      5       0.1284082       36.07781
2009    23      6       0.1163145       33.27876
2009    23      7       0.1218132       34.39964
2009    24      0       0.1352863       37.30215
2009    24      1       0.1311206       36.41452
2009    24      2       0.1112805       31.99633
2009    24      3       0.08918392      26.67517
2009    24      4       0.09791074      28.46679
2009    24      5       0.1468972       39.51127
2009    24      6       0.2208148       55.05062
2009    24      7       0.2161362       54.25334
2009    25      0       0.1465256       39.68499
2009    25      1       0.06433599      20.63696
2009    25      2       0.0840088       25.1102
2009    25      3       0.1588867       42.32275
2009    25      4       0.2209465       55.75602
2009    25      5       0.2498778       61.62177
2009    25      6       0.2510553       62.12569
2009    25      7       0.1339684       37.47119
2009    26      0       0.08085832      24.9214
2009    26      1       0.06821644      21.75469
2009    26      2       0.06537702      21.01792
2009    26      3       0.06396354      20.62064
2009    26      4       0.06207481      20.15521
2009    26      5       0.06000626      19.6008
2009    26      6       0.06188882      20.02864
2009    26      7       0.07242239      22.61594
2009    27      0       0.08858273      26.44448
2009    27      1       0.1068478       30.71125
2009    27      2       0.1305701       36.19129
2009    27      3       0.1506543       40.74329
2009    27      4       0.1503686       40.66701
2009    27      5       0.1378352       37.7295
2009    27      6       0.1458514       39.30628
2009    27      7       0.1709151       45.01453
2009    28      0       0.1957139       50.05553
2009    28      1       0.1649414       43.83327
2009    28      2       0.1696178       45.14059
2009    28      3       0.1614352       43.22572
2009    28      4       0.1620282       43.04735
2009    28      5       0.3260341       76.16406
2009    28      6       0.4521306       98.50589
2009    28      7       0.4039373       90.05532
2009    29      0       0.1741909       46.30036
2009    29      1       0.03780241      14.07799
2009    29      2       0.03747009      13.96938
2009    29      3       0.03813505      14.1084
2009    29      4       0.05451412      18.14748
2009    29      5       0.05461678      18.1739
2009    29      6       0.04367315      15.35273
2009    29      7       0.04785308      16.2024
2009    30      0       0.08308313      24.39104
2009    30      1       0.1838315       47.75536
2009    30      2       0.1895684       49.06267
2009    30      3       0.2006518       51.44654
2009    30      4       0.2958233       70.74182
2009    30      5       0.2860589       68.7387
2009    30      6       0.3118872       73.708
2009    30      7       0.1936261       50.09667
2010    1       0       0.04854812      16.71304
2010    1       1       0.0409536       14.84416
2010    1       2       0.03867229      14.28949
2010    1       3       0.04307153      15.38323
2010    1       4       0.05955077      19.29069
2010    1       5       0.1070847       30.37901
2010    1       6       0.1664044       43.72526
2010    1       7       0.1854363       48.21759
2010    2       0       0.1936189       50.27373
2010    2       1       0.2006317       51.91009
2010    2       2       0.1835854       48.32229
2010    2       3       0.1634232       43.87399
2010    2       4       0.1605537       43.18241
2010    2       5       0.163804        43.9397
2010    2       6       0.1738658       46.34256
2010    2       7       0.1757569       46.81242
2010    3       0       0.1693892       45.32033
2010    3       1       0.2024363       52.58185
2010    3       2       0.2398027       60.14187
2010    3       3       0.3103544       73.70066
2010    3       4       0.2554297       63.35924
2010    3       5       0.2225194       56.46316
2010    3       6       0.2648299       65.16418
2010    3       7       0.3315367       77.88849
2010    4       0       0.470133        102.0228
2010    4       1       0.4853815       104.8101
2010    4       2       0.345776        80.47572
2010    4       3       0.2925678       70.66539
2010    4       4       0.2877193       70.03287
2010    4       5       0.2659438       65.85975
2010    4       6       0.2501896       62.64626
2010    4       7       0.2270512       57.87751
2010    5       0       0.2140377       55.28581
2010    5       1       0.2042881       53.31745
2010    5       2       0.1620586       44.19641
2010    5       3       0.1440613       40.22336
2010    5       4       0.1551088       42.82772
2010    5       5       0.1356561       38.3752
2010    5       6       0.1116842       32.69557
2010    5       7       0.08444513      26.02443
2010    6       0       0.07643556      23.98561
2010    6       1       0.07006935      22.34016
2010    6       2       0.06387077      20.76292
2010    6       3       0.06410426      20.77609
2010    6       4       0.06447466      20.86644
2010    6       5       0.06888004      21.99883
2010    6       6       0.07062868      22.42938
2010    6       7       0.07128848      22.53946
2010    7       0       0.09175908      27.5571
2010    7       1       0.1299591       36.57171
2010    7       2       0.119538        34.10949
2010    7       3       0.1050053       30.63132
2010    7       4       0.1214062       34.33891
2010    7       5       0.1333336       37.10558
2010    7       6       0.1571108       42.42937
2010    7       7       0.2183341       55.67731
2010    8       0       0.3375488       79.2985
2010    8       1       0.5335021       111.751
2010    8       2       0.5087278       108.2284
2010    8       3       0.3258754       77.37834
2010    8       4       0.5107249       107.7938
2010    8       5       0.5496035       115.8491
2010    8       6       0.4759397       104.7984
2010    8       7       0.3636338       85.07016
2010    9       0       0.3746123       86.84839
2010    9       1       0.453154        99.84879
2010    9       2       0.5303308       112.1805
2010    9       3       0.5878669       119.9737
2010    9       4       0.6941292       134.7024
2010    9       5       0.8777056       156.7366
2010    9       6       0.5782404       119.7875
2010    9       7       0.3298394       78.45388
2010    10      0       0.3005823       73.05665
2010    10      1       0.3045568       73.89902
2010    10      2       0.2537481       63.612
2010    10      3       0.2524097       63.36222
2010    10      4       0.2037237       53.06664
2010    10      5       0.1871527       49.6962
2010    10      6       0.2320539       58.943
2010    10      7       0.291339        70.24077
2010    11      0       0.3264683       76.63493
2010    11      1       0.2481131       61.93983
2010    11      2       0.2513468       62.34557
2010    11      3       0.3618164       82.34985
2010    11      4       0.3237208       75.68048
2010    11      5       0.275081        66.56186
2010    11      6       0.2460438       60.74217
2010    11      7       0.2119769       53.61245
2010    12      0       0.2249684       56.68787
2010    12      1       0.219651        55.63647
2010    12      2       0.2186825       55.49813
2010    12      3       0.195303        50.59779
2010    12      4       0.2063507       52.97131
2010    12      5       0.2000013       51.82045
2010    12      6       0.1732745       46.18619
2010    12      7       0.1482303       40.59447
2010    13      0       0.1507767       41.0602
2010    13      1       0.1964358       51.22683
2010    13      2       0.2063676       53.43384
2010    13      3       0.1922964       50.40783
2010    13      4       0.2170756       55.85148
2010    13      5       0.2138952       55.28667
2010    13      6       0.2108056       54.6858
2010    13      7       0.2205459       56.81472
2010    14      0       0.2083713       54.11529
2010    14      1       0.2031831       52.92188
2010    14      2       0.2214854       56.72555
2010    14      3       0.2484299       62.28428
2010    14      4       0.2636202       65.25338
2010    14      5       0.276636        67.82706
2010    14      6       0.2844615       69.16416
2010    14      7       0.2828849       68.75967
2010    15      0       0.2916185       70.29648
2010    15      1       0.2177935       55.31875
2010    15      2       0.1934606       50.15344
2010    15      3       0.257575        63.5389
2010    15      4       0.3061425       72.81242
2010    15      5       0.318059        75.03333
2010    15      6       0.295677        70.85726
2010    15      7       0.2970078       71.08954
2010    16      0       0.265982        64.91111
2010    16      1       0.2487068       61.2471
2010    16      2       0.2430139       60.12754
2010    16      3       0.174588        45.92465
2010    16      4       0.1555998       41.8408
2010    16      5       0.1544569       41.85476
2010    16      6       0.1509087       41.11234
2010    16      7       0.1472942       40.26583
2010    17      0       0.1842629       48.22977
2010    17      1       0.211084        53.85292
2010    17      2       0.2408537       60.24479
2010    17      3       0.2678484       65.62733
2010    17      4       0.4127725       92.179
2010    17      5       0.3746185       85.09261
2010    17      6       0.3089922       72.67697
2010    17      7       0.4365472       94.51385
2010    18      0       0.5033043       105.4013
2010    18      1       0.2388026       59.11591
2010    18      2       0.1637355       43.13246
2010    18      3       0.154393        41.37955
2010    18      4       0.1185484       33.29786
2010    18      5       0.1900628       48.31168
2010    18      6       0.2316193       57.38948
2010    18      7       0.1913966       49.67294
2010    19      0       0.1732987       46.13113
2010    19      1       0.226533        57.18633
2010    19      2       0.2871652       68.6656
2010    19      3       0.2675173       65.04554
2010    19      4       0.2414671       59.75187
2010    19      5       0.1819535       47.49354
2010    19      6       0.165497        43.79315
2010    19      7       0.2604827       63.16693
2010    20      0       0.213763        54.25777
2010    20      1       0.09595188      28.25771
2010    20      2       0.0943306       27.39092
2010    20      3       0.09869453      28.35072
2010    20      4       0.09212174      26.73785
2010    20      5       0.1056054       29.74258
2010    20      6       0.1027244       29.44177
2010    20      7       0.1245312       34.6818
2010    21      0       0.1432172       38.92263
2010    21      1       0.162493        43.15854
2010    21      2       0.1735164       45.63101
2010    21      3       0.1624765       43.3385
2010    21      4       0.1488482       40.31936
2010    21      5       0.1400001       38.41178
2010    21      6       0.1437484       39.0926
2010    21      7       0.1536676       41.35815
2010    22      0       0.1393447       38.28107
2010    22      1       0.2033216       51.78277
2010    22      2       0.3652336       82.79277
2010    22      3       0.3476129       79.32155
2010    22      4       0.4195926       92.50493
2010    22      5       0.3986866       89.85622
2010    22      6       0.3045122       72.76853
2010    22      7       0.3107377       73.65283
2010    23      0       0.3221889       75.74965
2010    23      1       0.3341222       77.81021
2010    23      2       0.4886364       103.4752
2010    23      3       0.4881082       103.2384
2010    23      4       0.4102945       89.86574
2010    23      5       0.3447901       78.9893
2010    23      6       0.3405342       77.74229
2010    23      7       0.2426627       59.08826
2010    24      0       0.1780956       45.74156
2010    24      1       0.1903901       48.39537
2010    24      2       0.1896798       48.38963
2010    24      3       0.3141195       72.78703
2010    24      4       0.3585603       80.04932
2010    24      5       0.2955985       68.24407
2010    24      6       0.3176335       73.03225
2010    24      7       0.1733725       44.60656
2010    25      0       0.1979426       49.91464
2010    25      1       0.1715213       44.61553
2010    25      2       0.120038        33.40183
2010    25      3       0.1540826       40.81452
2010    25      4       0.2696355       64.20277
2010    25      5       0.2184765       54.24322
2010    25      6       0.2324241       56.88495
2010    25      7       0.2204489       54.74335
2010    26      0       0.09896507      28.41819
2010    26      1       0.06668616      20.65483
2010    26      2       0.1045583       29.33104
2010    26      3       0.1845002       47.11643
2010    26      4       0.4097504       89.38679
2010    26      5       0.4367054       94.63349
2010    26      6       0.3406537       78.24171
2010    26      7       0.2730228       66.62508
2010    27      0       0.05879697      19.48622
2010    27      1       0.04984695      16.91214
2010    27      2       0.1507497       39.7796
2010    27      3       0.2534827       61.1659
2010    27      4       0.2687728       64.69278
2010    27      5       0.3698149       83.30862
2010    27      6       0.5019167       105.2833
2010    27      7       0.4015291       89.43052
2010    28      0       0.3540695       81.20299
2010    28      1       0.3304865       76.8556
2010    28      2       0.290091        69.34498
2010    28      3       0.1941682       50.16366
2010    28      4       0.1864383       48.5941
2010    28      5       0.1788419       46.93219
2010    28      6       0.2505323       61.21055
2010    28      7       0.3729679       84.66031
2010    29      0       0.2326025       58.22515
2010    29      1       0.271814        66.0644
2010    29      2       0.1725388       46.19013
2010    29      3       0.08114112      24.5391
2010    29      4       0.1334641       37.03048
2010    29      5       0.1208798       33.89784
2010    29      6       0.1518932       40.64998
2010    29      7       0.2497196       61.35632
2010    30      0       0.3940607       88.35675
2010    30      1       0.500483        105.7507
2010    30      2       0.4723286       101.3618
2010    30      3       0.5053071       107.1956
2010    30      4       0.4093501       91.53246
2010    30      5       0.3935414       89.11393
2010    30      6       0.4006212       90.53548
2010    30      7       0.4851464       104.6848
2011    1       0       0.1913484       49.54676
2011    1       1       0.2056431       52.59731
2011    1       2       0.2074355       52.94664
2011    1       3       0.2052317       52.56044
2011    1       4       0.1851199       48.3638
2011    1       5       0.161353        43.22586
2011    1       6       0.1649786       43.94372
2011    1       7       0.1794187       47.09691
2011    2       0       0.17343         45.74845
2011    2       1       0.1548891       41.6486
2011    2       2       0.1515342       41.04024
2011    2       3       0.1378756       38.16283
2011    2       4       0.113725        32.68051
2011    2       5       0.09221312      27.55968
2011    2       6       0.0964718       28.60153
2011    2       7       0.1084376       31.46568
2011    3       0       0.1097109       31.77903
2011    3       1       0.09841521      29.04465
2011    3       2       0.09259459      27.64741
2011    3       3       0.09175788      27.45958
2011    3       4       0.09248585      27.64317
2011    3       5       0.09015209      27.10169
2011    3       6       0.08755328      26.52147
2011    3       7       0.08966191      27.07442
2011    4       0       0.0854546       26.07301
2011    4       1       0.08277008      25.44571
2011    4       2       0.08704974      26.49623
2011    4       3       0.09023972      27.2095
2011    4       4       0.09613325      28.52279
2011    4       5       0.09745834      28.83008
2011    4       6       0.09308804      27.80145
2011    4       7       0.09427216      28.05003
2011    5       0       0.1021959       29.81751
2011    5       1       0.109034        31.3071
2011    5       2       0.1117053       31.92038
2011    5       3       0.1176476       33.22057
2011    5       4       0.1161302       32.82532
2011    5       5       0.108538        31.02548
2011    5       6       0.09584347      28.0495
2011    5       7       0.0944702       27.67785
2011    6       0       0.1005482       29.04599
2011    6       1       0.1055961       30.157
2011    6       2       0.1211532       33.58266
2011    6       3       0.1487869       39.52219
2011    6       4       0.2100399       52.20806
2011    6       5       0.2173458       54.2545
2011    6       6       0.1662243       44.17834
2011    6       7       0.1387337       38.3758
2011    7       0       0.1190344       33.86006
2011    7       1       0.1102195       31.79065
2011    7       2       0.1288998       36.14925
2011    7       3       0.1735557       46.02494
2011    7       4       0.3026259       72.34785
2011    7       5       0.4168111       93.30808
2011    7       6       0.4449625       98.11707
2011    7       7       0.2832534       68.97053
2011    8       0       0.1492638       40.87309
2011    8       1       0.129234        36.24489
2011    8       2       0.1215889       34.46434
2011    8       3       0.121592        34.44008
2011    8       4       0.117223        33.36377
2011    8       5       0.1084246       31.15246
2011    8       6       0.1204941       33.81458
2011    8       7       0.1417164       38.38639
2011    9       0       0.2351816       58.35999
2011    9       1       0.2717172       66.16559
2011    9       2       0.2477436       61.51961
2011    9       3       0.2684483       65.98941
2011    9       4       0.2509409       62.82134
2011    9       5       0.1896768       49.95345
2011    9       6       0.1745718       46.58401
2011    9       7       0.1721275       45.90251
2011    10      0       0.1780376       47.09195
2011    10      1       0.1907886       49.90397
2011    10      2       0.1506479       41.13008
2011    10      3       0.1254381       35.33892
2011    10      4       0.1363798       37.66056
2011    10      5       0.1344164       37.09141
2011    10      6       0.1387959       38.06611
2011    10      7       0.1543673       41.4842
2011    11      0       0.164916        43.70491
2011    11      1       0.1727254       45.33242
2011    11      2       0.1652662       43.82918
2011    11      3       0.1530524       41.27748
2011    11      4       0.1297802       36.14217
2011    11      5       0.07977788      24.50926
2011    11      6       0.05283351      17.88329
2011    11      7       0.05306642      17.77324
2011    12      0       0.05592843      18.34131
2011    12      1       0.05845458      18.88897
2011    12      2       0.05961117      19.18587
2011    12      3       0.06740968      21.0932
2011    12      4       0.09465164      27.49401
2011    12      5       0.1402139       37.74996
2011    12      6       0.1805795       46.34234
2011    12      7       0.1734837       44.86296
2011    13      0       0.158681        41.71856
2011    13      1       0.1448099       38.81228
2011    13      2       0.1335762       36.43685
2011    13      3       0.126044        34.76439
2011    13      4       0.1029705       29.65882
2011    13      5       0.08060176      24.49633
2011    13      6       0.08191123      24.79806
2011    13      7       0.0889122       26.40407
2011    14      0       0.09094389      26.83377
2011    14      1       0.08725284      25.96692
2011    14      2       0.07211751      22.4263
2011    14      3       0.05650741      18.64441
2011    14      4       0.04480348      15.74283
2011    14      5       0.03591134      13.45589
2011    14      6       0.03398082      12.91299
2011    14      7       0.03622224      13.4695
2011    15      0       0.04156654      14.81753
2011    15      1       0.04923611      16.64982
2011    15      2       0.05719126      18.42819
2011    15      3       0.06150166      19.45565
2011    15      4       0.0604283       19.23374
2011    15      5       0.05977333      19.09808
2011    15      6       0.05570723      18.19393
2011    15      7       0.0480704       16.4086
2011    16      0       0.04499798      15.6719
2011    16      1       0.04533915      15.74973
2011    16      2       0.04759784      16.32356
2011    16      3       0.05819897      18.91828
2011    16      4       0.1067461       29.9407
2011    16      5       0.09691912      27.94793
2011    16      6       0.131732        36.06994
2011    16      7       0.1177145       32.87061
2011    17      0       0.1052009       30.0994
2011    17      1       0.09083702      26.72634
2011    17      2       0.07665992      23.40906
2011    17      3       0.06728033      21.20031
2011    17      4       0.05792679      18.95932
2011    17      5       0.06233371      19.8754
2011    17      6       0.0839207       24.96576
2011    17      7       0.1029468       29.45323
2011    18      0       0.107283        30.61784
2011    18      1       0.1041684       29.91367
2011    18      2       0.1015995       29.28923
2011    18      3       0.1074737       30.56796
2011    18      4       0.110422        31.21438
2011    18      5       0.1083623       30.78691
2011    18      6       0.1080552       30.80944
2011    18      7       0.1045787       30.17306
2011    19      0       0.09438715      27.89421
2011    19      1       0.08325876      25.24768
2011    19      2       0.06923004      21.83461
2011    19      3       0.06426999      20.55754
2011    19      4       0.06389308      20.45178
2011    19      5       0.06558684      20.9056
2011    19      6       0.06381867      20.55242
2011    19      7       0.06169747      20.08096
2011    20      0       0.06151426      20.05151
2011    20      1       0.06259651      20.31176
2011    20      2       0.0597784       19.57376
2011    20      3       0.05652613      18.73714
2011    20      4       0.05933602      19.41266
2011    20      5       0.063287        20.35916
2011    20      6       0.06244217      20.16166
2011    20      7       0.0583317       19.14352
2011    21      0       0.05399949      18.04985
2011    21      1       0.0508552       17.23948
2011    21      2       0.05091664      17.21756
2011    21      3       0.05105975      17.24809
2011    21      4       0.05054607      17.08393
2011    21      5       0.04948496      16.77321
2011    21      6       0.05149527      17.2266
2011    21      7       0.05353225      17.7229
2011    22      0       0.05554212      18.22994
2011    22      1       0.06893959      21.36335
2011    22      2       0.1085475       30.4508
2011    22      3       0.1240275       34.12226
2011    22      4       0.1261648       34.68661
2011    22      5       0.1276916       35.01747
2011    22      6       0.1415032       37.98034
2011    22      7       0.1625496       42.5911
2011    23      0       0.2079432       52.35024
2011    23      1       0.2723187       65.34319
2011    23      2       0.3302256       76.36773
2011    23      3       0.3052627       72.06519
2011    23      4       0.2923536       69.73525
2011    23      5       0.3141582       73.7019
2011    23      6       0.3602503       81.96048
2011    23      7       0.3073401       72.39055
2011    24      0       0.2692425       65.01438
2011    24      1       0.2496468       61.04519
2011    24      2       0.249256        60.80573
2011    24      3       0.2367361       58.25186
2011    24      4       0.2341996       57.73782
2011    24      5       0.2334785       57.57798
2011    24      6       0.2149548       53.95026
2011    24      7       0.1922687       49.19427
2011    25      0       0.174204        45.33408
2011    25      1       0.1696916       44.34101
2011    25      2       0.1687867       44.12683
2011    25      3       0.1718351       44.72982
2011    25      4       0.1820337       46.89114
2011    25      5       0.1842666       47.31459
2011    25      6       0.1215212       33.58813
2011    25      7       0.07492435      22.93761
2011    26      0       0.07876586      23.81175
2011    26      1       0.08351111      24.91322
2011    26      2       0.082653        24.76206
2011    26      3       0.08115867      24.48678
2011    26      4       0.07283748      22.56949
2011    26      5       0.05514873      18.30725
2011    26      6       0.0499018       17.01956
2011    26      7       0.06036931      19.47561
2011    27      0       0.06429625      20.44709
2011    27      1       0.1120118       31.73869
2011    27      2       0.2092173       52.9281
2011    27      3       0.2496973       61.44358
2011    27      4       0.2326404       58.47483
2011    27      5       0.2181292       55.61234
2011    27      6       0.1901104       49.58473
2011    27      7       0.1625179       43.37189
2011    28      0       0.1489152       40.50842
2011    28      1       0.1459615       39.82626
2011    28      2       0.1442918       39.29843
2011    28      3       0.169095        44.95872
2011    28      4       0.2105584       53.7653
2011    28      5       0.1944555       50.21243
2011    28      6       0.1753824       45.97491
2011    28      7       0.166335        43.71991
2011    29      0       0.1258125       34.74411
2011    29      1       0.0880378       26.22073
2011    29      2       0.07699211      23.67581
2011    29      3       0.07055303      22.15039
2011    29      4       0.06948796      21.91435
2011    29      5       0.06827535      21.60871
2011    29      6       0.06776777      21.43948
2011    29      7       0.0680196       21.44259
2011    30      0       0.06843368      21.55124
2011    30      1       0.06565515      20.90692
2011    30      2       0.06396662      20.53187
2011    30      3       0.06160703      20.01293
2011    30      4       0.06151359      20.01263
2011    30      5       0.06109298      19.90527
2011    30      6       0.05893144      19.35596
2011    30      7       0.05748521      18.97167
2012    1       0       0.3450198       80.10076
2012    1       1       0.4877393       105.1348
2012    1       2       0.5920022       120.6914
2012    1       3       0.6414233       127.5177
2012    1       4       0.5400216       113.5486
2012    1       5       0.4746189       103.4977
2012    1       6       0.2519864       62.79817
2012    1       7       0.3584142       83.74566
2012    2       0       0.3358521       80.21053
2012    2       1       0.1446592       40.18798
2012    2       2       0.1666632       44.71624
2012    2       3       0.343944        80.74411
2012    2       4       0.481457        105.5246
2012    2       5       0.1821525       48.70704
2012    2       6       0.1195231       34.30907
2012    2       7       0.1238295       35.1942
2012    3       0       0.116397        33.6635
2012    3       1       0.1101626       32.21036
2012    3       2       0.0961641       28.94024
2012    3       3       0.0882484       26.73162
2012    3       4       0.1010279       29.78768
2012    3       5       0.1109477       32.07027
2012    3       6       0.1149989       32.90871
2012    3       7       0.1082285       31.2817
2012    4       0       0.1087946       31.05237
2012    4       1       0.1064332       30.67648
2012    4       2       0.1566301       41.53789
2012    4       3       0.4135603       91.32944
2012    4       4       0.4137405       93.06262
2012    4       5       0.406568        92.36638
2012    4       6       0.405157        92.69476
2012    4       7       0.3774801       87.98467
2012    5       0       0.356247        84.12228
2012    5       1       0.3783253       87.78904
2012    5       2       0.5173524       110.929
2012    5       3       0.4924417       107.5029
2012    5       4       0.4065043       93.17223
2012    5       5       0.5537574       117.2792
2012    5       6       0.4470476       99.62737
2012    5       7       0.5253343       112.3033
2012    6       0       0.5629966       119.3791
2012    6       1       0.2893965       71.77545
2012    6       2       0.2736107       68.11036
2012    6       3       0.2623146       64.86673
2012    6       4       0.2750763       66.54445
2012    6       5       0.2407273       59.87891
2012    6       6       0.2615269       64.0472
2012    6       7       0.393417        88.32965
2012    7       0       0.4452339       97.30605
2012    7       1       0.3847113       87.2774
2012    7       2       0.4599103       99.00716
2012    7       3       0.2909404       69.54153
2012    7       4       0.3362118       78.07925
2012    7       5       0.3680719       83.35897
2012    7       6       0.2778665       66.44184
2012    7       7       0.1442141       39.16409
2012    8       0       0.08800746      26.31082
2012    8       1       0.07553939      23.46698
2012    8       2       0.06958624      22.06985
2012    8       3       0.0614958       20.02453
2012    8       4       0.06984661      22.09347
2012    8       5       0.07732086      23.99611
2012    8       6       0.08480639      25.83378
2012    8       7       0.08727597      26.40537
2012    9       0       0.08998172      26.91455
2012    9       1       0.1133666       32.24977
2012    9       2       0.1581612       42.2816
2012    9       3       0.2089321       52.98516
2012    9       4       0.3098963       72.4217
2012    9       5       0.3869162       86.02089
2012    9       6       0.2716645       65.62448
2012    9       7       0.1984049       50.74279
2012    10      0       0.1025307       29.7818
2012    10      1       0.07179167      22.59702
2012    10      2       0.06227949      20.29939
2012    10      3       0.05526697      18.60732
2012    10      4       0.0547321       18.54448
2012    10      5       0.04002452      14.72954
2012    10      6       0.03903943      14.40743
2012    10      7       0.04474157      15.82038
2012    11      0       0.04849845      16.74692
2012    11      1       0.05278261      17.81692
2012    11      2       0.05908131      19.45038
2012    11      3       0.06379582      20.70555
2012    11      4       0.06952361      22.13592
2012    11      5       0.08003629      24.64956
2012    11      6       0.09649989      28.5634
2012    11      7       0.1210554       34.1899
2012    12      0       0.1675007       44.40984
2012    12      1       0.214532        54.54967
2012    12      2       0.2708907       66.19847
2012    12      3       0.2960668       71.33955
2012    12      4       0.2662448       65.27102
2012    12      5       0.2466015       61.26172
2012    12      6       0.2643983       64.87501
2012    12      7       0.3009811       71.66738
2012    13      0       0.3225782       75.32588
2012    13      1       0.3481802       80.0421
2012    13      2       0.3458684       79.94199
2012    13      3       0.3147659       74.45681
2012    13      4       0.2633506       64.59799
2012    13      5       0.1795503       47.42379
2012    13      6       0.1452472       39.81235
2012    13      7       0.1772523       46.79879
2012    14      0       0.2986377       71.29023
2012    14      1       0.3761206       85.73075
2012    14      2       0.3066479       73.33142
2012    14      3       0.2244603       57.17938
2012    14      4       0.1981869       51.65204
2012    14      5       0.201231        52.05444
2012    14      6       0.2065505       52.95203
2012    14      7       0.193243        50.14828
2012    15      0       0.1754157       46.24881
2012    15      1       0.1586033       42.51911
2012    15      2       0.1270583       35.47956
2012    15      3       0.097959        28.68752
2012    15      4       0.1469436       39.73746
2012    15      5       0.2554342       62.51643
2012    15      6       0.2845765       68.35738
2012    15      7       0.2794044       67.50594
2012    16      0       0.2563639       62.98751
2012    16      1       0.1991726       51.19833
2012    16      2       0.1593745       42.51131
2012    16      3       0.1386547       37.89708
2012    16      4       0.1122343       31.83355
2012    16      5       0.0999486       28.95875
2012    16      6       0.1050852       30.14013
2012    16      7       0.1105513       31.40798
2012    17      0       0.1116596       31.67565
2012    17      1       0.1105217       31.48533
2012    17      2       0.1133522       32.23957
2012    17      3       0.1265784       35.36714
2012    17      4       0.1331377       36.89264
2012    17      5       0.1266346       35.41769
2012    17      6       0.1237486       34.67337
2012    17      7       0.1402932       38.37772
2012    18      0       0.1699013       45.05676
2012    18      1       0.1782542       46.98548
2012    18      2       0.1809896       47.67382
2012    18      3       0.1840787       48.42877
2012    18      4       0.1743333       46.37967
2012    18      5       0.1490086       40.82186
2012    18      6       0.1305794       36.65891
2012    18      7       0.1188273       33.88583
2012    19      0       0.1075874       31.05695
2012    19      1       0.09987455      29.06292
2012    19      2       0.1131897       32.01666
2012    19      3       0.1324155       36.31718
2012    19      4       0.1467655       39.63528
2012    19      5       0.1504404       40.44694
2012    19      6       0.1706535       44.84827
2012    19      7       0.2152148       54.16198
2012    20      0       0.1867404       48.24702
2012    20      1       0.1664186       43.93905
2012    20      2       0.1850179       48.07324
2012    20      3       0.2387628       59.31334
2012    20      4       0.3558828       81.73935
2012    20      5       0.3748679       85.24903
2012    20      6       0.3796071       86.01058
2012    20      7       0.3728444       84.59496
2012    21      0       0.3137176       73.93566
2012    21      1       0.2759861       66.82768
2012    21      2       0.2582922       63.40451
2012    21      3       0.2382751       59.48001
2012    21      4       0.2306048       57.94423
2012    21      5       0.22487         56.76262
2012    21      6       0.198885        51.36443
2012    21      7       0.1884047       49.14405
2012    22      0       0.1744548       46.15759
2012    22      1       0.1705064       45.30315
2012    22      2       0.1581895       42.64787
2012    22      3       0.1166915       33.21142
2012    22      4       0.08755506      26.24305
2012    22      5       0.07919481      24.16422
2012    22      6       0.09936249      28.92804
2012    22      7       0.1177888       33.22045
2012    23      0       0.1151838       32.66859
2012    23      1       0.1199145       33.82497
2012    23      2       0.1437816       39.12699
2012    23      3       0.1696467       44.68682
2012    23      4       0.1947117       50.00344
2012    23      5       0.2232654       55.92819
2012    23      6       0.2328036       57.96139
2012    23      7       0.2289568       57.10579
2012    24      0       0.2107539       53.27611
2012    24      1       0.2257834       56.09677
2012    24      2       0.222639        55.6699
2012    24      3       0.1979319       50.83475
2012    24      4       0.1703642       45.17315
2012    24      5       0.1209969       34.13785
2012    24      6       0.09911413      28.79485
2012    24      7       0.09118777      26.9173
2012    25      0       0.1053946       30.23304
2012    25      1       0.1065215       30.66952
2012    25      2       0.1253427       35.10545
2012    25      3       0.1561697       42.12262
2012    25      4       0.1882945       48.80211
2012    25      5       0.2630179       64.00348
2012    25      6       0.2286841       57.6927
2012    25      7       0.1640109       44.2402
2012    26      0       0.1334985       37.41749
2012    26      1       0.1237177       35.10506
2012    26      2       0.1216848       34.62989
2012    26      3       0.1109122       32.14254
2012    26      4       0.1040897       30.53638
2012    26      5       0.1025378       30.15203
2012    26      6       0.1004929       29.58691
2012    26      7       0.1005733       29.53467
2012    27      0       0.1141814       32.66807
2012    27      1       0.1279813       35.83451
2012    27      2       0.1281019       35.91705
2012    27      3       0.1277224       35.83144
2012    27      4       0.1140843       32.67005
2012    27      5       0.09870969      28.92897
2012    27      6       0.100806        29.39512
2012    27      7       0.1112055       31.79534
2012    28      0       0.109407        31.43497
2012    28      1       0.1228575       34.39862
2012    28      2       0.157553        41.89081
2012    28      3       0.1976729       50.17698
2012    28      4       0.187202        47.8433
2012    28      5       0.2803607       67.34112
2012    28      6       0.2947879       71.046
2012    28      7       0.1928921       50.44633
2012    29      0       0.1761058       47.10343
2012    29      1       0.214573        55.31758
2012    29      2       0.2000408       52.23448
2012    29      3       0.3813554       87.03808
2012    29      4       0.3967742       89.76875
2012    29      5       0.4580735       99.93493
2012    29      6       0.3187273       74.85638
2012    29      7       0.0406982       14.80765
2012    30      0       0.05109646      17.41138
2012    30      1       0.08397811      25.56803
2012    30      2       0.1308657       36.52743
2012    30      3       0.1747226       46.29677
2012    30      4       0.1964225       50.83571
2012    30      5       0.09915427      28.86018
2012    30      6       0.1252136       34.74026
2012    30      7       0.2683462       64.9335
2013    1       0       0.2514873       63.00225
2013    1       1       0.2409106       60.73964
2013    1       2       0.220835        56.54986
2013    1       3       0.2027771       52.73542
2013    1       4       0.1917536       50.27607
2013    1       5       0.1734414       46.17096
2013    1       6       0.168007        44.94901
2013    1       7       0.1664458       44.60704
2013    2       0       0.1602682       43.13365
2013    2       1       0.1569772       42.38259
2013    2       2       0.1442154       39.56687
2013    2       3       0.1200768       34.09518
2013    2       4       0.1068572       30.99404
2013    2       5       0.1028472       29.95569
2013    2       6       0.1039          30.24685
2013    2       7       0.09955632      29.37119
2013    3       0       0.1002566       29.47875
2013    3       1       0.1266301       35.59493
2013    3       2       0.1679495       44.74269
2013    3       3       0.180302        47.6858
2013    3       4       0.2220209       56.84816
2013    3       5       0.2652897       65.78882
2013    3       6       0.3287602       77.96338
2013    3       7       0.4303268       95.58936
2013    4       0       0.4507304       98.72172
2013    4       1       0.3486538       81.02937
2013    4       2       0.3367129       78.41039
2013    4       3       0.3333155       77.82548
2013    4       4       0.3568828       82.25015
2013    4       5       0.3710029       84.79888
2013    4       6       0.3466278       80.27741
2013    4       7       0.3332192       77.88413
2013    5       0       0.3614058       82.97801
2013    5       1       0.4278153       94.34749
2013    5       2       0.2464713       61.14988
2013    5       3       0.2262284       57.40902
2013    5       4       0.4751178       103.5005
2013    5       5       0.5666676       117.0811
2013    5       6       0.6322735       126.7539
2013    5       7       0.3263324       77.3779
2013    6       0       0.3347339       78.91553
2013    6       1       0.5433646       113.5072
2013    6       2       0.636661        126.1342
2013    6       3       0.5508053       113.8211
2013    6       4       0.5130388       108.049
2013    6       5       0.6196632       124.2388
2013    6       6       0.6050314       121.7421
2013    6       7       0.3697809       84.46864
2013    7       0       0.08666621      26.30918
2013    7       1       0.1115951       31.95114
2013    7       2       0.2187509       55.63603
2013    7       3       0.2412119       60.46551
2013    7       4       0.2545753       63.17521
2013    7       5       0.2724726       66.73173
2013    7       6       0.2696351       66.23969
2013    7       7       0.247905        61.91235
2013    8       0       0.186892        49.03185
2013    8       1       0.1569264       42.26841
2013    8       2       0.1703706       45.38165
2013    8       3       0.1830479       48.26861
2013    8       4       0.1745243       46.44991
2013    8       5       0.1588656       43.16308
2013    8       6       0.1707807       45.6705
2013    8       7       0.1861938       48.94131
2013    9       0       0.1770509       47.20774
2013    9       1       0.1556616       42.63354
2013    9       2       0.1207914       34.61862
2013    9       3       0.09378103      28.06951
2013    9       4       0.09462407      28.18662
2013    9       5       0.09015875      27.02768
2013    9       6       0.1201503       34.31615
2013    9       7       0.1422685       39.54216
2013    10      0       0.1396031       38.99712
2013    10      1       0.1397744       38.99984
2013    10      2       0.152097        41.6593
2013    10      3       0.1789889       47.33963
2013    10      4       0.1870341       49.31085
2013    10      5       0.2734          66.30787
2013    10      6       0.3521859       80.97114
2013    10      7       0.4147943       92.20785
2013    11      0       0.3989389       89.79618
2013    11      1       0.3704491       84.80327
2013    11      2       0.4012292       90.03447
2013    11      3       0.4860841       103.9558
2013    11      4       0.6044712       122.1234
2013    11      5       0.5020575       106.9185
2013    11      6       0.4414525       96.42542
2013    11      7       0.4545758       98.59373
2013    12      0       0.5337891       111.1341
2013    12      1       0.4332386       95.5614
2013    12      2       0.2916664       70.1948
2013    12      3       0.189519        49.31329
2013    12      4       0.1851141       48.44962
2013    12      5       0.1893689       49.46834
2013    12      6       0.1751662       46.43944
2013    12      7       0.1694364       45.15911
2013    13      0       0.1541548       41.64498
2013    13      1       0.1575325       41.90806
2013    13      2       0.1778465       45.86485
2013    13      3       0.1405441       38.01891
2013    13      4       0.1249219       34.65482
2013    13      5       0.1287183       35.55916
2013    13      6       0.1229048       34.3168
2013    13      7       0.1384325       37.54893
2013    14      0       0.155705        41.14707
2013    14      1       0.1833092       47.0283
2013    14      2       0.2149534       53.88209
2013    14      3       0.2801413       67.09213
2013    14      4       0.3176715       74.4886
2013    14      5       0.3259444       76.04395
2013    14      6       0.379834        85.48018
2013    14      7       0.3741803       84.81659
2013    15      0       0.3259778       76.17882
2013    15      1       0.3031506       71.8249
2013    15      2       0.2956836       70.3755
2013    15      3       0.277618        66.9863
2013    15      4       0.2966212       70.70524
2013    15      5       0.2846722       68.47896
2013    15      6       0.2503677       61.80293
2013    15      7       0.2436849       60.48282
2013    16      0       0.2406104       59.87119
2013    16      1       0.2223704       56.14816
2013    16      2       0.2087774       53.38267
2013    16      3       0.2199665       55.71149
2013    16      4       0.231982        58.19591
2013    16      5       0.2161342       55.03735
2013    16      6       0.1993948       51.53633
2013    16      7       0.177476        46.82838
2013    17      0       0.1675453       44.60754
2013    17      1       0.1703164       45.05932
2013    17      2       0.1729382       45.41817
2013    17      3       0.2104145       53.21754
2013    17      4       0.257085        62.75338
2013    17      5       0.3010433       71.65238
2013    17      6       0.3295602       77.17325
2013    17      7       0.3035071       72.47993
2013    18      0       0.2809343       68.10825
2013    18      1       0.2560564       63.12803
2013    18      2       0.2442805       60.61814
2013    18      3       0.2201288       55.82514
2013    18      4       0.1904991       49.81869
2013    18      5       0.1751091       46.52354
2013    18      6       0.1894012       49.56912
2013    18      7       0.2040336       52.7082
2013    19      0       0.2160969       55.14163
2013    19      1       0.2130527       54.32221
2013    19      2       0.1784313       46.76701
2013    19      3       0.1249732       34.5679
2013    19      4       0.1753667       46.00593
2013    19      5       0.2493235       61.78335
2013    19      6       0.2277488       57.51756
2013    19      7       0.4055302       89.98934
2013    20      0       0.2082096       53.04037
2013    20      1       0.1639993       43.34243
2013    20      2       0.1982529       50.2389
2013    20      3       0.1782919       46.86353
2013    20      4       0.5035117       106.9802
2013    20      5       0.5349703       111.2597
2013    20      6       0.233558        58.70404
2013    20      7       0.2731462       66.46583
2013    21      0       0.2879557       68.58779
2013    21      1       0.3549936       80.59558
2013    21      2       0.3807438       86.09915
2013    21      3       0.2849298       68.84489
2013    21      4       0.3442033       79.70227
2013    21      5       0.4495046       97.38453
2013    21      6       0.5827455       116.7648
2013    21      7       0.6816037       131.0894
2013    22      0       0.5090721       107.3796
2013    22      1       0.3364563       77.97995
2013    22      2       0.2908761       69.30355
2013    22      3       0.2866034       68.97419
2013    22      4       0.3787811       86.45303
2013    22      5       0.2756594       67.14755
2013    22      6       0.1217719       34.29466
2013    22      7       0.1188301       33.45747
2013    23      0       0.1327208       36.62078
2013    23      1       0.1338104       36.97265
2013    23      2       0.1294634       36.06226
2013    23      3       0.1753325       46.2013
2013    23      4       0.3368201       78.77245
2013    23      5       0.3564685       82.41165
2013    23      6       0.502715        107.038
2013    23      7       0.4168385       93.30623
2013    24      0       0.1972712       51.31109
2013    24      1       0.2127066       53.706
2013    24      2       0.3531395       80.35969
2013    24      3       0.3539316       80.82055
2013    24      4       0.4194025       92.51022
2013    24      5       0.4214067       92.9411
2013    24      6       0.6508833       125.8358
2013    24      7       0.1576766       41.82385
2013    25      0       0.2033365       51.87923
2013    25      1       0.1834445       47.89593
2013    25      2       0.1247624       34.74089
2013    25      3       0.2568526       62.43055
2013    25      4       0.4393954       95.20254
2013    25      5       0.3553558       80.39236
2013    25      6       0.3205409       73.99206
2013    25      7       0.3272339       75.24322
2013    26      0       0.3556          80.50426
2013    26      1       0.2534932       61.0362
2013    26      2       0.3466781       78.36405
2013    26      3       0.3646142       81.82266
2013    26      4       0.3889875       86.31752
2013    26      5       0.2156872       54.09582
2013    26      6       0.1848525       47.58289
2013    26      7       0.1571124       41.76681
2013    27      0       0.1609937       42.55419
2013    27      1       0.2105329       53.06236
2013    27      2       0.2982705       69.95038
2013    27      3       0.1984346       50.19665
2013    27      4       0.06564386      20.78987
2013    27      5       0.03947247      14.33382
2013    27      6       0.04010366      14.48576
2013    27      7       0.03956701      14.34347
2013    28      0       0.03754522      13.80277
2013    28      1       0.03889407      14.14036
2013    28      2       0.04171267      14.85322
2013    28      3       0.04685396      16.12631
2013    28      4       0.04980257      16.83219
2013    28      5       0.05259125      17.53572
2013    28      6       0.05760622      18.8515
2013    28      7       0.04722282      16.28478
2013    29      0       0.04368734      15.38986
2013    29      1       0.04899081      16.45757
2013    29      2       0.06173994      19.41424
2013    29      3       0.1022469       28.98884
2013    29      4       0.07963133      24.13138
2013    29      5       0.05579192      18.39318
2013    29      6       0.04430831      15.5585
2013    29      7       0.0485231       16.57522
2013    30      0       0.05339099      17.7907
2013    30      1       0.05504621      18.29596
2013    30      2       0.0645996       20.4314
2013    30      3       0.1422136       38.22439
2013    30      4       0.2260626       55.85813
2013    30      5       0.332731        76.4432
2013    30      6       0.3687982       83.4406
2013    30      7       0.4348841       94.87689
2014    1       0       0.1566528       41.478
2014    1       1       0.1330682       36.45326
2014    1       2       0.126636        35.38753
2014    1       3       0.1190216       33.70892
2014    1       4       0.1039218       30.23924
2014    1       5       0.1125401       32.23752
2014    1       6       0.1359953       37.5409
2014    1       7       0.1681513       44.58776
2014    2       0       0.1822836       47.75304
2014    2       1       0.1746917       46.23564
2014    2       2       0.1658702       44.37461
2014    2       3       0.1562181       42.26154
2014    2       4       0.1546127       41.88939
2014    2       5       0.1600573       43.01444
2014    2       6       0.1667843       44.49352
2014    2       7       0.183863        48.25111
2014    3       0       0.2074104       53.29854
2014    3       1       0.2194681       55.82369
2014    3       2       0.198282        51.33723
2014    3       3       0.1654947       44.1993
2014    3       4       0.1478883       40.2781
2014    3       5       0.1402592       38.60035
2014    3       6       0.1321004       36.80144
2014    3       7       0.1299441       36.35397
2014    4       0       0.13427         37.34222
2014    4       1       0.1439214       39.56117
2014    4       2       0.1464361       40.10494
2014    4       3       0.1426943       39.2927
2014    4       4       0.1397878       38.6125
2014    4       5       0.1335628       37.14891
2014    4       6       0.1323634       36.83897
2014    4       7       0.1284101       35.93857
2014    5       0       0.1244408       34.95153
2014    5       1       0.1239085       34.7924
2014    5       2       0.1278654       35.68799
2014    5       3       0.1344476       37.24572
2014    5       4       0.1380589       38.18551
2014    5       5       0.1359043       37.75742
2014    5       6       0.1627168       43.88332
2014    5       7       0.1671431       44.9038
2014    6       0       0.1754056       46.79092
2014    6       1       0.2341628       59.4474
2014    6       2       0.2563633       64.09072
2014    6       3       0.2188022       56.49988
2014    6       4       0.1478276       40.94757
2014    6       5       0.1361515       37.94682
2014    6       6       0.2063745       53.06266
2014    6       7       0.3796212       86.58786
2014    7       0       0.4010607       90.91817
2014    7       1       0.3912105       89.36266
2014    7       2       0.4231633       95.04364
2014    7       3       0.4645068       102.1067
2014    7       4       0.3978046       90.46258
2014    7       5       0.2983391       72.0284
2014    7       6       0.3396555       79.28976
2014    7       7       0.3922483       88.28687
2014    8       0       0.2629764       64.16803
2014    8       1       0.357684        81.21358
2014    8       2       0.5008962       106.7944
2014    8       3       0.4313525       94.76962
2014    8       4       0.3754787       85.3872
2014    8       5       0.3572461       82.19579
2014    8       6       0.3166886       74.24716
2014    8       7       0.2891153       69.54041
2014    9       0       0.283514        68.49399
2014    9       1       0.320391        75.25305
2014    9       2       0.3275183       76.56709
2014    9       3       0.3312456       77.12
2014    9       4       0.4960379       105.6045
2014    9       5       0.4151844       92.41163
2014    9       6       0.3488819       80.77315
2014    9       7       0.2986178       71.5529
2014    10      0       0.2611707       64.49553
2014    10      1       0.2289816       58.10626
2014    10      2       0.194961        51.06294
2014    10      3       0.1617833       43.90915
2014    10      4       0.156697        42.74652
2014    10      5       0.1573589       42.83592
2014    10      6       0.1432226       39.59553
2014    10      7       0.1511658       41.2636
2014    11      0       0.1730952       46.0143
2014    11      1       0.2107801       54.09149
2014    11      2       0.2348824       58.95442
2014    11      3       0.2387606       59.61126
2014    11      4       0.2948507       69.87044
2014    11      5       0.2858302       69.14634
2014    11      6       0.2287363       57.92587
2014    11      7       0.1893934       49.53213
2014    12      0       0.1725671       45.67165
2014    12      1       0.1676266       44.42141
2014    12      2       0.187411        48.3213
2014    12      3       0.2640147       64.18807
2014    12      4       0.3775575       86.02795
2014    12      5       0.4445094       96.85884
2014    12      6       0.3604243       82.31434
2014    12      7       0.3062346       72.52716
2014    13      0       0.3626958       82.47159
2014    13      1       0.3703916       83.9023
2014    13      2       0.4192168       92.71552
2014    13      3       0.5057114       106.5776
2014    13      4       0.4806698       102.6078
2014    13      5       0.549709        113.6293
2014    13      6       0.5283355       110.4042
2014    13      7       0.5099212       107.3878
2014    14      0       0.4863853       103.2945
2014    14      1       0.4947143       104.6805
2014    14      2       0.4517494       98.13337
2014    14      3       0.3735002       84.96949
2014    14      4       0.3387882       78.7252
2014    14      5       0.2982068       70.98419
2014    14      6       0.3483938       79.91621
2014    14      7       0.4551918       98.1103
2014    15      0       0.335251        77.89517
2014    15      1       0.3001232       71.3948
2014    15      2       0.2708578       65.84954
2014    15      3       0.2361963       59.13261
2014    15      4       0.2108492       54.03531
2014    15      5       0.1837155       48.33586
2014    15      6       0.1808438       47.6981
2014    15      7       0.1733471       46.08188
2014    16      0       0.1503534       41.03969
2014    16      1       0.1267126       35.65829
2014    16      2       0.1225106       34.50008
2014    16      3       0.1151703       32.53721
2014    16      4       0.15842         42.05429
2014    16      5       0.351965        81.15949
2014    16      6       0.3771321       86.35229
2014    16      7       0.3971781       89.74527
2014    17      0       0.3918746       87.28852
2014    17      1       0.5076726       107.4479
2014    17      2       0.3397748       79.89305
2014    17      3       0.1283512       36.14514
2014    17      4       0.1115368       31.94488
2014    17      5       0.1555779       41.74997
2014    17      6       0.174918        46.13055
2014    17      7       0.1616419       43.22106
2014    18      0       0.1351583       37.15661
2014    18      1       0.088871        26.34554
2014    18      2       0.07882466      24.03382
2014    18      3       0.09597691      28.07061
2014    18      4       0.3247808       75.84268
2014    18      5       0.4789035       102.6348
2014    18      6       0.3715202       84.33676
2014    18      7       0.3700299       84.30098
2014    19      0       0.3856734       86.88809
2014    19      1       0.4240838       93.39719
2014    19      2       0.399835        89.2768
2014    19      3       0.3766574       85.06585
2014    19      4       0.524188        108.0428
2014    19      5       0.4326614       93.2494
2014    19      6       0.3319187       76.20858
2014    19      7       0.449804        96.02983
2014    20      0       0.3018318       70.79514
2014    20      1       0.1895597       48.4506
2014    20      2       0.1497219       39.98039
2014    20      3       0.1194039       33.34064
2014    20      4       0.1104064       31.33148
2014    20      5       0.08349641      25.07127
2014    20      6       0.07509099      23.15066
2014    20      7       0.06236285      20.13214
2014    21      0       0.06336625      20.36745
2014    21      1       0.06142547      19.83919
2014    21      2       0.07345997      22.68959
2014    21      3       0.118939        33.26643
2014    21      4       0.1594544       42.21264
2014    21      5       0.1826544       47.01865
2014    21      6       0.1666697       43.67403
2014    21      7       0.1208437       33.81911
2014    22      0       0.1124815       31.85937
2014    22      1       0.1329384       36.43414
2014    22      2       0.1402262       38.32278
2014    22      3       0.09531396      28.19153
2014    22      4       0.08909816      26.66184
2014    22      5       0.1157969       32.8159
2014    22      6       0.1128423       32.06797
2014    22      7       0.09399784      27.59165
2014    23      0       0.111573        31.483
2014    23      1       0.1044961       29.87072
2014    23      2       0.08287021      24.80115
2014    23      3       0.1024218       29.37002
2014    23      4       0.1266515       34.88213
2014    23      5       0.1609982       42.50712
2014    23      6       0.1640744       43.35314
2014    23      7       0.1648672       43.58135
2014    24      0       0.1606968       42.8517
2014    24      1       0.1641131       43.59923
2014    24      2       0.182156        47.122
2014    24      3       0.2284412       56.52707
2014    24      4       0.2560901       62.25919
2014    24      5       0.2780393       66.29984
2014    24      6       0.1323499       36.2368
2014    24      7       0.04953401      16.86733
2014    25      0       0.04905316      16.71249
2014    25      1       0.06321603      20.2192
2014    25      2       0.07085764      22.02679
2014    25      3       0.06678955      20.94372
2014    25      4       0.08133513      24.21278
2014    25      5       0.106324        30.0548
2014    25      6       0.147352        39.16049
2014    25      7       0.1617481       42.51296
2014    26      0       0.165908        43.61484
2014    26      1       0.1006933       29.18277
2014    26      2       0.07546462      23.23489
2014    26      3       0.06527512      20.81019
2014    26      4       0.05372807      17.95562
2014    26      5       0.05528071      18.25191
2014    26      6       0.07588052      23.11198
2014    26      7       0.1094712       30.82514
2014    27      0       0.1675912       43.7797
2014    27      1       0.272542        65.4819
2014    27      2       0.343731        78.99884
2014    27      3       0.3608657       82.25292
2014    27      4       0.2907343       69.47523
2014    27      5       0.2742669       66.34813
2014    27      6       0.278327        67.05583
2014    27      7       0.2781003       66.92588
2014    28      0       0.2548748       62.42106
2014    28      1       0.2416026       59.87319
2014    28      2       0.2387984       59.38252
2014    28      3       0.2385522       59.43909
2014    28      4       0.2221087       56.24317
2014    28      5       0.2060467       52.83398
2014    28      6       0.217448        54.99708
2014    28      7       0.2324816       57.89785
2014    29      0       0.2909362       69.4805
2014    29      1       0.3975894       89.22737
2014    29      2       0.448308        97.60638
2014    29      3       0.3698789       84.11819
2014    29      4       0.3284647       76.80648
2014    29      5       0.3108005       73.79941
2014    29      6       0.2461696       60.99703
2014    29      7       0.2264639       56.88475
2014    30      0       0.4196014       92.22321
2014    30      1       0.4681165       100.6177
2014    30      2       0.4317586       94.60461
2014    30      3       0.4105101       90.88863
2014    30      4       0.4506808       97.59967
2014    30      5       0.4148947       92.29541
2014    30      6       0.4774038       102.3409
2014    30      7       0.3969226       89.09309
2015    1       0       0.0518239       17.47767
2015    1       1       0.03018455      12.04349
2015    1       2       0.033421        12.98212
2015    1       3       0.03332066      12.97185
2015    1       4       0.03025097      12.163
2015    1       5       0.02710285      11.28799
2015    1       6       0.03024554      12.07405
2015    1       7       0.03960862      14.4673
2015    2       0       0.05814366      19.0785
2015    2       1       0.08232209      25.01377
2015    2       2       0.1068527       30.67146
2015    2       3       0.09696022      28.42935
2015    2       4       0.0808583       24.57521
2015    2       5       0.08214915      24.77809
2015    2       6       0.147204        39.92566
2015    2       7       0.1421301       39.04298
2015    3       0       0.1637131       43.22647
2015    3       1       0.1771717       45.75736
2015    3       2       0.144944        39.08971
2015    3       3       0.1280674       35.62544
2015    3       4       0.1004732       29.51906
2015    3       5       0.08598057      26.12906
2015    3       6       0.0800159       24.8573
2015    3       7       0.08044302      25.01144
2015    4       0       0.1031444       30.26116
2015    4       1       0.1108834       32.10951
2015    4       2       0.116281        33.33378
2015    4       3       0.1165534       33.42336
2015    4       4       0.1130392       32.68626
2015    4       5       0.1074934       31.4743
2015    4       6       0.1007576       29.91097
2015    4       7       0.09882244      29.44077
2015    5       0       0.1002285       29.78163
2015    5       1       0.09745521      29.11903
2015    5       2       0.09558673      28.6287
2015    5       3       0.09633422      28.806
2015    5       4       0.09476432      28.43312
2015    5       5       0.09237021      27.85176
2015    5       6       0.090414        27.36963
2015    5       7       0.09005528      27.27155
2015    6       0       0.0924304       27.84354
2015    6       1       0.09449937      28.34803
2015    6       2       0.09542149      28.55985
2015    6       3       0.09679391      28.90041
2015    6       4       0.09473282      28.4025
2015    6       5       0.09011371      27.29977
2015    6       6       0.09211672      27.74528
2015    6       7       0.09723612      28.91331
2015    7       0       0.0962129       28.60848
2015    7       1       0.09106567      27.34352
2015    7       2       0.09263908      27.66611
2015    7       3       0.1027515       30.06781
2015    7       4       0.1031994       30.25742
2015    7       5       0.08392087      25.77401
2015    7       6       0.09231522      27.64443
2015    7       7       0.1506112       40.55243
2015    8       0       0.2211493       55.92485
2015    8       1       0.233874        59.26722
2015    8       2       0.1254036       35.79403
2015    8       3       0.1179162       33.61136
2015    8       4       0.1434666       38.86464
2015    8       5       0.1726166       45.67783
2015    8       6       0.1260168       35.86584
2015    8       7       0.06191048      20.21265
2015    9       0       0.08934972      26.47554
2015    9       1       0.1105703       31.40157
2015    9       2       0.11541         32.23525
2015    9       3       0.09810448      28.21473
2015    9       4       0.1260419       34.86392
2015    9       5       0.2331792       58.67522
2015    9       6       0.256683        63.14804
2015    9       7       0.4438516       96.5787
2015    10      0       0.2089693       53.9399
2015    10      1       0.09786663      28.67088
2015    10      2       0.2196763       54.62982
2015    10      3       0.3947218       89.52618
2015    10      4       0.4251417       95.18838
2015    10      5       0.4153897       93.72012
2015    10      6       0.2810099       69.51513
2015    10      7       0.2083186       54.18853
2015    11      0       0.2257594       58.19933
2015    11      1       0.3416318       81.05575
2015    11      2       0.4082064       92.72357
2015    11      3       0.4538167       100.2003
2015    11      4       0.4298939       96.08156
2015    11      5       0.3158984       75.68393
2015    11      6       0.2556353       63.79854
2015    11      7       0.2175615       55.84521
2015    12      0       0.1777799       47.37215
2015    12      1       0.1414897       39.17787
2015    12      2       0.1597626       43.02601
2015    12      3       0.2243395       57.09823
2015    12      4       0.2233337       57.19979
2015    12      5       0.2032713       52.98933
2015    12      6       0.1678208       45.39033
2015    12      7       0.1352068       38.08273
2015    13      0       0.112594        32.79492
2015    13      1       0.1070116       31.38208
2015    13      2       0.09416688      28.17827
2015    13      3       0.1153209       33.04082
2015    13      4       0.1405532       38.86141
2015    13      5       0.1414816       39.22052
2015    13      6       0.1430047       39.56284
2015    13      7       0.1466666       40.25377
2015    14      0       0.136448        37.88864
2015    14      1       0.119753        33.94333
2015    14      2       0.1194216       33.72694
2015    14      3       0.1013265       29.75483
2015    14      4       0.08772848      26.61608
2015    14      5       0.09487356      28.30161
2015    14      6       0.1450563       39.78094
2015    14      7       0.2181249       55.54041
2015    15      0       0.176721        46.77712
2015    15      1       0.1916425       49.88024
2015    15      2       0.2318564       58.11008
2015    15      3       0.2681922       65.42676
2015    15      4       0.2823117       68.46448
2015    15      5       0.2889942       69.92099
2015    15      6       0.3091981       73.8622
2015    15      7       0.3502305       81.60498
2015    16      0       0.3397689       79.1041
2015    16      1       0.422239        93.68131
2015    16      2       0.3302426       78.03917
2015    16      3       0.3117342       74.83439
2015    16      4       0.1923224       50.42248
2015    16      5       0.1735619       46.27376
2015    16      6       0.1933904       50.58316
2015    16      7       0.2292566       58.22361
2015    17      0       0.2375017       60.01029
2015    17      1       0.2387302       60.3936
2015    17      2       0.1466805       40.41412
2015    17      3       0.1008655       29.64419
2015    17      4       0.1017495       29.76935
2015    17      5       0.09747042      28.71891
2015    17      6       0.09894866      29.13611
2015    17      7       0.1346628       37.16674
2015    18      0       0.2067209       52.69667
2015    18      1       0.2174538       54.99216
2015    18      2       0.2228044       56.18082
2015    18      3       0.2769346       67.04991
2015    18      4       0.3298122       77.21993
2015    18      5       0.3328784       77.63395
2015    18      6       0.1374128       38.3034
2015    18      7       0.1114749       32.15615
2015    19      0       0.1079318       31.23011
2015    19      1       0.1604978       43.267
2015    19      2       0.1554357       42.08041
2015    19      3       0.1462115       39.95765
2015    19      4       0.1280398       35.85814
2015    19      5       0.08749311      26.44442
2015    19      6       0.05530218      18.5403
2015    19      7       0.04710288      16.47958
2015    20      0       0.04917884      17.0152
2015    20      1       0.05986254      19.65268
2015    20      2       0.08921238      26.86827
2015    20      3       0.09031025      27.21753
2015    20      4       0.08240386      25.26831
2015    20      5       0.0720714       22.68507
2015    20      6       0.08568756      25.81559
2015    20      7       0.136193        37.3166
2015    21      0       0.1875907       48.50069
2015    21      1       0.2172183       54.59005
2015    21      2       0.2109876       53.42204
2015    21      3       0.2825542       67.98705
2015    21      4       0.2806867       67.48338
2015    21      5       0.3079546       73.22585
2015    21      6       0.322507        75.89175
2015    21      7       0.2036491       52.12627
2015    22      0       0.1431639       39.02496
2015    22      1       0.1511159       41.02237
2015    22      2       0.2190175       56.07507
2015    22      3       0.3051062       73.39577
2015    22      4       0.4296844       95.442
2015    22      5       0.4789391       103.6604
2015    22      6       0.403868        91.07405
2015    22      7       0.4049247       91.09552
2015    23      0       0.325086        76.80051
2015    23      1       0.2275466       57.67049
2015    23      2       0.2161974       55.16563
2015    23      3       0.2919771       70.14967
2015    23      4       0.3745662       85.45442
2015    23      5       0.4397314       96.83004
2015    23      6       0.3454781       80.07761
2015    23      7       0.4715332       102.0324
2015    24      0       0.3338793       78.68199
2015    24      1       0.3245652       76.19526
2015    24      2       0.3030433       71.67526
2015    24      3       0.2907328       69.36186
2015    24      4       0.3808926       85.23038
2015    24      5       0.4289387       92.93438
2015    24      6       0.5104257       106.1809
2015    24      7       0.3824534       85.26352
2015    25      0       0.3107424       72.6289
2015    25      1       0.3592147       81.81802
2015    25      2       0.3124027       73.1945
2015    25      3       0.3051592       72.13243
2015    25      4       0.3876962       86.7629
2015    25      5       0.4464615       96.87879
2015    25      6       0.4223065       93.15139
2015    25      7       0.5945217       119.2719
2015    26      0       0.6976468       132.4239
2015    26      1       0.3823059       86.04325
2015    26      2       0.2488284       60.99421
2015    26      3       0.1516985       40.87173
2015    26      4       0.2092321       53.05657
2015    26      5       0.2399363       58.94867
2015    26      6       0.2471817       60.08307
2015    26      7       0.2891641       68.45605
2015    27      0       0.380492        85.66915
2015    27      1       0.4047594       89.94576
2015    27      2       0.4333812       93.8012
2015    27      3       0.2842152       67.54438
2015    27      4       0.3540881       80.31874
2015    27      5       0.4601626       98.77822
2015    27      6       0.4980004       102.7574
2015    27      7       0.2824212       66.91348
2015    28      0       0.3211087       74.38329
2015    28      1       0.3564522       80.61502
2015    28      2       0.3150044       73.2808
2015    28      3       0.3847964       85.60171
2015    28      4       0.3694066       82.81167
2015    28      5       0.223077        55.48089
2015    28      6       0.2249557       55.39946
2015    28      7       0.1870089       48.01964
2015    29      0       0.1516029       40.74164
2015    29      1       0.1242909       34.64516
2015    29      2       0.1382925       37.49757
2015    29      3       0.1606766       42.17685
2015    29      4       0.1593874       41.9553
2015    29      5       0.1000672       28.78259
2015    29      6       0.04631256      15.94953
2015    29      7       0.06533179      20.59554
2015    30      0       0.08819198      25.82416
2015    30      1       0.1834943       46.74775
2015    30      2       0.1842799       47.10726
2015    30      3       0.1717839       44.37595
2015    30      4       0.1923299       48.9313
2015    30      5       0.1553882       41.30037
2015    30      6       0.1604444       42.20044
2015    30      7       0.1725618       44.83328
2016    1       0       0.1219171       34.11547
2016    1       1       0.2005309       51.21588
2016    1       2       0.2195615       55.61259
2016    1       3       0.1248104       35.16237
2016    1       4       0.0988176       28.74889
2016    1       5       0.12519         34.97773
2016    1       6       0.1851216       48.28968
2016    1       7       0.2308281       57.98873
2016    2       0       0.2265883       57.24807
2016    2       1       0.2122466       54.32622
2016    2       2       0.2048709       52.80882
2016    2       3       0.1838058       48.42005
2016    2       4       0.1557843       42.35422
2016    2       5       0.1399206       38.80527
2016    2       6       0.2154188       55.15938
2016    2       7       0.2295824       57.86342
2016    3       0       0.2105471       53.91881
2016    3       1       0.2388558       59.74325
2016    3       2       0.2584127       63.55499
2016    3       3       0.2295274       57.62784
2016    3       4       0.2618861       64.22462
2016    3       5       0.3727047       85.02983
2016    3       6       0.3813328       86.38903
2016    3       7       0.4449463       96.72447
2016    4       0       0.437159        95.37126
2016    4       1       0.4793095       101.8802
2016    4       2       0.2736723       66.51719
2016    4       3       0.1747012       46.51285
2016    4       4       0.2336548       58.99702
2016    4       5       0.1590754       42.98542
2016    4       6       0.1431852       39.3956
2016    4       7       0.1513712       41.12811
2016    5       0       0.1612527       43.39444
2016    5       1       0.1686423       45.15343
2016    5       2       0.1445496       39.55277
2016    5       3       0.1555489       41.88867
2016    5       4       0.1706771       45.12114
2016    5       5       0.2861686       68.99045
2016    5       6       0.3240726       76.75913
2016    5       7       0.3673516       84.93861
2016    6       0       0.3704539       85.62625
2016    6       1       0.4098629       92.0448
2016    6       2       0.4302931       95.36406
2016    6       3       0.3903276       88.8312
2016    6       4       0.3435908       80.56543
2016    6       5       0.3682696       84.58963
2016    6       6       0.3593104       83.13333
2016    6       7       0.2853809       69.66762
2016    7       0       0.2638425       65.25108
2016    7       1       0.2619126       64.9197
2016    7       2       0.2829849       67.89804
2016    7       3       0.3613372       82.86781
2016    7       4       0.4239054       94.59895
2016    7       5       0.5124689       109.9364
2016    7       6       0.7203829       138.4112
2016    7       7       0.4576362       100.1475
2016    8       0       0.4895855       105.7786
2016    8       1       0.3626347       84.59569
2016    8       2       0.308987        73.38189
2016    8       3       0.2705205       65.24551
2016    8       4       0.4785732       102.5865
2016    8       5       0.4511156       99.01139
2016    8       6       0.4563475       99.44331
2016    8       7       0.4357426       95.85169
2016    9       0       0.4202073       93.17979
2016    9       1       0.5418822       112.7225
2016    9       2       0.5324195       111.0922
2016    9       3       0.4076716       91.70424
2016    9       4       0.4691177       101.199
2016    9       5       0.5183191       108.1315
2016    9       6       0.3386549       78.54434
2016    9       7       0.3329913       77.19591
2016    10      0       0.1456388       39.60966
2016    10      1       0.07860551      24.04714
2016    10      2       0.08483084      25.25009
2016    10      3       0.1807832       46.56367
2016    10      4       0.2674803       64.58425
2016    10      5       0.3162399       74.02525
2016    10      6       0.3239306       75.53094
2016    10      7       0.1532449       41.22695
2016    11      0       0.2108098       53.33941
2016    11      1       0.405177        89.20624
2016    11      2       0.5049119       105.0697
2016    11      3       0.3264184       76.06539
2016    11      4       0.1794603       46.93777
2016    11      5       0.1161006       32.7034
2016    11      6       0.1894694       48.96227
2016    11      7       0.2708729       65.62717
2016    12      0       0.2162083       54.77521
2016    12      1       0.1866116       48.60844
2016    12      2       0.1712806       45.3911
2016    12      3       0.1780238       46.84896
2016    12      4       0.501333        106.7169
2016    12      5       0.4790657       102.283
2016    12      6       0.5065174       106.5501
2016    12      7       0.1259344       35.04635
2016    13      0       0.2807191       66.72929
2016    13      1       0.3059905       71.69776
2016    13      2       0.1772807       46.19351
2016    13      3       0.09359895      27.82678
2016    13      4       0.05313612      17.91453
2016    13      5       0.07836013      23.83338
2016    13      6       0.1246428       34.36876
2016    13      7       0.180035        46.21639
2016    14      0       0.1814046       46.45735
2016    14      1       0.1607885       42.11827
2016    14      2       0.195046        49.45805
2016    14      3       0.2198562       54.74849
2016    14      4       0.2352881       57.89667
2016    14      5       0.2249222       55.98312
2016    14      6       0.2360321       58.1116
2016    14      7       0.2589084       62.34779
2016    15      0       0.1905436       48.61998
2016    15      1       0.1583739       41.83194
2016    15      2       0.142303        38.30241
2016    15      3       0.117447        32.77433
2016    15      4       0.1000316       28.76569
2016    15      5       0.07038459      21.91066
2016    15      6       0.06223621      19.9073
2016    15      7       0.07245764      22.47694
2016    16      0       0.06120972      19.69165
2016    16      1       0.0786535       23.66567
2016    16      2       0.1201955       33.28842
2016    16      3       0.2045552       51.65159
2016    16      4       0.2780018       66.70997
2016    16      5       0.3129712       73.76559
2016    16      6       0.3040762       72.09981
2016    16      7       0.3328585       77.33721
2016    17      0       0.2871691       69.10313
2016    17      1       0.1779359       46.9143
2016    17      2       0.1571432       42.31175
2016    17      3       0.1731795       45.8531
2016    17      4       0.2275279       57.25041
2016    17      5       0.2991312       71.28203
2016    17      6       0.3154042       74.3261
2016    17      7       0.2990892       71.50196
2016    18      0       0.2570276       63.5707
2016    18      1       0.2333989       58.84267
2016    18      2       0.2144533       54.98977
2016    18      3       0.2002133       52.05876
2016    18      4       0.1826153       48.323
2016    18      5       0.1685151       45.26913
2016    18      6       0.1643699       44.36952
2016    18      7       0.1656324       44.67794
2016    19      0       0.1630337       44.08091
2016    19      1       0.1644299       44.32012
2016    19      2       0.1723096       46.00556
2016    19      3       0.1687782       45.00407
2016    19      4       0.1700089       44.95572
2016    19      5       0.191226        49.66002
2016    19      6       0.1700634       45.26659
2016    19      7       0.1558049       42.0198
2016    20      0       0.1904482       48.7128
2016    20      1       0.1933762       48.99478
2016    20      2       0.1707031       44.45298
2016    20      3       0.1654959       43.42611
2016    20      4       0.1844087       47.4549
2016    20      5       0.1572868       41.84306
2016    20      6       0.1411624       38.45363
2016    20      7       0.1258337       35.11376
2016    21      0       0.1174096       33.25558
2016    21      1       0.1167327       33.07605
2016    21      2       0.1203564       33.93738
2016    21      3       0.1222369       34.43976
2016    21      4       0.1223596       34.4937
2016    21      5       0.1201714       33.99861
2016    21      6       0.115279        32.85601
2016    21      7       0.1110025       31.83066
2016    22      0       0.109893        31.49345
2016    22      1       0.1164706       32.88027
2016    22      2       0.1236008       34.47085
2016    22      3       0.1288431       35.64084
2016    22      4       0.1283271       35.48136
2016    22      5       0.1274844       35.26575
2016    22      6       0.1268229       35.16061
2016    22      7       0.1223698       34.19878
2016    23      0       0.1176621       33.15075
2016    23      1       0.1159577       32.79075
2016    23      2       0.1194134       33.65347
2016    23      3       0.1234737       34.609
2016    23      4       0.1214592       34.17663
2016    23      5       0.1163534       33.03769
2016    23      6       0.1113481       31.87042
2016    23      7       0.1059098       30.63333
2016    24      0       0.09482249      28.0805
2016    24      1       0.08355782      25.42251
2016    24      2       0.07956754      24.47574
2016    24      3       0.07418892      23.20251
2016    24      4       0.07354068      23.07178
2016    24      5       0.07484976      23.39812
2016    24      6       0.06976701      22.11756
2016    24      7       0.06576598      21.1081
2016    25      0       0.069462        21.99819
2016    25      1       0.07934649      24.40564
2016    25      2       0.08883546      26.67941
2016    25      3       0.1032376       30.06462
2016    25      4       0.1241765       34.92815
2016    25      5       0.1556187       42.02662
2016    25      6       0.2095705       53.45583
2016    25      7       0.2671354       64.92534
2016    26      0       0.2601008       63.60478
2016    26      1       0.2585571       63.31253
2016    26      2       0.2817808       67.79489
2016    26      3       0.2765654       66.98231
2016    26      4       0.2768254       67.15224
2016    26      5       0.2711364       66.11405
2016    26      6       0.3012924       71.86064
2016    26      7       0.4435035       96.80617
2016    27      0       0.4491272       98.12832
2016    27      1       0.2611819       63.83374
2016    27      2       0.1357627       36.98906
2016    27      3       0.09438376      27.67453
2016    27      4       0.09052591      26.79559
2016    27      5       0.09641114      28.04745
2016    27      6       0.08187977      24.58909
2016    27      7       0.08119151      24.52149
2016    28      0       0.1444274       39.24717
2016    28      1       0.2501242       61.5614
2016    28      2       0.4083251       90.22194
2016    28      3       0.2904188       68.8193
2016    28      4       0.3004766       70.39661
2016    28      5       0.4762858       100.7991
2016    28      6       0.443649        95.73625
2016    28      7       0.4152217       90.95314
2016    29      0       0.368686        83.00826
2016    29      1       0.3172875       73.68567
2016    29      2       0.2824197       67.0801
2016    29      3       0.2654053       63.83741
2016    29      4       0.2701207       64.6002
2016    29      5       0.3029794       70.43828
2016    29      6       0.3015248       69.6292
2016    29      7       0.2193341       53.96584
2016    30      0       0.1664449       43.08308
2016    30      1       0.128583        34.91563
2016    30      2       0.1058143       29.86368
2016    30      3       0.07846705      23.65134
2016    30      4       0.04439917      15.52234
2016    30      5       0.04174714      14.68596
2016    30      6       0.06825919      20.99163
2016    30      7       0.09423091      27.13955
2017    1       0       0.08538947      25.74665
2017    1       1       0.08714297      26.22225
2017    1       2       0.08935904      26.6915
2017    1       3       0.09434799      27.76686
2017    1       4       0.09955784      28.96157
2017    1       5       0.09417843      27.74285
2017    1       6       0.08489587      25.65418
2017    1       7       0.08297423      25.27568
2017    2       0       0.08148264      24.89564
2017    2       1       0.1182104       33.16982
2017    2       2       0.1547296       41.56549
2017    2       3       0.152654        41.35182
2017    2       4       0.1476479       40.32668
2017    2       5       0.1421646       39.19191
2017    2       6       0.1338388       37.3235
2017    2       7       0.135953        37.69509
2017    3       0       0.1853616       48.31209
2017    3       1       0.222474        55.8535
2017    3       2       0.303149        71.26022
2017    3       3       0.4177914       91.30316
2017    3       4       0.3480402       79.12328
2017    3       5       0.3121294       72.50194
2017    3       6       0.3594485       80.98155
2017    3       7       0.3612084       81.58403
2017    4       0       0.3440991       78.65804
2017    4       1       0.2239798       55.79239
2017    4       2       0.1740186       45.54799
2017    4       3       0.1556864       41.73459
2017    4       4       0.158284        42.57461
2017    4       5       0.1083232       31.27663
2017    4       6       0.08381281      25.51297
2017    4       7       0.07685865      23.83592
2017    5       0       0.07576869      23.62575
2017    5       1       0.07167052      22.65178
2017    5       2       0.06122746      20.07774
2017    5       3       0.05517142      18.54489
2017    5       4       0.05305433      17.99075
2017    5       5       0.05106411      17.47548
2017    5       6       0.05082772      17.41721
2017    5       7       0.051828        17.66911
2017    6       0       0.05411468      18.24373
2017    6       1       0.0584692       19.34646
2017    6       2       0.05725589      19.0532
2017    6       3       0.05647051      18.87058
2017    6       4       0.06518601      21.00885
2017    6       5       0.1153057       32.85047
2017    6       6       0.2131977       54.32353
2017    6       7       0.2666156       65.1829
2017    7       0       0.2958902       70.96243
2017    7       1       0.2920748       69.83418
2017    7       2       0.3105965       73.38903
2017    7       3       0.2721516       66.36382
2017    7       4       0.2472838       61.58968
2017    7       5       0.3113699       73.91021
2017    7       6       0.2673703       65.0501
2017    7       7       0.2040615       52.17181
2017    8       0       0.2045552       52.07884
2017    8       1       0.2289456       56.98747
2017    8       2       0.2336407       58.06562
2017    8       3       0.230892        57.43075
2017    8       4       0.318961        74.20389
2017    8       5       0.4520194       97.00924
2017    8       6       0.2602635       62.67415
2017    8       7       0.3310568       75.72284
2017    9       0       0.3847232       86.21995
2017    9       1       0.2544876       62.36707
2017    9       2       0.1746926       45.91969
2017    9       3       0.1786308       46.78654
2017    9       4       0.371635        84.48439
2017    9       5       0.1996463       51.26912
2017    9       6       0.1309046       36.12829
2017    9       7       0.116249        32.78791
2017    10      0       0.1096086       31.30579
2017    10      1       0.1058433       30.37239
2017    10      2       0.1199397       33.53094
2017    10      3       0.1393283       37.97027
2017    10      4       0.1226437       34.33725
2017    10      5       0.1059489       30.53143
2017    10      6       0.1124067       31.80365
2017    10      7       0.2373161       58.45372
2017    11      0       0.3181363       74.24317
2017    11      1       0.3438436       78.99698
2017    11      2       0.3406257       78.59608
2017    11      3       0.351707        80.67965
2017    11      4       0.3611771       82.19375
2017    11      5       0.4104025       90.3498
2017    11      6       0.4947368       104.2536
2017    11      7       0.478802        101.8119
2017    12      0       0.3672828       83.6222
2017    12      1       0.2727369       66.43169
2017    12      2       0.1653669       43.68758
2017    12      3       0.2442035       60.37928
2017    12      4       0.321939        75.44712
2017    12      5       0.3879299       86.74411
2017    12      6       0.2694798       65.13508
2017    12      7       0.2438749       60.46284
2017    13      0       0.2587192       63.40281
2017    13      1       0.2006912       51.77036
2017    13      2       0.2550468       62.44262
2017    13      3       0.2905319       69.70356
2017    13      4       0.3152242       74.70657
2017    13      5       0.2697546       65.54555
2017    13      6       0.3983253       88.75154
2017    13      7       0.337073        78.01854
2017    14      0       0.2881382       69.16443
2017    14      1       0.2568549       63.46543
2017    14      2       0.2323837       58.6788
2017    14      3       0.2123924       54.55638
2017    14      4       0.2868568       69.50527
2017    14      5       0.272265        66.38667
2017    14      6       0.2523894       62.36242
2017    14      7       0.2733951       66.51364
2017    15      0       0.25915         63.8144
2017    15      1       0.3966641       88.96167
2017    15      2       0.4874203       103.9541
2017    15      3       0.4211361       93.41893
2017    15      4       0.4363096       96.36736
2017    15      5       0.4130852       92.51284
2017    15      6       0.3606584       83.31603
2017    15      7       0.3138163       74.71385
2017    16      0       0.2689805       65.9463
2017    16      1       0.2505156       61.94954
2017    16      2       0.1875838       48.82882
2017    16      3       0.2092972       52.54179
2017    16      4       0.3159445       73.21223
2017    16      5       0.2669682       64.07687
2017    16      6       0.2268285       56.31767
2017    16      7       0.2411431       59.23948
2017    17      0       0.2511482       61.01399
2017    17      1       0.2930178       69.20558
2017    17      2       0.3834058       85.51316
2017    17      3       0.3769884       84.37915
2017    17      4       0.3841841       85.54344
2017    17      5       0.4030619       88.71787
2017    17      6       0.4228406       92.24499
2017    17      7       0.390838        87.11525
2017    18      0       0.4228711       92.43849
2017    18      1       0.3978486       88.31321
2017    18      2       0.2984709       70.47153
2017    18      3       0.1744797       45.59764
2017    18      4       0.2391088       59.45068
2017    18      5       0.2580977       63.09932
2017    18      6       0.2405438       59.37698
2017    18      7       0.24378         59.99274
2017    19      0       0.2505939       61.25474
2017    19      1       0.2540564       61.87193
2017    19      2       0.2353087       58.21685
2017    19      3       0.2671913       64.51035
2017    19      4       0.3399486       77.83075
2017    19      5       0.3664721       82.72166
2017    19      6       0.3708296       83.31559
2017    19      7       0.3202222       73.96485
2017    20      0       0.3251674       74.49528
2017    20      1       0.2561695       61.31609
2017    20      2       0.2182408       53.66254
2017    20      3       0.2587632       61.2507
2017    20      4       0.1507971       39.31067
2017    20      5       0.08558954      25.12441
2017    20      6       0.05550158      18.10412
2017    20      7       0.04396938      15.26255
2017    21      0       0.05345526      17.53516
2017    21      1       0.07383421      22.31941
2017    21      2       0.1157027       31.96346
2017    21      3       0.1533497       40.34883
2017    21      4       0.1853765       47.3539
2017    21      5       0.2248941       55.58112
2017    21      6       0.231909        57.08009
2017    21      7       0.2148536       53.63596
2017    22      0       0.1875874       48.1849
2017    22      1       0.2094493       52.64336
2017    22      2       0.2939405       69.50764
2017    22      3       0.3090125       72.59428
2017    22      4       0.252719        61.95123
2017    22      5       0.2324035       57.75999
2017    22      6       0.1312081       36.21861
2017    22      7       0.1079899       31.02655
2017    23      0       0.08320481      25.11992
2017    23      1       0.09455031      27.78895
2017    23      2       0.1188144       33.56601
2017    23      3       0.1364216       37.72321
2017    23      4       0.1511913       41.145
2017    23      5       0.1606692       43.27143
2017    23      6       0.1497162       40.98217
2017    23      7       0.1334555       37.34911
2017    24      0       0.113501        32.6835
2017    24      1       0.08498298      25.83767
2017    24      2       0.07155505      22.46592
2017    24      3       0.08761069      26.30991
2017    24      4       0.1133822       32.41726
2017    24      5       0.1099046       31.6697
2017    24      6       0.0938777       27.84934
2017    24      7       0.09233446      27.39805
2017    25      0       0.09770236      28.43951
2017    25      1       0.08165534      24.86385
2017    25      2       0.06729306      21.50837
2017    25      3       0.06115467      19.99971
2017    25      4       0.06248026      20.30337
2017    25      5       0.06423813      20.72979
2017    25      6       0.06420734      20.71846
2017    25      7       0.07000902      22.09004
2017    26      0       0.08782741      26.16707
2017    26      1       0.08854255      26.33422
2017    26      2       0.08121619      24.77298
2017    26      3       0.1141647       32.53912
2017    26      4       0.2832579       68.00718
2017    26      5       0.3135827       73.46959
2017    26      6       0.3527696       80.17851
2017    26      7       0.374536        84.14176
2017    27      0       0.3404749       78.29426
2017    27      1       0.4632787       98.88643
2017    27      2       0.4921275       103.323
2017    27      3       0.4420857       95.38359
2017    27      4       0.4238165       92.65052
2017    27      5       0.4451604       96.01892
2017    27      6       0.4242687       92.34345
2017    27      7       0.2715271       64.99349
2017    28      0       0.2751394       65.40516
2017    28      1       0.2794553       66.14228
2017    28      2       0.2751066       65.34538
2017    28      3       0.2653082       63.26795
2017    28      4       0.1949161       49.34672
2017    28      5       0.1418804       38.22504
2017    28      6       0.1378195       37.39564
2017    28      7       0.1754462       45.45499
2017    29      0       0.1607685       42.58363
2017    29      1       0.1147707       32.38109
2017    29      2       0.1222622       34.00919
2017    29      3       0.1559057       41.56152
2017    29      4       0.1685205       44.26995
2017    29      5       0.1403104       38.07764
2017    29      6       0.1202115       33.3828
2017    29      7       0.1574121       41.63823
2017    30      0       0.2404396       59.44505
2017    30      1       0.3798931       86.12628
2017    30      2       0.296939        70.86732
2017    30      3       0.273405        67.17019
2017    30      4       0.3324778       78.32545
2017    30      5       0.3688076       85.02153
2017    30      6       0.3863992       88.2805
2017    30      7       0.3613949       83.61904
2018    1       0       0.1266421       35.43073
2018    1       1       0.3528432       81.91983
2018    1       2       0.540658        114.2716
2018    1       3       0.5485034       115.8088
2018    1       4       0.542986        115.0161
2018    1       5       0.642149        129.2309
2018    1       6       0.6094049       124.823
2018    1       7       0.5561857       116.9133
2018    2       0       0.4957508       107.7842
2018    2       1       0.4953984       107.6164
2018    2       2       0.54116         114.4765
2018    2       3       0.4556164       100.9547
2018    2       4       0.411081        93.39603
2018    2       5       0.4191111       94.70098
2018    2       6       0.4106511       93.37186
2018    2       7       0.3988139       91.44845
2018    3       0       0.4052409       92.63
2018    3       1       0.4292855       96.86946
2018    3       2       0.4563358       101.4606
2018    3       3       0.426835        96.5155
2018    3       4       0.3291716       78.8065
2018    3       5       0.2403054       60.82068
2018    3       6       0.2102117       54.17373
2018    3       7       0.1875686       49.1826
2018    4       0       0.1642307       43.96172
2018    4       1       0.1438907       39.30857
2018    4       2       0.1061348       30.58309
2018    4       3       0.1010946       29.44761
2018    4       4       0.1402383       38.75175
2018    4       5       0.1247167       35.10685
2018    4       6       0.1017695       29.76977
2018    4       7       0.08540292      25.82277
2018    5       0       0.06529548      20.95302
2018    5       1       0.05970551      19.61463
2018    5       2       0.07882123      24.47729
2018    5       3       0.09969409      29.51208
2018    5       4       0.1132684       32.66458
2018    5       5       0.1157324       33.18718
2018    5       6       0.1105587       31.87597
2018    5       7       0.1155868       32.90039
2018    6       0       0.1196369       33.86002
2018    6       1       0.1362511       37.83066
2018    6       2       0.1543986       42.0079
2018    6       3       0.1507813       41.2315
2018    6       4       0.1408879       39.01663
2018    6       5       0.1252949       35.48406
2018    6       6       0.1142439       32.94137
2018    6       7       0.115745        33.25901
2018    7       0       0.114007        32.79025
2018    7       1       0.1088404       31.56025
2018    7       2       0.1069504       31.11806
2018    7       3       0.1020383       29.96604
2018    7       4       0.09452951      28.21292
2018    7       5       0.08632446      26.31799
2018    7       6       0.07084195      22.58725
2018    7       7       0.0605985       20.08848
2018    8       0       0.0581164       19.44303
2018    8       1       0.06143569      20.18283
2018    8       2       0.07304995      22.97782
2018    8       3       0.08634783      26.16999
2018    8       4       0.09437922      28.13384
2018    8       5       0.1011323       29.70806
2018    8       6       0.1083177       31.34672
2018    8       7       0.1143114       32.84628
2018    9       0       0.1271148       35.90008
2018    9       1       0.1359371       37.96743
2018    9       2       0.1301362       36.68933
2018    9       3       0.1127798       32.72023
2018    9       4       0.09656664      28.92756
2018    9       5       0.08956965      27.2328
2018    9       6       0.0875462       26.7058
2018    9       7       0.08853385      26.89944
2018    10      0       0.08617994      26.28526
2018    10      1       0.07956504      24.64716
2018    10      2       0.07668004      23.94362
2018    10      3       0.0760691       23.78763
2018    10      4       0.07347823      23.11647
2018    10      5       0.07032188      22.32244
2018    10      6       0.06860925      21.88873
2018    10      7       0.06983598      22.17533
2018    11      0       0.06750172      21.56135
2018    11      1       0.06197087      20.14617
2018    11      2       0.05860767      19.2992
2018    11      3       0.05884114      19.37629
2018    11      4       0.05813074      19.20192
2018    11      5       0.05349788      18.03518
2018    11      6       0.05394395      18.13008
2018    11      7       0.05525764      18.4703
2018    12      0       0.05400064      18.18707
2018    12      1       0.05885184      19.37996
2018    12      2       0.07255388      22.77845
2018    12      3       0.08104607      24.81328
2018    12      4       0.08686661      26.10567
2018    12      5       0.09663357      28.37112
2018    12      6       0.1071154       30.82718
2018    12      7       0.1249518       34.9655
2018    13      0       0.1368332       37.545
2018    13      1       0.1617097       42.89115
2018    13      2       0.1669021       44.18274
2018    13      3       0.1539511       41.4861
2018    13      4       0.1583208       42.47389
2018    13      5       0.1499844       40.7835
2018    13      6       0.1341602       37.32501
2018    13      7       0.1394661       38.50582
2018    14      0       0.202239        52.17094
2018    14      1       0.2603869       63.97021
2018    14      2       0.2447234       60.78954
2018    14      3       0.1637227       43.71646
2018    14      4       0.2482176       61.49476
2018    14      5       0.1100212       31.88207
2018    14      6       0.07678772      23.65009
2018    14      7       0.07798172      23.5952
2018    15      0       0.1073153       30.31301
2018    15      1       0.0717577       22.31376
2018    15      2       0.1233004       34.25639
2018    15      3       0.08503751      25.31635
2018    15      4       0.18589         47.54097
2018    15      5       0.1625397       42.33777
2018    15      6       0.1345159       36.31004
2018    15      7       0.1188985       32.85712
2018    16      0       0.1096214       30.76254
2018    16      1       0.1067804       30.02372
2018    16      2       0.1251036       34.06133
2018    16      3       0.137214        36.83509
2018    16      4       0.1020298       29.18103
2018    16      5       0.06442775      20.41727
2018    16      6       0.06418757      20.24405
2018    16      7       0.0639245       20.17685
2018    17      0       0.07861635      23.58369
2018    17      1       0.1058138       30.01215
2018    17      2       0.1213621       33.63011
2018    17      3       0.1414568       38.05987
2018    17      4       0.1767783       45.58073
2018    17      5       0.2810296       66.5077
2018    17      6       0.2190628       55.01094
2018    17      7       0.2033359       51.60782
2018    18      0       0.2139964       53.7398
2018    18      1       0.2315677       57.25132
2018    18      2       0.2777232       66.35076
2018    18      3       0.3670697       82.69019
2018    18      4       0.4946755       104.1511
2018    18      5       0.5275794       109.407
2018    18      6       0.5050099       106.0724
2018    18      7       0.4947663       105.0418
2018    19      0       0.4143113       92.68609
2018    19      1       0.2981833       71.38516
2018    19      2       0.1123529       31.86208
2018    19      3       0.09146308      26.64069
2018    19      4       0.1831084       46.55313
2018    19      5       0.1985407       50.26734
2018    19      6       0.2044494       52.16953
2018    19      7       0.2826994       68.07045
2018    20      0       0.3973167       88.72124
2018    20      1       0.4700258       100.7968
2018    20      2       0.3978496       89.06892
2018    20      3       0.3892026       87.57969
2018    20      4       0.4176232       92.0759
2018    20      5       0.4968309       104.9547
2018    20      6       0.4914419       104.1642
2018    20      7       0.4788956       102.4033
2018    21      0       0.5368296       111.3969
2018    21      1       0.4622334       99.48215
2018    21      2       0.5523394       113.522
2018    21      3       0.5055213       106.304
2018    21      4       0.4536165       98.1748
2018    21      5       0.4771694       101.801
2018    21      6       0.4086432       90.77549
2018    21      7       0.3670343       83.52985
2018    22      0       0.3382528       78.38453
2018    22      1       0.3107473       73.32947
2018    22      2       0.305742        72.27732
2018    22      3       0.3647561       82.82376
2018    22      4       0.3507179       80.34013
2018    22      5       0.3439773       79.25464
2018    22      6       0.298405        70.81892
2018    22      7       0.2479526       61.02742
2018    23      0       0.2055448       52.40411
2018    23      1       0.1743511       45.78209
2018    23      2       0.1518666       40.9536
2018    23      3       0.1299272       36.18238
2018    23      4       0.1180599       33.50603
2018    23      5       0.09325099      27.76488
2018    23      6       0.07547824      23.52019
2018    23      7       0.07156135      22.44181
2018    24      0       0.0678196       21.37805
2018    24      1       0.06767834      21.24077
2018    24      2       0.0711651       22.06865
2018    24      3       0.09577889      27.86845
2018    24      4       0.151965        40.73292
2018    24      5       0.2326336       57.9074
2018    24      6       0.3331188       77.17504
2018    24      7       0.3454446       79.65577
2018    25      0       0.3444055       79.66556
2018    25      1       0.3730044       84.96793
2018    25      2       0.369738        84.43667
2018    25      3       0.367656        84.00877
2018    25      4       0.3848317       87.17995
2018    25      5       0.4124824       92.1074
2018    25      6       0.4576504       99.28054
2018    25      7       0.361571        83.67833
2018    26      0       0.3382906       78.98526
2018    26      1       0.4195857       93.16615
2018    26      2       0.4596488       100.1866
2018    26      3       0.5599697       115.6719
2018    26      4       0.5285825       109.965
2018    26      5       0.2545955       62.70588
2018    26      6       0.3253283       75.32389
2018    26      7       0.412168        91.05423
2018    27      0       0.4316044       94.6961
2018    27      1       0.3419238       79.55445
2018    27      2       0.4073664       90.95396
2018    27      3       0.6458093       127.922
2018    27      4       0.5761939       117.0264
2018    27      5       0.5567072       113.8226
2018    27      6       0.4517134       97.35694
2018    27      7       0.5750445       116.4186
2018    28      0       0.3483807       80.43221
2018    28      1       0.2305626       57.58811
2018    28      2       0.2399338       59.1457
2018    28      3       0.2375797       58.59825
2018    28      4       0.3074265       72.06497
2018    28      5       0.3343955       76.74499
2018    28      6       0.296188        69.56166
2018    28      7       0.2584744       62.47468
2018    29      0       0.2485039       60.48898
2018    29      1       0.2213514       55.0264
2018    29      2       0.1902389       48.5827
2018    29      3       0.1760622       45.61762
2018    29      4       0.1725638       44.88901
2018    29      5       0.1712351       44.61891
2018    29      6       0.1714055       44.62534
2018    29      7       0.1609538       42.38952
2018    30      0       0.1332515       36.42233
2018    30      1       0.08820972      26.24903
2018    30      2       0.04828436      16.65081
2018    30      3       0.02857643      11.60753
2018    30      4       0.02615545      10.92264
2018    30      5       0.03339714      12.76055
2018    30      6       0.04099288      14.61318
2018    30      7       0.05271955      17.37118
