####################################################################################################
# Month: 11Nov                                                                                     #
# Station: BGA                                                                                     #
# Frequency: 345 GHz                                                                               #
# Columns are: year    day     segment         tau     Tb (K)                                      #
####################################################################################################
2009    1       0       0.2445857       60.48823
2009    1       1       0.1888322       49.4732
2009    1       2       0.1864274       49.28225
2009    1       3       0.180877        48.25298
2009    1       4       0.1542573       42.44879
2009    1       5       0.1349023       37.9456
2009    1       6       0.1392796       38.65253
2009    1       7       0.1542765       41.73152
2009    2       0       0.1985494       50.76916
2009    2       1       0.2510994       60.98363
2009    2       2       0.2436423       59.65093
2009    2       3       0.2093222       53.40607
2009    2       4       0.1782068       47.45436
2009    2       5       0.1634761       44.72831
2009    2       6       0.1933126       51.16481
2009    2       7       0.2384844       59.74704
2009    3       0       0.3205945       74.43849
2009    3       1       0.7159802       134.6758
2009    3       2       1.178554        181.7673
2009    3       3       1.400494        197.368
2009    3       4       1.580943        210.0048
2009    3       5       1.269152        190.5922
2009    3       6       0.9057203       158.0068
2009    3       7       0.9496701       162.9982
2009    4       0       0.7595666       141.4969
2009    4       1       0.7998699       144.523
2009    4       2       0.691541        131.9396
2009    4       3       0.4028482       90.59179
2009    4       4       0.3560455       82.68385
2009    4       5       0.4230823       94.67936
2009    4       6       0.4325371       95.66326
2009    4       7       0.741463        140.0695
2009    5       0       1.024583        170.6529
2009    5       1       1.336426        196.0875
2009    5       2       1.117176        180.2227
2009    5       3       0.8094323       150.2074
2009    5       4       0.7468797       143.6975
2009    5       5       0.7975529       149.3916
2009    5       6       0.98986         168.5462
2009    5       7       1.294508        193.9139
2009    6       0       1.565566        210.8846
2009    6       1       1.583171        211.6949
2009    6       2       1.369172        198.9467
2009    6       3       1.206457        187.3488
2009    6       4       1.205693        187.3344
2009    6       5       1.276253        192.9525
2009    6       6       1.301138        195.1736
2009    6       7       1.419045        203.1905
2009    7       0       1.511244        208.7079
2009    7       1       1.357469        199.2477
2009    7       2       1.259923        192.3811
2009    7       3       1.336987        197.6718
2009    7       4       1.445215        204.5447
2009    7       5       1.431929        203.3893
2009    7       6       1.35074         197.9861
2009    7       7       1.566247        211.5057
2009    8       0       1.342469        198.283
2009    8       1       1.042324        174.6488
2009    8       2       1.029527        173.7652
2009    8       3       1.221714        189.5932
2009    8       4       1.595248        213.3972
2009    8       5       1.735434        221.6788
2009    8       6       1.613446        215.2534
2009    8       7       1.29389         195.2691
2009    9       0       1.104867        180.254
2009    9       1       0.8656204       156.6311
2009    9       2       0.9564363       165.1806
2009    9       3       1.579516        212.5175
2009    9       4       1.598683        213.9194
2009    9       5       1.411468        202.8295
2009    9       6       1.239198        190.9963
2009    9       7       1.112778        179.9179
2009    10      0       1.375372        199.7668
2009    10      1       1.529195        208.568
2009    10      2       1.553286        208.752
2009    10      3       1.486657        204.5688
2009    10      4       1.240392        187.5404
2009    10      5       1.232118        186.8543
2009    10      6       0.9913352       166.1648
2009    10      7       0.8282657       150.1906
2009    11      0       0.797894        146.3386
2009    11      1       0.6311721       125.339
2009    11      2       0.5010577       106.155
2009    11      3       0.7041022       134.0952
2009    11      4       1.160534        180.5564
2009    11      5       1.198746        183.1117
2009    11      6       1.064704        172.4858
2009    11      7       1.018873        168.495
2009    12      0       0.9117873       158.2755
2009    12      1       0.7504141       140.3425
2009    12      2       0.6389896       125.5495
2009    12      3       0.8582371       151.2287
2009    12      4       0.977334        164.6102
2009    12      5       0.8629469       153.6769
2009    12      6       0.6342306       126.5483
2009    12      7       0.495366        105.9358
2009    13      0       0.3476283       81.16604
2009    13      1       0.3191529       76.10201
2009    13      2       0.4633003       100.8874
2009    13      3       0.5847739       118.6118
2009    13      4       0.4891527       104.639
2009    13      5       0.4429786       97.59356
2009    13      6       0.5114883       108.3789
2009    13      7       0.5579631       115.7303
2009    14      0       0.5839002       119.101
2009    14      1       0.6070308       122.4446
2009    14      2       0.8663845       154.3316
2009    14      3       1.039654        171.6929
2009    14      4       0.8415758       152.5221
2009    14      5       0.7533562       142.5007
2009    14      6       0.6973385       135.7168
2009    14      7       0.5630685       117.3533
2009    15      0       0.475938        104.2738
2009    15      1       0.6278363       126.102
2009    15      2       0.763209        141.6597
2009    15      3       0.9713061       163.4353
2009    15      4       0.9850476       165.3398
2009    15      5       0.8190868       148.926
2009    15      6       0.7657059       142.7998
2009    15      7       0.6061903       121.9301
2009    16      0       0.5174686       108.4797
2009    16      1       0.6192138       122.7479
2009    16      2       0.8229297       148.1739
2009    16      3       1.078034        173.5488
2009    16      4       1.172843        182.7182
2009    16      5       1.236724        188.9239
2009    16      6       1.390731        200.2317
2009    16      7       1.362159        198.9071
2009    17      0       1.316115        196.5602
2009    17      1       1.259139        193.1136
2009    17      2       1.123376        182.7617
2009    17      3       1.02262         174.1193
2009    17      4       0.9037586       162.4769
2009    17      5       0.7679979       147.1661
2009    17      6       0.6617762       133.489
2009    17      7       0.5569647       118.2561
2009    18      0       0.3544577       84.31746
2009    18      1       0.2707429       67.61706
2009    18      2       0.3130406       76.09513
2009    18      3       0.4484054       99.94489
2009    18      4       0.466188        102.5979
2009    18      5       0.3894527       89.55476
2009    18      6       0.4387152       97.27857
2009    18      7       0.6155913       124.323
2009    19      0       0.8408877       152.716
2009    19      1       1.007035        169.5137
2009    19      2       0.5871718       121.4881
2009    19      3       0.4006977       91.83162
2009    19      4       0.3027571       73.48535
2009    19      5       0.2630687       65.26136
2009    19      6       0.3566841       82.70704
2009    19      7       0.6481266       129.3067
2009    20      0       0.8086073       150.381
2009    20      1       0.7686717       146.1524
2009    20      2       0.7026125       138.0265
2009    20      3       0.6570768       132.0795
2009    20      4       0.5991027       123.9941
2009    20      5       0.5010698       109.1223
2009    20      6       0.3780972       88.33975
2009    20      7       0.2608216       65.80824
2009    21      0       0.1638531       45.16685
2009    21      1       0.1335764       38.35344
2009    21      2       0.1601333       44.54237
2009    21      3       0.1544325       43.05903
2009    21      4       0.3877799       89.89115
2009    21      5       0.559469        117.5695
2009    21      6       0.4742771       104.1938
2009    21      7       0.3791791       88.18124
2009    22      0       0.3704308       86.01927
2009    22      1       0.4768908       103.0077
2009    22      2       0.5451436       113.7877
2009    22      3       0.502186        107.5496
2009    22      4       0.4745644       103.5996
2009    22      5       0.4721007       103.5391
2009    22      6       0.4666651       102.9062
2009    22      7       0.4994264       108.1598
2009    23      0       0.5046585       108.7919
2009    23      1       0.5077862       109.2289
2009    23      2       0.5097317       109.528
2009    23      3       0.4957682       107.3111
2009    23      4       0.4848091       105.5121
2009    23      5       0.4469634       99.41052
2009    23      6       0.4030628       91.96532
2009    23      7       0.4233874       94.99526
2009    24      0       0.4723305       102.5716
2009    24      1       0.4569012       100.2466
2009    24      2       0.3843421       88.39187
2009    24      3       0.3040402       73.37178
2009    24      4       0.3363955       78.54467
2009    24      5       0.5141487       107.9829
2009    24      6       0.7646794       141.5153
2009    24      7       0.7591893       141.1112
2009    25      0       0.5111778       108.2323
2009    25      1       0.2123022       55.07479
2009    25      2       0.285415        68.72754
2009    25      3       0.557588        114.9278
2009    25      4       0.7784385       144.7182
2009    25      5       0.8825724       156.3753
2009    25      6       0.8851344       157.303
2009    25      7       0.465825        102.8209
2009    26      0       0.2741943       68.3263
2009    26      1       0.2280433       58.78997
2009    26      2       0.2176615       56.51886
2009    26      3       0.2125077       55.28291
2009    26      4       0.2055327       53.82849
2009    26      5       0.1979148       52.08536
2009    26      6       0.204835        53.42099
2009    26      7       0.2436156       61.41802
2009    27      0       0.3030319       72.85219
2009    27      1       0.3697885       85.01601
2009    27      2       0.455954        99.77969
2009    27      3       0.5282736       111.3024
2009    27      4       0.5268183       111.0611
2009    27      5       0.48107         103.5718
2009    27      6       0.5098071       107.4413
2009    27      7       0.6007252       121.3867
2009    28      0       0.6857349       132.1836
2009    28      1       0.5788283       118.5345
2009    28      2       0.5939092       121.4784
2009    28      3       0.5637157       116.8047
2009    28      4       0.556239        114.9966
2009    28      5       1.070626        174.5215
2009    28      6       1.40415         200.4954
2009    28      7       1.257266        189.9048
2009    29      0       0.5590824       116.8274
2009    29      1       0.1146451       34.08067
2009    29      2       0.113436        33.73461
2009    29      3       0.1159373       34.19317
2009    29      4       0.1766927       47.32066
2009    29      5       0.177159        47.41867
2009    29      6       0.1365535       38.25989
2009    29      7       0.1514201       40.85822
2009    30      0       0.2520595       60.89245
2009    30      1       0.6481059       127.8233
2009    30      2       0.6676447       130.6949
2009    30      3       0.7054856       135.7313
2009    30      4       1.027694        171.4675
2009    30      5       1.004711        168.9351
2009    30      6       1.063878        174.7399
2009    30      7       0.677822        132.5762
2010    1       0       0.156777        43.10398
2010    1       1       0.1285324       37.00427
2010    1       2       0.1201312       35.18505
2010    1       3       0.1365996       38.79027
2010    1       4       0.197383        51.24939
2010    1       5       0.3626176       82.48651
2010    1       6       0.5758725       116.9178
2010    1       7       0.6541456       128.8433
2010    2       0       0.6840663       133.6939
2010    2       1       0.7096031       137.4183
2010    2       2       0.6482799       129.5055
2010    2       3       0.5756931       119.1544
2010    2       4       0.5652496       117.4708
2010    2       5       0.5770975       119.3272
2010    2       6       0.6137729       125.156
2010    2       7       0.6205504       126.2723
2010    3       0       0.5975194       122.7301
2010    3       1       0.7148425       138.9009
2010    3       2       0.8324302       152.7447
2010    3       3       1.073856        176.4156
2010    3       4       0.8874089       158.8412
2010    3       5       0.7615275       144.0865
2010    3       6       0.9253173       162.5459
2010    3       7       1.139235        182.4176
2010    4       0       1.548697        210.595
2010    4       1       1.590858        213.2607
2010    4       2       1.215872        188.2326
2010    4       3       1.034229        173.1954
2010    4       4       1.015049        172.1388
2010    4       5       0.9390286       165.0107
2010    4       6       0.8842413       159.162
2010    4       7       0.8025641       149.9438
2010    5       0       0.7557014       144.6511
2010    5       1       0.7210409       140.5956
2010    5       2       0.5695319       120.0578
2010    5       3       0.5044683       110.3501
2010    5       4       0.544097        116.7923
2010    5       5       0.4745394       105.8089
2010    5       6       0.3876854       90.76601
2010    5       7       0.2883312       71.79475
2010    6       0       0.2591635       65.74064
2010    6       1       0.2358976       60.75395
2010    6       2       0.2130544       55.8737
2010    6       3       0.2140388       55.92838
2010    6       4       0.2154575       56.21631
2010    6       5       0.2317241       59.73645
2010    6       6       0.2381043       61.05222
2010    6       7       0.2403795       61.3564
2010    7       0       0.3152041       76.2474
2010    7       1       0.4533336       100.8769
2010    7       2       0.4156671       94.37632
2010    7       3       0.3629613       84.86073
2010    7       4       0.4226029       94.93989
2010    7       5       0.4652946       102.1247
2010    7       6       0.5510927       115.4367
2010    7       7       0.7687843       144.9332
2010    8       0       1.17917         186.1147
2010    8       1       1.683669        217.7096
2010    8       2       1.664658        217.032
2010    8       3       1.077578        177.9055
2010    8       4       1.302293        194.0129
2010    8       5       1.336978        199.3492
2010    8       6       1.144579        185.2605
2010    8       7       0.9358422       165.3731
2010    9       0       0.9601127       167.3855
2010    9       1       1.142089        183.2163
2010    9       2       1.313617        196.2627
2010    9       3       1.566608        211.1294
2010    9       4       1.779078        222.0089
2010    9       5       2.050189        232.8862
2010    9       6       1.513252        209.6314
2010    9       7       1.083949        179.1154
2010    10      0       0.9655793       168.2709
2010    10      1       0.9253572       164.1452
2010    10      2       0.8705093       158.1206
2010    10      3       0.8936044       160.8347
2010    10      4       0.7218814       140.4132
2010    10      5       0.662169        133.144
2010    10      6       0.823688        152.6304
2010    10      7       1.014151        171.3492
2010    11      0       1.114355        179.7554
2010    11      1       0.8750423       157.3602
2010    11      2       0.8729316       156.6303
2010    11      3       1.159009        182.2348
2010    11      4       1.054783        173.5431
2010    11      5       0.930125        161.5323
2010    11      6       0.8376104       151.3044
2010    11      7       0.7349196       138.7699
2010    12      0       0.7781017       144.9964
2010    12      1       0.7587568       142.7625
2010    12      2       0.7508014       142.0038
2010    12      3       0.67016         131.7932
2010    12      4       0.6495625       129.1402
2010    12      5       0.6360288       127.7242
2010    12      6       0.5854954       120.9498
2010    12      7       0.5184564       110.8586
2010    13      0       0.5298787       112.287
2010    13      1       0.6919993       135.6524
2010    13      2       0.7259411       140.244
2010    13      3       0.6762686       133.8118
2010    13      4       0.763748        145.4126
2010    13      5       0.7531304       144.4166
2010    13      6       0.7421636       143.2022
2010    13      7       0.7761527       147.5331
2010    14      0       0.7337351       141.9673
2010    14      1       0.7158316       139.462
2010    14      2       0.7811441       147.3611
2010    14      3       0.8764141       158.2149
2010    14      4       0.9302312       163.6681
2010    14      5       0.9758234       168.2343
2010    14      6       1.004497        170.589
2010    14      7       0.9988837       169.7742
2010    15      0       1.029382        172.2367
2010    15      1       0.7690005       144.1941
2010    15      2       0.6815894       133.1046
2010    15      3       0.9045612       159.6452
2010    15      4       0.995708        168.3732
2010    15      5       1.041477        172.5869
2010    15      6       1.014377        170.1541
2010    15      7       1.015138        170.2089
2010    16      0       0.9209355       160.6381
2010    16      1       0.8634456       154.0014
2010    16      2       0.8267672       150.0235
2010    16      3       0.6086885       122.7611
2010    16      4       0.5374188       112.5963
2010    16      5       0.5370934       113.2806
2010    16      6       0.5265366       111.8192
2010    16      7       0.5144198       109.8634
2010    17      0       0.646571        128.6133
2010    17      1       0.7443808       141.0518
2010    17      2       0.8394409       152.8257
2010    17      3       0.9052965       159.8269
2010    17      4       1.209117        186.8652
2010    17      5       1.141609        181.0236
2010    17      6       0.869225        154.3373
2010    17      7       1.065827        172.5653
2010    18      0       1.086046        174.4152
2010    18      1       0.5679798       116.1098
2010    18      2       0.5421783       111.8748
2010    18      3       0.5324396       111.223
2010    18      4       0.3968228       89.27791
2010    18      5       0.6088103       120.6745
2010    18      6       0.7751332       142.947
2010    18      7       0.671423        131.5162
2010    19      0       0.6037165       123.3016
2010    19      1       0.7911863       146.8482
2010    19      2       1.001903        167.7735
2010    19      3       0.9176023       159.8954
2010    19      4       0.8388977       151.3117
2010    19      5       0.6384478       126.8394
2010    19      6       0.5745796       117.4794
2010    19      7       0.8383972       150.3201
2010    20      0       0.6768534       132.0428
2010    20      1       0.3241924       77.00044
2010    20      2       0.3230505       75.27896
2010    20      3       0.3387871       77.97046
2010    20      4       0.3081403       72.12361
2010    20      5       0.3527168       79.8868
2010    20      6       0.354064        81.18414
2010    20      7       0.4330948       95.52843
2010    21      0       0.4986176       106.136
2010    21      1       0.5642966       115.9453
2010    21      2       0.5993325       121.1691
2010    21      3       0.5569523       115.389
2010    21      4       0.5031905       107.2332
2010    21      5       0.4860053       104.8123
2010    21      6       0.5032152       107.0656
2010    21      7       0.5390896       112.7302
2010    22      0       0.4867431       105.0225
2010    22      1       0.7172326       136.5288
2010    22      2       1.177164        182.9551
2010    22      3       1.098467        175.815
2010    22      4       1.338578        195.2189
2010    22      5       1.307981        194.8689
2010    22      6       1.034613        172.9062
2010    22      7       1.018017        170.7804
2010    23      0       0.9371279       162.5884
2010    23      1       0.8791617       156.2366
2010    23      2       1.129663        178.6919
2010    23      3       1.137578        178.9563
2010    23      4       0.9354334       159.5771
2010    23      5       0.8640554       152.7568
2010    23      6       1.00434         166.0818
2010    23      7       0.7588576       139.6603
2010    24      0       0.56379         113.8438
2010    24      1       0.563858        113.9888
2010    24      2       0.5450273       111.4615
2010    24      3       0.720253        134.918
2010    24      4       0.7926262       142.5169
2010    24      5       0.7114535       132.206
2010    24      6       0.7864457       141.979
2010    24      7       0.5433392       110.5474
2010    25      0       0.5267987       108.4528
2010    25      1       0.4249592       93.19767
2010    25      2       0.3181397       74.77292
2010    25      3       0.3949808       88.0659
2010    25      4       0.5933997       118.2532
2010    25      5       0.5458079       111.6363
2010    25      6       0.5904764       117.7059
2010    25      7       0.5320091       109.7368
2010    26      0       0.3159219       73.80718
2010    26      1       0.2202459       54.87808
2010    26      2       0.3408183       77.33427
2010    26      3       0.6411419       124.6032
2010    26      4       1.134747        177.0717
2010    26      5       1.231548        186.0521
2010    26      6       1.04067         170.6942
2010    26      7       0.6638824       131.0285
2010    27      0       0.1836032       49.61661
2010    27      1       0.1605119       43.52925
2010    27      2       0.5078419       105.3703
2010    27      3       0.8145931       146.083
2010    27      4       0.8878659       155.2582
2010    27      5       1.13319         178.2368
2010    27      6       1.381462        197.066
2010    27      7       1.212261        185.5406
2010    28      0       1.122053        178.4331
2010    28      1       1.082723        175.0318
2010    28      2       0.9673296       164.6962
2010    28      3       0.6506119       128.6582
2010    28      4       0.6350594       126.8357
2010    28      5       0.6259774       125.4542
2010    28      6       0.8543198       152.2806
2010    28      7       1.235332        188.3785
2010    29      0       0.7911869       146.7073
2010    29      1       0.8011909       147.9701
2010    29      2       0.5325005       113.5423
2010    29      3       0.2702038       66.08883
2010    29      4       0.3571444       82.77153
2010    29      5       0.3658071       83.80282
2010    29      6       0.5334131       110.9126
2010    29      7       0.8661161       154.3869
2010    30      0       1.308635        194.0206
2010    30      1       1.538105        208.0938
2010    30      2       1.488762        205.1312
2010    30      3       1.605847        212.7431
2010    30      4       1.374401        199.1502
2010    30      5       1.349994        197.9418
2010    30      6       1.398325        201.8876
2010    30      7       1.617236        215.1828
2011    1       0       0.6738771       131.6287
2011    1       1       0.7240593       138.1333
2011    1       2       0.7301665       138.8144
2011    1       3       0.7211163       137.8633
2011    1       4       0.6482855       128.5853
2011    1       5       0.5631391       116.6925
2011    1       6       0.5768222       118.447
2011    1       7       0.6263581       125.4085
2011    2       0       0.6014762       121.7991
2011    2       1       0.5386294       112.5718
2011    2       2       0.5279245       111.3962
2011    2       3       0.4789531       104.354
2011    2       4       0.3887478       89.45157
2011    2       5       0.3121838       75.36179
2011    2       6       0.3305526       78.90468
2011    2       7       0.3742585       86.9799
2011    3       0       0.378906        87.85897
2011    3       1       0.337948        80.22048
2011    3       2       0.3167651       76.22303
2011    3       3       0.3137177       75.68509
2011    3       4       0.3163385       76.21153
2011    3       5       0.3077711       74.639
2011    3       6       0.2981232       72.92955
2011    3       7       0.3056511       74.51622
2011    4       0       0.2901308       71.5659
2011    4       1       0.2801661       69.69921
2011    4       2       0.2956342       72.7653
2011    4       3       0.3073657       74.84875
2011    4       4       0.3292147       78.66955
2011    4       5       0.3343516       79.59639
2011    4       6       0.3185483       76.67581
2011    4       7       0.3229717       77.39815
2011    5       0       0.3520169       82.42345
2011    5       1       0.3771208       86.57726
2011    5       2       0.3870655       88.29299
2011    5       3       0.4089606       91.85298
2011    5       4       0.4034071       90.75448
2011    5       5       0.3757799       85.78693
2011    5       6       0.3291303       77.30852
2011    5       7       0.3240875       76.19959
2011    6       0       0.3460673       80.03992
2011    6       1       0.3644759       83.14227
2011    6       2       0.4208091       92.42629
2011    6       3       0.4915977       103.4442
2011    6       4       0.6391284       124.4341
2011    6       5       0.7204157       136.079
2011    6       6       0.5739338       118.0766
2011    6       7       0.4846908       105.3253
2011    7       0       0.4133128       93.52584
2011    7       1       0.3811665       87.8839
2011    7       2       0.4490156       99.63375
2011    7       3       0.6088739       123.8221
2011    7       4       1.023703        171.7706
2011    7       5       1.33414         197.4446
2011    7       6       1.417548        202.9286
2011    7       7       0.9547298       165.7042
2011    8       0       0.5187006       111.0374
2011    8       1       0.4481502       99.50952
2011    8       2       0.420969        94.89741
2011    8       3       0.4211979       94.87099
2011    8       4       0.4054298       91.9903
2011    8       5       0.3742702       86.03971
2011    8       6       0.4187827       93.35083
2011    8       7       0.4953814       105.1405
2011    9       0       0.8259855       149.493
2011    9       1       0.9570385       164.7697
2011    9       2       0.872285        156.2816
2011    9       3       0.9316563       163.1951
2011    9       4       0.8238482       152.1985
2011    9       5       0.6599352       131.8981
2011    9       6       0.6094303       124.7064
2011    9       7       0.6018833       123.2168
2011    10      0       0.6240323       126.0505
2011    10      1       0.6678314       132.1243
2011    10      2       0.5244069       111.7181
2011    10      3       0.4342127       97.06036
2011    10      4       0.4661696       101.7828
2011    10      5       0.4672656       101.6176
2011    10      6       0.482576        104.0148
2011    10      7       0.5301018       111.1831
2011    11      0       0.5700759       116.8475
2011    11      1       0.6041847       121.528
2011    11      2       0.5768054       117.9426
2011    11      3       0.529782        111.3604
2011    11      4       0.4405409       97.50577
2011    11      5       0.2675532       66.54429
2011    11      6       0.17031         46.44234
2011    11      7       0.1714527       46.12254
2011    12      0       0.1819501       47.89919
2011    12      1       0.191014        49.57271
2011    12      2       0.1950441       50.46604
2011    12      3       0.2237314       56.4101
2011    12      4       0.3233904       75.42387
2011    12      5       0.4878707       102.9609
2011    12      6       0.6258758       122.6471
2011    12      7       0.6071999       120.1406
2011    13      0       0.553943        112.7043
2011    13      1       0.5036697       105.5586
2011    13      2       0.4630882       99.56191
2011    13      3       0.436507        95.32061
2011    13      4       0.3524581       81.43581
2011    13      5       0.2705741       66.4948
2011    13      6       0.2752966       67.38322
2011    13      7       0.3005718       72.0377
2011    14      0       0.3079917       73.27902
2011    14      1       0.2946121       70.7808
2011    14      2       0.2393153       60.2511
2011    14      3       0.1824242       48.60618
2011    14      4       0.1394064       39.32894
2011    14      5       0.1065185       31.81203
2011    14      6       0.09939037      30.0069
2011    14      7       0.1078031       31.87278
2011    15      0       0.1276761       36.33572
2011    15      1       0.1559621       42.27843
2011    15      2       0.1849533       47.86251
2011    15      3       0.2011457       51.15073
2011    15      4       0.1972007       50.45996
2011    15      5       0.1949366       50.06147
2011    15      6       0.179981        47.22368
2011    15      7       0.1519577       41.54662
2011    16      0       0.1407749       39.19183
2011    16      1       0.1421597       39.46758
2011    16      2       0.1506362       41.35064
2011    16      3       0.1897543       49.63825
2011    16      4       0.3428796       78.18419
2011    16      5       0.3190903       74.50857
2011    16      6       0.4537941       98.17585
2011    16      7       0.4068542       90.32839
2011    17      0       0.3614026       82.77795
2011    17      1       0.3091214       73.22418
2011    17      2       0.2574689       63.47545
2011    17      3       0.2230531       56.75614
2011    17      4       0.1878033       49.59436
2011    17      5       0.2050573       52.64665
2011    17      6       0.284734        68.18868
2011    17      7       0.3543726       81.16227
2011    18      0       0.3700698       84.44586
2011    18      1       0.3588528       82.51128
2011    18      2       0.3496126       80.77199
2011    18      3       0.3711772       84.35288
2011    18      4       0.3820637       86.14369
2011    18      5       0.3745889       84.96613
2011    18      6       0.3733028       85.02571
2011    18      7       0.3604034       83.26095
2011    19      0       0.3231278       76.81841
2011    19      1       0.2826025       69.14448
2011    19      2       0.2313876       58.91043
2011    19      3       0.2132099       54.96172
2011    19      4       0.211877        54.63751
2011    19      5       0.2181644       56.06472
2011    19      6       0.2115207       54.96485
2011    19      7       0.2035709       53.48151
2011    20      0       0.2027708       53.37538
2011    20      1       0.2066452       54.1738
2011    20      2       0.1961945       51.84376
2011    20      3       0.1841363       49.18399
2011    20      4       0.1945583       51.33018
2011    20      5       0.2092647       54.32041
2011    20      6       0.2060736       53.69066
2011    20      7       0.1908306       50.47532
2011    21      0       0.1748366       47.00528
2011    21      1       0.1631483       44.39957
2011    21      2       0.1633538       44.3237
2011    21      3       0.1638753       44.42205
2011    21      4       0.1618691       43.87335
2011    21      5       0.1579414       42.86412
2011    21      6       0.1654076       44.31754
2011    21      7       0.1729462       45.90296
2011    22      0       0.1803819       47.52401
2011    22      1       0.229766        57.30711
2011    22      2       0.3685402       82.8068
2011    22      3       0.4300112       93.68758
2011    22      4       0.438636        95.36059
2011    22      5       0.444277        96.25571
2011    22      6       0.4871993       102.8002
2011    22      7       0.5609836       113.9412
2011    23      0       0.7217067       136.0487
2011    23      1       0.9128847       158.002
2011    23      2       1.067117        172.9755
2011    23      3       1.042889        171.3263
2011    23      4       1.015316        169.1168
2011    23      5       1.04234         171.4697
2011    23      6       1.098792        176.1709
2011    23      7       1.002           167.4423
2011    24      0       0.9259882       159.8152
2011    24      1       0.8764579       154.3619
2011    24      2       0.8622388       152.4868
2011    24      3       0.8312079       148.9179
2011    24      4       0.821865        147.8712
2011    24      5       0.8140831       147.0055
2011    24      6       0.7554821       140.4737
2011    24      7       0.6755513       130.356
2011    25      0       0.611554        121.702
2011    25      1       0.5944695       119.2613
2011    25      2       0.5923311       118.9049
2011    25      3       0.6034181       120.309
2011    25      4       0.6391419       125.1553
2011    25      5       0.647136        126.0837
2011    25      6       0.4215326       92.39581
2011    25      7       0.2513139       62.07656
2011    26      0       0.2651754       64.65432
2011    26      1       0.2821674       67.85914
2011    26      2       0.2788626       67.39218
2011    26      3       0.2733037       66.57497
2011    26      4       0.2427822       60.82133
2011    26      5       0.1779654       47.62326
2011    26      6       0.1590081       43.57248
2011    26      7       0.1982169       51.45568
2011    27      0       0.2128282       54.51727
2011    27      1       0.3880029       87.64577
2011    27      2       0.7390269       138.8751
2011    27      3       0.8826396       155.9965
2011    27      4       0.8213915       150.5172
2011    27      5       0.7701529       144.9265
2011    27      6       0.6709174       132.1461
2011    27      7       0.5720933       117.789
2011    28      0       0.522843        110.8839
2011    28      1       0.5120436       109.1414
2011    28      2       0.5064634       107.8246
2011    28      3       0.5950013       121.4939
2011    28      4       0.7424211       140.8206
2011    28      5       0.6847521       133.0777
2011    28      6       0.6166033       123.5263
2011    28      7       0.5844879       118.154
2011    29      0       0.4385105       95.77443
2011    29      1       0.3003296       72.05146
2011    29      2       0.2596422       64.48686
2011    29      3       0.2359474       59.85798
2011    29      4       0.2320613       59.14548
2011    29      5       0.2278          58.24221
2011    29      6       0.2259518       57.71916
2011    29      7       0.2269848       57.73607
2011    30      0       0.2284887       58.06996
2011    30      1       0.2181211       56.06517
2011    30      2       0.2117977       54.89357
2011    30      3       0.203131        53.28869
2011    30      4       0.2028917       53.3101
2011    30      5       0.2014425       52.99351
2011    30      6       0.1935526       51.28518
2011    30      7       0.1883413       50.09133
2012    1       0       1.210843        187.4199
2012    1       1       1.64057         216.1937
2012    1       2       1.886673        227.3859
2012    1       3       1.97772         230.9636
2012    1       4       1.781079        223.7417
2012    1       5       1.553139        212.4528
2012    1       6       0.8323051       153.0575
2012    1       7       0.9446737       165.8632
2012    2       0       0.8334893       154.8062
2012    2       1       0.4253364       96.50931
2012    2       2       0.4998103       107.8057
2012    2       3       0.9279444       163.2782
2012    2       4       1.169985        186.925
2012    2       5       0.5476354       116.6959
2012    2       6       0.3998637       92.14571
2012    2       7       0.4284977       96.79935
2012    3       0       0.4037949       93.15969
2012    3       1       0.3810895       89.19272
2012    3       2       0.3298029       79.99991
2012    3       3       0.3017262       73.73323
2012    3       4       0.3486433       82.55124
2012    3       5       0.385159        88.96714
2012    3       6       0.4004288       91.31652
2012    3       7       0.375355        86.76664
2012    4       0       0.374611        85.57064
2012    4       1       0.3643716       84.2479
2012    4       2       0.5197479       108.6874
2012    4       3       1.272167        190.7167
2012    4       4       1.457202        206.0882
2012    4       5       1.435445        205.9353
2012    4       6       1.427315        206.5774
2012    4       7       1.329455        200.4695
2012    5       0       1.255798        195.1864
2012    5       1       1.336522        200.4722
2012    5       2       1.808504        226.5122
2012    5       3       1.730205        223.5964
2012    5       4       1.432865        207.4744
2012    5       5       1.868853        230.0912
2012    5       6       1.569714        214.9286
2012    5       7       1.795729        226.2516
2012    6       0       1.805257        228.2225
2012    6       1       0.9306529       166.8837
2012    6       2       0.7821395       148.6088
2012    6       3       0.828702        151.7912
2012    6       4       0.9452872       162.912
2012    6       5       0.8510283       153.2788
2012    6       6       0.9260341       161.2042
2012    6       7       1.268155        190.6037
2012    7       0       1.433574        202.2307
2012    7       1       1.31678         194.9242
2012    7       2       1.417836        200.0754
2012    7       3       1.009677        168.6369
2012    7       4       1.029796        170.3769
2012    7       5       1.064512        172.8653
2012    7       6       0.8836979       154.8348
2012    7       7       0.4974669       105.9884
2012    8       0       0.2990077       72.08254
2012    8       1       0.253334        63.66981
2012    8       2       0.2315946       59.45398
2012    8       3       0.2024822       53.23371
2012    8       4       0.2333908       59.66983
2012    8       5       0.2609511       65.4848
2012    8       6       0.2883648       70.95789
2012    8       7       0.29751         72.65739
2012    9       0       0.3076581       74.16132
2012    9       1       0.3933899       89.22946
2012    9       2       0.5560343       115.0867
2012    9       3       0.7302381       138.311
2012    9       4       0.99235         166.0998
2012    9       5       1.150931        179.5594
2012    9       6       0.856902        152.6654
2012    9       7       0.6627797       129.2451
2012    10      0       0.3493907       81.54237
2012    10      1       0.2392675       60.97659
2012    10      2       0.2045083       53.93108
2012    10      3       0.1734004       47.43951
2012    10      4       0.15948         44.56872
2012    10      5       0.1229258       36.15363
2012    10      6       0.1202534       35.29778
2012    10      7       0.1416826       39.97264
2012    11      0       0.1556439       42.98089
2012    11      1       0.1715323       46.42653
2012    11      2       0.1948969       51.64063
2012    11      3       0.2124159       55.60627
2012    11      4       0.2336266       60.05143
2012    11      5       0.2724068       67.67872
2012    11      6       0.3328872       79.14016
2012    11      7       0.4227035       94.72187
2012    12      0       0.5911467       120.4278
2012    12      1       0.7603588       143.0674
2012    12      2       0.9607157       165.7042
2012    12      3       1.049501        174.7543
2012    12      4       0.9440771       164.0322
2012    12      5       0.8681674       155.9749
2012    12      6       0.932667        162.9115
2012    12      7       1.029332        171.8885
2012    13      0       1.059463        174.0013
2012    13      1       1.127585        180.0262
2012    13      2       1.155231        182.6586
2012    13      3       1.094231        177.8707
2012    13      4       0.9158763       161.0116
2012    13      5       0.6331665       127.4185
2012    13      6       0.5095659       109.2173
2012    13      7       0.6248102       125.9429
2012    14      0       1.025689        171.4743
2012    14      1       1.264919        191.7575
2012    14      2       1.046447        174.0487
2012    14      3       0.7599925       144.1201
2012    14      4       0.6605136       131.4304
2012    14      5       0.6693151       131.9484
2012    14      6       0.6909874       134.1812
2012    14      7       0.6522062       129.0987
2012    15      0       0.6021314       122.0585
2012    15      1       0.5498104       114.3607
2012    15      2       0.4365908       96.70605
2012    15      3       0.3350366       78.86652
2012    15      4       0.5143741       108.5475
2012    15      5       0.8954647       157.3271
2012    15      6       0.9886007       167.1323
2012    15      7       0.9857962       167.1329
2012    16      0       0.9059181       159.1761
2012    16      1       0.703028        135.5605
2012    16      2       0.5602258       115.6264
2012    16      3       0.4854449       104.1642
2012    16      4       0.3895945       88.10025
2012    16      5       0.3447316       80.0603
2012    16      6       0.3634676       83.38164
2012    16      7       0.3834144       86.90541
2012    17      0       0.3873989       87.63422
2012    17      1       0.3831727       87.12373
2012    17      2       0.3933098       89.20564
2012    17      3       0.4409273       97.56186
2012    17      4       0.464245        101.4799
2012    17      5       0.4407222       97.63352
2012    17      6       0.4310143       95.76221
2012    17      7       0.4912057       105.3979
2012    18      0       0.5973361       121.6388
2012    18      1       0.6264961       126.0133
2012    18      2       0.6358309       127.5366
2012    18      3       0.6466868       129.2446
2012    18      4       0.6113346       124.5248
2012    18      5       0.5207505       111.3318
2012    18      6       0.4546142       100.8554
2012    18      7       0.4122385       93.5648
2012    19      0       0.371236        85.80713
2012    19      1       0.3436641       80.26089
2012    19      2       0.392193        88.44537
2012    19      3       0.4627188       99.98714
2012    19      4       0.512944        108.1848
2012    19      5       0.5272361       110.368
2012    19      6       0.5989888       120.8891
2012    19      7       0.7288161       138.0032
2012    20      0       0.6248614       124.5032
2012    20      1       0.5775289       117.8123
2012    20      2       0.6494053       128.1177
2012    20      3       0.8127273       148.5608
2012    20      4       1.163744        182.8498
2012    20      5       1.222089        187.7511
2012    20      6       1.239859        188.9885
2012    20      7       1.216429        186.8022
2012    21      0       1.071293        174.8011
2012    21      1       0.95936         164.4142
2012    21      2       0.9062846       159.1567
2012    21      3       0.8384828       152.0975
2012    21      4       0.8109856       149.0335
2012    21      5       0.79099         146.6996
2012    21      6       0.6987587       135.4943
2012    21      7       0.6611533       130.6076
2012    22      0       0.6090366       123.5404
2012    22      1       0.5962337       121.7438
2012    22      2       0.5524365       115.5388
2012    22      3       0.4035873       91.59228
2012    22      4       0.2951614       71.48589
2012    22      5       0.2675606       65.8996
2012    22      6       0.341499        79.79777
2012    22      7       0.4088475       91.70743
2012    23      0       0.3994754       90.24275
2012    23      1       0.4166385       93.38172
2012    23      2       0.5032834       107.1545
2012    23      3       0.5968106       120.6562
2012    23      4       0.6846256       132.4157
2012    23      5       0.7762962       143.743
2012    23      6       0.8127251       148.0496
2012    23      7       0.7956586       145.884
2012    24      0       0.7319242       138.1526
2012    24      1       0.7704958       142.2702
2012    24      2       0.7786304       143.588
2012    24      3       0.6940732       133.8837
2012    24      4       0.5764579       118.5012
2012    24      5       0.4187361       93.92119
2012    24      6       0.3402745       79.34933
2012    24      7       0.3118823       74.03135
2012    25      0       0.3637079       83.42766
2012    25      1       0.36819         84.7576
2012    25      2       0.4369438       96.84764
2012    25      3       0.5485964       114.69
2012    25      4       0.6549089       129.0181
2012    25      5       0.9182539       159.6402
2012    25      6       0.8080507       148.9447
2012    25      7       0.5754002       119.6319
2012    26      0       0.4656201       102.8638
2012    26      1       0.4306908       96.92951
2012    26      2       0.4233883       95.69533
2012    26      3       0.384556        89.03772
2012    26      4       0.3598837       84.62795
2012    26      5       0.3544133       83.58568
2012    26      6       0.3470624       82.00292
2012    26      7       0.3473538       81.83912
2012    27      0       0.3971382       90.55298
2012    27      1       0.4475157       99.05125
2012    27      2       0.4481703       99.32827
2012    27      3       0.4467334       99.10443
2012    27      4       0.3969455       90.60232
2012    27      5       0.3407699       80.09994
2012    27      6       0.3483894       81.39635
2012    27      7       0.3864429       88.14441
2012    28      0       0.3798221       87.19216
2012    28      1       0.4278238       95.06551
2012    28      2       0.53632         111.6948
2012    28      3       0.6489976       127.0827
2012    28      4       0.6133043       121.8339
2012    28      5       0.9479448       162.9606
2012    28      6       0.9952324       169.3987
2012    28      7       0.673402        133.1935
2012    29      0       0.6078927       124.9693
2012    29      1       0.7383865       142.1347
2012    29      2       0.6580657       131.7195
2012    29      3       1.183899        185.7125
2012    29      4       1.263418        192.1841
2012    29      5       1.446798        204.4014
2012    29      6       0.7862327       145.911
2012    29      7       0.1215363       35.53533
2012    30      0       0.1638554       44.88077
2012    30      1       0.260077        65.13301
2012    30      2       0.3549094       83.00792
2012    30      3       0.4272925       95.5803
2012    30      4       0.5137866       109.0674
2012    30      5       0.3337013       78.22816
2012    30      6       0.4359081       95.68938
2012    30      7       0.8853928       155.9707
2013    1       0       0.8877756       159.925
2013    1       1       0.8474029       155.1772
2013    1       2       0.7790725       147.1541
2013    1       3       0.715251        139.2374
2013    1       4       0.6745754       133.7106
2013    1       5       0.6105578       124.607
2013    1       6       0.5911316       121.7559
2013    1       7       0.5857472       120.9601
2013    2       0       0.5640694       117.4491
2013    2       1       0.552296        115.6123
2013    2       2       0.5060788       108.6374
2013    2       3       0.4186306       94.45297
2013    2       4       0.3705465       85.99377
2013    2       5       0.3560802       83.08281
2013    2       6       0.3599946       83.9222
2013    2       7       0.3441382       81.49395
2013    3       0       0.3467734       81.79308
2013    3       1       0.4425402       98.44244
2013    3       2       0.5909887       121.0827
2013    3       3       0.6362221       128.0741
2013    3       4       0.7839775       147.683
2013    3       5       0.9365435       164.8114
2013    3       6       1.159294        185.1669
2013    3       7       1.455921        205.689
2013    4       0       1.505989        208.3053
2013    4       1       1.211108        188.1801
2013    4       2       1.131849        181.1632
2013    4       3       1.122018        180.3809
2013    4       4       1.204709        187.3389
2013    4       5       1.250148        190.863
2013    4       6       1.168197        184.254
2013    4       7       1.138969        181.7439
2013    5       0       1.220217        188.1309
2013    5       1       1.364938        198.2467
2013    5       2       0.8477418       153.3985
2013    5       3       0.7463264       142.2024
2013    5       4       1.287732        194.3007
2013    5       5       1.464666        205.3336
2013    5       6       1.569986        211.8527
2013    5       7       0.9499966       165.2114
2013    6       0       0.9122368       161.1504
2013    6       1       1.336297        196.8086
2013    6       2       1.601597        212.0761
2013    6       3       1.535117        208.2799
2013    6       4       1.5131          207.1202
2013    6       5       1.676391        216.2529
2013    6       6       1.678994        216.0456
2013    6       7       1.15456         182.3611
2013    7       0       0.2848559       70.2911
2013    7       1       0.3886051       88.56228
2013    7       2       0.7724795       144.6824
2013    7       3       0.852309        154.4757
2013    7       4       0.9009638       159.8605
2013    7       5       0.9649512       166.4489
2013    7       6       0.9548959       165.6178
2013    7       7       0.8778836       157.6722
2013    8       0       0.661459        131.2719
2013    8       1       0.5540125       115.5044
2013    8       2       0.6021084       122.9278
2013    8       3       0.6472762       129.5611
2013    8       4       0.6168413       125.469
2013    8       5       0.5602527       117.7485
2013    8       6       0.6034718       123.7022
2013    8       7       0.6590023       131.1882
2013    9       0       0.625726        127.3274
2013    9       1       0.5484912       116.5797
2013    9       2       0.4224299       96.17125
2013    9       3       0.3241338       77.98679
2013    9       4       0.3271523       78.29575
2013    9       5       0.3106885       74.8918
2013    9       6       0.4201685       95.32397
2013    9       7       0.500167        108.9291
2013    10      0       0.4901065       107.5165
2013    10      1       0.4900474       107.4142
2013    10      2       0.5344678       113.9836
2013    10      3       0.6309558       127.3275
2013    10      4       0.6593341       131.7414
2013    10      5       0.9157844       160.6521
2013    10      6       1.164652        183.0043
2013    10      7       1.380691        199.2666
2013    11      0       1.35985         198.4361
2013    11      1       1.275513        192.4475
2013    11      2       1.334658        196.4467
2013    11      3       1.526072        208.261
2013    11      4       1.772573        221.5026
2013    11      5       1.569257        211.4379
2013    11      6       1.404642        200.4674
2013    11      7       1.440194        202.7825
2013    12      0       1.562005        210.0248
2013    12      1       1.341601        196.8398
2013    12      2       0.9905501       168.2935
2013    12      3       0.6666437       131.2177
2013    12      4       0.6484087       128.973
2013    12      5       0.6656987       131.5758
2013    12      6       0.6166982       125.015
2013    12      7       0.5964748       122.0828
2013    13      0       0.5417975       113.6783
2013    13      1       0.541841        112.4726
2013    13      2       0.5796561       117.064
2013    13      3       0.4911962       104.1337
2013    13      4       0.4342701       95.42052
2013    13      5       0.4488211       97.95851
2013    13      6       0.4274128       94.67695
2013    13      7       0.4680931       100.6982
2013    14      0       0.5186065       108.032
2013    14      1       0.598878        119.7097
2013    14      2       0.7155363       135.7326
2013    14      3       0.9106109       158.5056
2013    14      4       1.048756        172.2841
2013    14      5       1.087493        175.7306
2013    14      6       1.195603        184.3216
2013    14      7       1.232152        187.6112
2013    15      0       1.121934        178.832
2013    15      1       1.063394        173.6398
2013    15      2       1.038376        171.3261
2013    15      3       0.973136        165.2805
2013    15      4       1.019952        169.78
2013    15      5       0.9846407       166.5443
2013    15      6       0.8804977       156.1798
2013    15      7       0.8564681       153.6381
2013    16      0       0.8286877       150.5237
2013    16      1       0.7724902       144.053
2013    16      2       0.7328661       139.4668
2013    16      3       0.7729696       144.3333
2013    16      4       0.814262        149.1512
2013    16      5       0.758148        142.8507
2013    16      6       0.6986662       135.4889
2013    16      7       0.6211711       125.1682
2013    17      0       0.586354        120.1124
2013    17      1       0.5972052       121.2433
2013    17      2       0.606253        121.9837
2013    17      3       0.7409163       139.2239
2013    17      4       0.9004628       157.439
2013    17      5       1.041172        172.0474
2013    17      6       1.125727        179.9136
2013    17      7       1.069155        175.4782
2013    18      0       0.9901332       168.0918
2013    18      1       0.9034111       159.2398
2013    18      2       0.8627534       154.6058
2013    18      3       0.7777824       145.3362
2013    18      4       0.6711492       132.589
2013    18      5       0.6161782       125.1742
2013    18      6       0.6668561       131.9535
2013    18      7       0.7180802       138.6894
2013    19      0       0.7603146       143.6575
2013    19      1       0.7506005       141.9976
2013    19      2       0.6198183       124.484
2013    19      3       0.4190249       92.68836
2013    19      4       0.6074036       122.3302
2013    19      5       0.8774054       156.4755
2013    19      6       0.800369        148.213
2013    19      7       1.263039        189.7688
2013    20      0       0.6923699       134.0018
2013    20      1       0.5652623       115.8071
2013    20      2       0.6376895       125.2071
2013    20      3       0.5356289       112.3857
2013    20      4       1.088258        176.8513
2013    20      5       1.141467        180.6458
2013    20      6       0.6214719       125.2899
2013    20      7       0.7603869       142.8673
2013    21      0       0.8754745       154.4993
2013    21      1       1.032063        169.3451
2013    21      2       1.058317        173.2965
2013    21      3       0.8634694       154.8573
2013    21      4       0.9223119       160.5146
2013    21      5       1.12105         178.3243
2013    21      6       1.406849        198.1892
2013    21      7       1.568902        208.5093
2013    22      0       1.298964        192.5086
2013    22      1       0.9927715       166.7487
2013    22      2       0.8938875       156.8381
2013    22      3       0.8086618       148.4836
2013    22      4       0.9254801       161.7399
2013    22      5       0.7323257       139.7532
2013    22      6       0.4071257       91.86646
2013    22      7       0.4113668       92.17666
2013    23      0       0.4622841       100.6224
2013    23      1       0.4656165       101.4607
2013    23      2       0.4488032       98.93924
2013    23      3       0.596602        121.3493
2013    23      4       0.9821078       167.1746
2013    23      5       1.044245        173.2997
2013    23      6       1.305322        194.499
2013    23      7       1.064115        175.6763
2013    24      0       0.5257691       111.8261
2013    24      1       0.7142593       135.9283
2013    24      2       1.129141        178.158
2013    24      3       1.171168        182.3724
2013    24      4       1.34068         195.1431
2013    24      5       1.334953        195.2067
2013    24      6       1.376751        195.4217
2013    24      7       0.4185927       92.64115
2013    25      0       0.5757316       117.491
2013    25      1       0.4577443       99.98564
2013    25      2       0.3642205       83.6414
2013    25      3       0.6790254       130.6245
2013    25      4       1.018544        167.6304
2013    25      5       0.9222634       157.7162
2013    25      6       0.9045489       155.8927
2013    25      7       0.9928662       164.9473
2013    26      0       0.9776338       163.5854
2013    26      1       0.7573612       139.3161
2013    26      2       0.9479508       159.7474
2013    26      3       1.014573        166.709
2013    26      4       1.079925        173.0986
2013    26      5       0.7158364       135.4646
2013    26      6       0.6313579       124.3536
2013    26      7       0.5215888       109.0634
2013    27      0       0.528708        109.9919
2013    27      1       0.6433078       126.3352
2013    27      2       0.8184211       147.0299
2013    27      3       0.5886589       117.9123
2013    27      4       0.2047218       53.00236
2013    27      5       0.1192599       34.63384
2013    27      6       0.1217799       35.17736
2013    27      7       0.1197782       34.7075
2013    28      0       0.1122567       32.91269
2013    28      1       0.1172675       34.02981
2013    28      2       0.1277243       36.37889
2013    28      3       0.1467357       40.53085
2013    28      4       0.1576108       42.80587
2013    28      5       0.1678394       45.05482
2013    28      6       0.1860677       49.19944
2013    28      7       0.1479683       41.02581
2013    29      0       0.1351354       38.15136
2013    29      1       0.1548116       41.58457
2013    29      2       0.2010648       50.79063
2013    29      3       0.3447017       78.50721
2013    29      4       0.2678705       65.55999
2013    29      5       0.1805557       47.94552
2013    29      6       0.1383649       38.8677
2013    29      7       0.1541483       42.19372
2013    30      0       0.1723274       46.13386
2013    30      1       0.1783899       47.75775
2013    30      2       0.213413        54.40714
2013    30      3       0.4970379       104.545
2013    30      4       0.7567883       140.0171
2013    30      5       1.052662        171.2421
2013    30      6       1.190573        183.6854
2013    30      7       1.334726        194.631
2014    1       0       0.5493765       112.6867
2014    1       1       0.4639309       100.1301
2014    1       2       0.4393737       97.28508
2014    1       3       0.41182         92.86174
2014    1       4       0.3575624       83.47541
2014    1       5       0.3887864       88.97877
2014    1       6       0.4737423       102.9977
2014    1       7       0.5909009       120.4247
2014    2       0       0.6416521       127.7334
2014    2       1       0.6145183       124.3533
2014    2       2       0.5832964       120.1181
2014    2       3       0.5490295       115.1498
2014    2       4       0.5432591       114.2299
2014    2       5       0.5630881       116.9442
2014    2       6       0.587476        120.4786
2014    2       7       0.6484722       129.0872
2014    3       0       0.7322901       140.0273
2014    3       1       0.7751766       145.2742
2014    3       2       0.6999697       135.8772
2014    3       3       0.5829867       119.7909
2014    3       4       0.5197672       110.3395
2014    3       5       0.4921612       106.1486
2014    3       6       0.4624929       101.5315
2014    3       7       0.4545072       100.3579
2014    4       0       0.4700316       102.8968
2014    4       1       0.504753        108.5217
2014    4       2       0.5137502       109.8602
2014    4       3       0.5000248       107.8026
2014    4       4       0.4894512       106.0714
2014    4       5       0.4669633       102.3202
2014    4       6       0.4626296       101.5
2014    4       7       0.448103        99.11742
2014    5       0       0.4337228       96.49124
2014    5       1       0.431576        96.01009
2014    5       2       0.4459277       98.35926
2014    5       3       0.4696544       102.4131
2014    5       4       0.4823513       104.8158
2014    5       5       0.4751173       103.8441
2014    5       6       0.5710903       118.907
2014    5       7       0.5865059       121.2663
2014    6       0       0.6152609       125.5644
2014    6       1       0.8207543       152.0672
2014    6       2       0.8999085       161.1117
2014    6       3       0.7681183       146.5989
2014    6       4       0.5164441       111.827
2014    6       5       0.4762294       104.4707
2014    6       6       0.7184522       138.5964
2014    6       7       1.30278         194.9431
2014    7       0       1.41486         203.5882
2014    7       1       1.379321        201.5317
2014    7       2       1.469762        207.4701
2014    7       3       1.566023        213.196
2014    7       4       1.368961        200.6893
2014    7       5       1.048776        175.2036
2014    7       6       1.151422        183.3852
2014    7       7       1.226673        188.7906
2014    8       0       0.8657824       155.0684
2014    8       1       1.104656        176.5939
2014    8       2       1.528458        208.8813
2014    8       3       1.379756        198.7897
2014    8       4       1.269518        191.2662
2014    8       5       1.216828        187.5772
2014    8       6       1.049692        172.8844
2014    8       7       0.9878145       167.7228
2014    9       0       0.9885733       167.8284
2014    9       1       1.10093         177.6034
2014    9       2       1.105875        177.7953
2014    9       3       1.108484        177.6892
2014    9       4       1.488042        205.5674
2014    9       5       1.341571        196.2548
2014    9       6       1.182075        184.5307
2014    9       7       1.039071        172.7264
2014    10      0       0.9105411       160.7616
2014    10      1       0.8057209       149.6151
2014    10      2       0.6847827       135.0365
2014    10      3       0.5663851       118.8649
2014    10      4       0.5482085       116.1285
2014    10      5       0.5496882       116.1978
2014    10      6       0.501542        108.6327
2014    10      7       0.5310778       112.8645
2014    11      0       0.6106871       124.2879
2014    11      1       0.7455298       142.1128
2014    11      2       0.8317202       151.9737
2014    11      3       0.8427976       152.9205
2014    11      4       0.9611627       164.1966
2014    11      5       1.005196        170.273
2014    11      6       0.8076791       149.886
2014    11      7       0.6687206       132.2561
2014    12      0       0.6085567       123.4247
2014    12      1       0.5882616       120.0638
2014    12      2       0.6190528       123.714
2014    12      3       0.901869        158.3572
2014    12      4       1.296576        194.1777
2014    12      5       1.443209        203.2442
2014    12      6       1.201955        185.8197
2014    12      7       1.057765        173.6913
2014    13      0       1.194699        184.549
2014    13      1       1.211794        185.9724
2014    13      2       1.310162        193.5155
2014    13      3       1.492722        205.2091
2014    13      4       1.434159        201.5205
2014    13      5       1.484432        204.8751
2014    13      6       1.457166        203.289
2014    13      7       1.432292        201.5096
2014    14      0       1.391029        198.4279
2014    14      1       1.426701        200.8207
2014    14      2       1.340956        195.475
2014    14      3       1.169101        182.8903
2014    14      4       1.081511        175.5367
2014    14      5       1.008956        168.73
2014    14      6       1.126809        178.6917
2014    14      7       1.321854        193.4617
2014    15      0       1.133148        179.7233
2014    15      1       1.034213        171.2065
2014    15      2       0.9363122       161.9785
2014    15      3       0.8134506       149.2967
2014    15      4       0.7246465       139.069
2014    15      5       0.6432485       128.6796
2014    15      6       0.6339854       127.3576
2014    15      7       0.6069609       123.6271
2014    16      0       0.5249157       111.6917
2014    16      1       0.4401393       98.11833
2014    16      2       0.4258194       95.17671
2014    16      3       0.4002724       90.0003
2014    16      4       0.5534709       113.914
2014    16      5       1.137667        180.9833
2014    16      6       1.254439        191.3102
2014    16      7       1.288212        193.5861
2014    17      0       1.232167        187.1527
2014    17      1       1.576668        211.1448
2014    17      2       1.051458        175.0693
2014    17      3       0.4318066       97.0727
2014    17      4       0.3837525       87.9181
2014    17      5       0.5434311       113.2939
2014    17      6       0.6143474       123.9538
2014    17      7       0.566844        117.1498
2014    18      0       0.4723596       102.221
2014    18      1       0.3039555       72.51943
2014    18      2       0.2672536       65.72077
2014    18      3       0.3302236       77.55552
2014    18      4       1.078237        175.2244
2014    18      5       1.458088        203.7059
2014    18      6       1.206909        185.9257
2014    18      7       1.226359        187.8194
2014    19      0       1.240695        188.6935
2014    19      1       1.329591        194.9414
2014    19      2       1.283824        191.659
2014    19      3       1.173051        182.8708
2014    19      4       1.259423        187.9362
2014    19      5       1.19043         182.3527
2014    19      6       0.93725         159.8918
2014    19      7       1.053937        169.8453
2014    20      0       0.8482769       150.3214
2014    20      1       0.6354798       124.4654
2014    20      2       0.5175797       107.9443
2014    20      3       0.4111923       91.36727
2014    20      4       0.3646754       83.44571
2014    20      5       0.2790482       67.77886
2014    20      6       0.2510518       62.59342
2014    20      7       0.204524        53.37274
2014    21      0       0.2085718       54.15994
2014    21      1       0.2019232       52.59027
2014    21      2       0.246249        61.36863
2014    21      3       0.4085023       90.9264
2014    21      4       0.5198536       108.4612
2014    21      5       0.5888681       118.0889
2014    21      6       0.5685075       115.3818
2014    21      7       0.4172192       92.75921
2014    22      0       0.3882404       87.6965
2014    22      1       0.4627062       99.86408
2014    22      2       0.4875762       104.5678
2014    22      3       0.3254696       77.5144
2014    22      4       0.3037943       73.29288
2014    22      5       0.4010878       90.56016
2014    22      6       0.3905278       88.53813
2014    22      7       0.3222912       76.03856
2014    23      0       0.3866503       86.9484
2014    23      1       0.3606341       82.43568
2014    23      2       0.281428        67.81033
2014    23      3       0.3528862       80.9968
2014    23      4       0.4411917       96.0425
2014    23      5       0.5652447       115.2234
2014    23      6       0.5763698       117.3398
2014    23      7       0.5791265       117.8817
2014    24      0       0.562926        116.0322
2014    24      1       0.5751891       117.8354
2014    24      2       0.6411864       126.0423
2014    24      3       0.7607543       140.9446
2014    24      4       0.8437629       150.745
2014    24      5       0.8803148       154.1601
2014    24      6       0.4498736       97.58377
2014    24      7       0.1573309       43.01174
2014    25      0       0.1559651       42.61274
2014    25      1       0.2084394       53.77778
2014    25      2       0.2367486       59.39021
2014    25      3       0.2218838       56.0673
2014    25      4       0.2721071       65.33894
2014    25      5       0.3668401       82.80254
2014    25      6       0.5000575       104.5744
2014    25      7       0.5582853       113.7427
2014    26      0       0.5606973       114.5844
2014    26      1       0.3418214       79.61783
2014    26      2       0.2528213       62.85422
2014    26      3       0.2149058       55.35204
2014    26      4       0.1734188       46.60223
2014    26      5       0.1798081       47.67722
2014    26      6       0.2556528       62.72526
2014    26      7       0.3783794       84.96536
2014    27      0       0.5870892       117.9143
2014    27      1       0.8896603       155.6294
2014    27      2       1.097852        175.9437
2014    27      3       1.127782        178.7343
2014    27      4       0.9809692       165.8883
2014    27      5       0.9383491       161.8384
2014    27      6       0.9659654       164.4382
2014    27      7       0.9664313       164.3938
2014    28      0       0.8896403       156.6666
2014    28      1       0.8438283       151.9244
2014    28      2       0.8388741       151.533
2014    28      3       0.8386192       151.7203
2014    28      4       0.7807603       145.5706
2014    28      5       0.7248692       138.7034
2014    28      6       0.7665119       143.2523
2014    28      7       0.8194727       148.9468
2014    29      0       0.9776098       165.5339
2014    29      1       1.238215        188.5369
2014    29      2       1.355329        196.7424
2014    29      3       1.207679        186.0131
2014    29      4       1.119457        179.0909
2014    29      5       1.041055        172.7729
2014    29      6       0.8367666       151.5714
2014    29      7       0.7890031       145.9368
2014    30      0       1.311157        192.9944
2014    30      1       1.440279        201.9059
2014    30      2       1.38774         198.4748
2014    30      3       1.351337        195.9561
2014    30      4       1.425176        201.0345
2014    30      5       1.36946         198.2385
2014    30      6       1.515577        207.0191
2014    30      7       1.318189        194.7824
2015    1       0       0.1680105       45.39427
2015    1       1       0.08779311      27.58315
2015    1       2       0.09981619      30.72896
2015    1       3       0.09945676      30.69811
2015    1       4       0.08808256      27.99852
2015    1       5       0.0764551       25.0641
2015    1       6       0.08820584      27.70878
2015    1       7       0.1230808       35.66967
2015    2       0       0.1919217       50.57029
2015    2       1       0.2809886       68.76982
2015    2       2       0.3711329       85.09225
2015    2       3       0.3349652       78.79059
2015    2       4       0.2759303       67.52189
2015    2       5       0.2804982       68.05763
2015    2       6       0.5167124       109.2758
2015    2       7       0.4992601       107.3753
2015    3       0       0.5651079       115.7787
2015    3       1       0.5760175       116.5502
2015    3       2       0.5022097       106.13
2015    3       3       0.4488075       98.53818
2015    3       4       0.3482408       81.99692
2015    3       5       0.2950841       72.22913
2015    3       6       0.2728986       68.44741
2015    3       7       0.2742825       68.88853
2015    4       0       0.3577146       84.08818
2015    4       1       0.385878        89.214
2015    4       2       0.4056213       92.55046
2015    4       3       0.4066071       92.79806
2015    4       4       0.3936607       90.79446
2015    4       5       0.3732081       87.44736
2015    4       6       0.3485399       83.07065
2015    4       7       0.3414888       81.74195
2015    5       0       0.3464996       82.68968
2015    5       1       0.3363095       80.80552
2015    5       2       0.3295797       79.41112
2015    5       3       0.332258        79.90085
2015    5       4       0.3264853       78.82634
2015    5       5       0.3177999       77.16647
2015    5       6       0.3105889       75.758
2015    5       7       0.3091488       75.44339
2015    6       0       0.3176426       77.06494
2015    6       1       0.3250582       78.49351
2015    6       2       0.3283967       79.08947
2015    6       3       0.3333101       80.04423
2015    6       4       0.3258774       78.63816
2015    6       5       0.3091329       75.49044
2015    6       6       0.3164168       76.76433
2015    6       7       0.3350264       80.08174
2015    7       0       0.3313439       79.20819
2015    7       1       0.3126477       75.57883
2015    7       2       0.3183573       76.48472
2015    7       3       0.3551622       83.28708
2015    7       4       0.3561663       83.74125
2015    7       5       0.2854142       70.83363
2015    7       6       0.3170073       76.41137
2015    7       7       0.5296427       110.906
2015    8       0       0.7792583       145.1205
2015    8       1       0.8232682       152.0391
2015    8       2       0.4340103       98.39031
2015    8       3       0.4098878       92.97824
2015    8       4       0.4965057       105.6329
2015    8       5       0.6094541       123.3872
2015    8       6       0.4384956       98.93882
2015    8       7       0.206056        54.18449
2015    9       0       0.3070089       73.00759
2015    9       1       0.3846538       86.97051
2015    9       2       0.4018992       89.07457
2015    9       3       0.3384009       77.77713
2015    9       4       0.4402232       96.13433
2015    9       5       0.8254109       151.274
2015    9       6       0.9091265       159.7295
2015    9       7       1.390434        199.1378
2015    10      0       0.7060369       137.4274
2015    10      1       0.3370976       79.28745
2015    10      2       0.6975963       133.1544
2015    10      3       1.340186        197.6138
2015    10      4       1.457799        206.2006
2015    10      5       1.457072        206.8881
2015    10      6       0.9701712       169.607
2015    10      7       0.7376226       142.7357
2015    11      0       0.7979422       150.8811
2015    11      1       1.203953        190.2897
2015    11      2       1.435754        206.0345
2015    11      3       1.551691        212.399
2015    11      4       1.459603        206.658
2015    11      5       1.109997        181.1211
2015    11      6       0.8983672       160.6101
2015    11      7       0.7644905       145.0859
2015    12      0       0.6230819       126.8103
2015    12      1       0.4949171       107.4611
2015    12      2       0.5625745       117.1066
2015    12      3       0.7929599       148.1672
2015    12      4       0.787642        148.3365
2015    12      5       0.7165811       139.6692
2015    12      6       0.58988         122.7764
2015    12      7       0.472117        104.8336
2015    13      0       0.3906544       90.93404
2015    13      1       0.3707886       87.10662
2015    13      2       0.3243055       78.09161
2015    13      3       0.4016922       91.65691
2015    13      4       0.4933553       106.9472
2015    13      5       0.4964542       107.8829
2015    13      6       0.5020339       108.7855
2015    13      7       0.5154427       110.5044
2015    14      0       0.47835         104.4914
2015    14      1       0.417748        94.09032
2015    14      2       0.4165445       93.44753
2015    14      3       0.3504194       82.54553
2015    14      4       0.3003575       73.50495
2015    14      5       0.3264539       78.38604
2015    14      6       0.5091228       109.2066
2015    14      7       0.7709337       144.9464
2015    15      0       0.6220594       125.7924
2015    15      1       0.6753354       132.6333
2015    15      2       0.8196919       149.799
2015    15      3       0.9493304       163.714
2015    15      4       0.9984082       169.1637
2015    15      5       1.021747        171.684
2015    15      6       1.094025        178.4666
2015    15      7       1.23586         190.1614
2015    16      0       1.189062        185.5137
2015    16      1       1.404676        201.0274
2015    16      2       1.137918        182.5324
2015    16      3       1.058974        176.2979
2015    16      4       0.6745014       133.5565
2015    16      5       0.609111        124.395
2015    16      6       0.6805249       134.132
2015    16      7       0.8072169       150.023
2015    17      0       0.8352415       153.4916
2015    17      1       0.8368818       153.978
2015    17      2       0.5107618       110.1679
2015    17      3       0.3465386       81.85584
2015    17      4       0.3498677       82.21629
2015    17      5       0.334518        79.27742
2015    17      6       0.3399751       80.4831
2015    17      7       0.4690271       102.061
2015    18      0       0.7144239       136.7824
2015    18      1       0.7673986       143.4209
2015    18      2       0.7861325       145.8781
2015    18      3       0.9634266       165.1298
2015    18      4       1.142453        181.5823
2015    18      5       1.160076        182.7803
2015    18      6       0.4760791       104.6456
2015    18      7       0.3853739       88.8743
2015    19      0       0.3734678       86.45867
2015    19      1       0.5628252       117.3742
2015    19      2       0.5447595       114.4939
2015    19      3       0.5116661       109.2508
2015    19      4       0.4460185       98.78609
2015    19      5       0.2989822       72.87163
2015    19      6       0.1809088       48.82135
2015    19      7       0.150376        42.17237
2015    20      0       0.1577539       43.85108
2015    20      1       0.1972546       52.25695
2015    20      2       0.305092        74.11328
2015    20      3       0.3090884       75.13934
2015    20      4       0.2802673       69.44244
2015    20      5       0.2426131       61.71722
2015    20      6       0.2927936       71.07465
2015    20      7       0.4763856       102.612
2015    21      0       0.6606516       129.399
2015    21      1       0.7356858       139.0433
2015    21      2       0.7208672       137.4205
2015    21      3       0.9672775       165.4188
2015    21      4       0.9524184       163.7008
2015    21      5       1.072397        176.0171
2015    21      6       1.097675        178.2242
2015    21      7       0.700708        135.4108
2015    22      0       0.5007897       106.8925
2015    22      1       0.5215313       110.705
2015    22      2       0.7493832       143.1588
2015    22      3       0.9289299       163.3036
2015    22      4       1.112309        179.9782
2015    22      5       1.224822        189.1871
2015    22      6       1.144455        182.6714
2015    22      7       1.251859        191.0674
2015    23      0       1.003733        169.9594
2015    23      1       0.7443046       141.852
2015    23      2       0.721597        138.6428
2015    23      3       0.9095237       159.6561
2015    23      4       1.10942         178.6227
2015    23      5       1.270344        191.7989
2015    23      6       0.9738512       165.8898
2015    23      7       1.223588        188.0343
2015    24      0       0.8948584       159.1169
2015    24      1       0.9677924       165.3594
2015    24      2       0.9612219       164.1175
2015    24      3       0.909674        158.8248
2015    24      4       1.056384        172.0673
2015    24      5       1.162256        180.0763
2015    24      6       1.329039        192.8264
2015    24      7       1.133011        177.9328
2015    25      0       1.014803        167.9446
2015    25      1       1.118681        177.8194
2015    25      2       1.060862        172.6252
2015    25      3       1.056348        172.7661
2015    25      4       1.230719        186.8656
2015    25      5       1.311619        192.8466
2015    25      6       1.246038        188.6993
2015    25      7       1.572403        208.9831
2015    26      0       1.66427         212.8646
2015    26      1       1.081873        174.7497
2015    26      2       0.849731        151.7165
2015    26      3       0.5204385       109.7031
2015    26      4       0.6347738       125.6666
2015    26      5       0.7513925       139.6693
2015    26      6       0.7754385       141.9545
2015    26      7       0.8980127       155.9552
2015    27      0       1.025459        169.4127
2015    27      1       1.064175        172.9642
2015    27      2       1.206013        183.626
2015    27      3       0.8546032       151.7301
2015    27      4       1.063069        172.1516
2015    27      5       1.356058        195.9466
2015    27      6       1.192748        181.1188
2015    27      7       0.8467191       150.0757
2015    28      0       0.9241738       158.4232
2015    28      1       0.9305067       158.8136
2015    28      2       0.7860594       143.5705
2015    28      3       0.9116772       156.8116
2015    28      4       0.9174742       157.2107
2015    28      5       0.6827742       130.911
2015    28      6       0.7065665       132.8883
2015    28      7       0.6279073       123.6535
2015    29      0       0.5262387       110.1637
2015    29      1       0.4299182       94.99683
2015    29      2       0.4757243       101.6117
2015    29      3       0.5388965       110.6582
2015    29      4       0.5441611       111.4493
2015    29      5       0.3420581       78.92569
2015    29      6       0.145716        40.14182
2015    29      7       0.2156682       54.84746
2015    30      0       0.300115        70.65148
2015    30      1       0.63219         122.9734
2015    30      2       0.6264942       122.613
2015    30      3       0.5978          118.4952
2015    30      4       0.6462424       125.6594
2015    30      5       0.5401335       111.5662
2015    30      6       0.5612634       114.0882
2015    30      7       0.6055901       120.443
2016    1       0       0.4241801       94.11489
2016    1       1       0.7068194       135.1122
2016    1       2       0.7504252       141.5216
2016    1       3       0.4297836       96.18745
2016    1       4       0.3380709       78.97853
2016    1       5       0.4353268       96.32567
2016    1       6       0.652156        128.9914
2016    1       7       0.8149406       149.5422
2016    2       0       0.7999458       148.1962
2016    2       1       0.7488515       142.251
2016    2       2       0.7221432       139.04
2016    2       3       0.6465182       129.4548
2016    2       4       0.545249        115.1815
2016    2       5       0.4880325       106.3638
2016    2       6       0.7593329       143.9156
2016    2       7       0.8112439       149.4962
2016    3       0       0.743358        141.4369
2016    3       1       0.8435325       153.1021
2016    3       2       0.9125511       160.1739
2016    3       3       0.7978877       147.271
2016    3       4       0.8159045       149.2355
2016    3       5       1.111319        178.4604
2016    3       6       1.147744        181.3542
2016    3       7       1.301803        192.3958
2016    4       0       1.310646        193.0119
2016    4       1       1.392724        198.1716
2016    4       2       0.9102671       159.7591
2016    4       3       0.5610581       117.3774
2016    4       4       0.6645035       131.6694
2016    4       5       0.5218532       111.2094
2016    4       6       0.4781619       104.2894
2016    4       7       0.5176523       110.2291
2016    5       0       0.5548261       116.0673
2016    5       1       0.553747        116.1713
2016    5       2       0.5038185       108.0377
2016    5       3       0.5447631       113.9505
2016    5       4       0.5976949       121.4472
2016    5       5       1.008846        169.7897
2016    5       6       1.143845        183.0531
2016    5       7       1.288922        194.816
2016    6       0       1.299682        195.9426
2016    6       1       1.420206        203.404
2016    6       2       1.468353        205.8921
2016    6       3       1.371996        200.2828
2016    6       4       1.20784         188.7678
2016    6       5       1.258494        192.1053
2016    6       6       1.24395         191.2114
2016    6       7       1.008048        171.755
2016    7       0       0.9309159       163.7049
2016    7       1       0.9150271       162.37
2016    7       2       0.9184566       160.5912
2016    7       3       1.18658         185.4925
2016    7       4       1.265471        192.8653
2016    7       5       1.344755        199.4922
2016    7       6       1.832222        225.159
2016    7       7       1.441631        204.8008
2016    8       0       1.587848        214.0023
2016    8       1       1.272693        195.1153
2016    8       2       0.9940134       168.8428
2016    8       3       0.8525607       152.7219
2016    8       4       1.222055        188.0745
2016    8       5       1.171467        185.3687
2016    8       6       1.330314        196.46
2016    8       7       1.321103        195.6522
2016    9       0       1.295799        193.5345
2016    9       1       1.643337        215.0785
2016    9       2       1.553983        210.0131
2016    9       3       1.277375        193.4175
2016    9       4       1.335           196.1985
2016    9       5       1.425067        200.6328
2016    9       6       0.9769324       165.8111
2016    9       7       0.9346062       160.9637
2016    10      0       0.4836297       104.117
2016    10      1       0.2657782       65.55682
2016    10      2       0.2786586       67.27743
2016    10      3       0.5776713       116.5255
2016    10      4       0.8245243       148.5158
2016    10      5       0.8637671       153.1836
2016    10      6       0.8819221       155.195
2016    10      7       0.4712021       101.9317
2016    11      0       0.5935436       119.6478
2016    11      1       1.012676        166.8114
2016    11      2       1.17941         180.7843
2016    11      3       0.787017        144.7595
2016    11      4       0.4970955       105.9677
2016    11      5       0.3909963       88.19542
2016    11      6       0.6194181       123.6698
2016    11      7       0.8386088       151.0055
2016    12      0       0.721836        137.7134
2016    12      1       0.6302172       125.9447
2016    12      2       0.5822171       119.4869
2016    12      3       0.6046383       122.6812
2016    12      4       1.290674        193.1452
2016    12      5       1.29259         192.3133
2016    12      6       1.424078        200.9738
2016    12      7       0.3918549       88.72026
2016    13      0       0.6721281       129.4797
2016    13      1       0.7533717       139.5687
2016    13      2       0.5501041       113.2812
2016    13      3       0.3174608       76.14996
2016    13      4       0.1711807       46.45452
2016    13      5       0.2645985       64.86607
2016    13      6       0.4335279       94.5822
2016    13      7       0.5871103       117.5191
2016    14      0       0.5916627       117.9501
2016    14      1       0.5499618       112.0125
2016    14      2       0.670105        128.8011
2016    14      3       0.7603494       140.5018
2016    14      4       0.8147549       146.9023
2016    14      5       0.7931065       144.7984
2016    14      6       0.8235648       147.9798
2016    14      7       0.8655815       152.0387
2016    15      0       0.6642572       128.3274
2016    15      1       0.5541619       113.3019
2016    15      2       0.4964404       104.6051
2016    15      3       0.4060362       90.10738
2016    15      4       0.3423538       78.97189
2016    15      5       0.2332415       58.69865
2016    15      6       0.2032451       52.49137
2016    15      7       0.2405782       60.38335
2016    16      0       0.2001061       51.92338
2016    16      1       0.2647862       64.1505
2016    16      2       0.4171549       91.5883
2016    16      3       0.7149978       135.036
2016    16      4       0.9538524       162.4846
2016    16      5       1.068172        174.0976
2016    16      6       1.069832        174.3975
2016    16      7       1.133701        179.7231
2016    17      0       1.001591        168.6385
2016    17      1       0.6239572       125.5776
2016    17      2       0.5499416       114.8569
2016    17      3       0.6077063       123.2886
2016    17      4       0.802421        147.9377
2016    17      5       1.055624        173.5898
2016    17      6       1.10835         178.2421
2016    17      7       1.055532        174.0801
2016    18      0       0.9055577       160.1345
2016    18      1       0.8214189       151.0609
2016    18      2       0.7546359       143.4024
2016    18      3       0.7042399       137.3168
2016    18      4       0.6415668       129.1474
2016    18      5       0.5911024       122.1592
2016    18      6       0.5759645       120.0091
2016    18      7       0.5799469       120.6688
2016    19      0       0.5703982       119.2175
2016    19      1       0.5751008       119.7186
2016    19      2       0.6033792       123.6577
2016    19      3       0.592505        121.484
2016    19      4       0.597721        121.3194
2016    19      5       0.6735255       132.0619
2016    19      6       0.5969156       122.0708
2016    19      7       0.5459601       114.341
2016    20      0       0.6056013       121.2171
2016    20      1       0.5960436       119.0252
2016    20      2       0.5560866       113.7066
2016    20      3       0.5528814       113.4375
2016    20      4       0.5998647       120.1711
2016    20      5       0.5392944       111.8792
2016    20      6       0.4931014       105.2472
2016    20      7       0.4378945       96.71718
2016    21      0       0.4074795       91.8308
2016    21      1       0.4051512       91.37108
2016    21      2       0.4183259       93.70529
2016    21      3       0.4251001       95.06531
2016    21      4       0.4253997       95.1959
2016    21      5       0.4173754       93.86587
2016    21      6       0.3996951       90.80219
2016    21      7       0.3842869       88.01834
2016    22      0       0.3803262       87.07431
2016    22      1       0.4042083       90.80891
2016    22      2       0.4301047       95.06549
2016    22      3       0.4491407       98.15065
2016    22      4       0.4472877       97.7245
2016    22      5       0.44358         97.05326
2016    22      6       0.4417583       96.87887
2016    22      7       0.4257306       94.3649
2016    23      0       0.4086105       91.55499
2016    23      1       0.4023416       90.57632
2016    23      2       0.4147888       92.90162
2016    23      3       0.4294556       95.4459
2016    23      4       0.42217         94.30283
2016    23      5       0.4036676       91.25527
2016    23      6       0.3855013       88.07645
2016    23      7       0.3657776       84.67374
2016    24      0       0.3252389       77.46496
2016    24      1       0.2838918       69.7189
2016    24      2       0.2690968       66.88403
2016    24      3       0.2492454       63.04498
2016    24      4       0.2469181       62.66456
2016    24      5       0.2517799       63.66509
2016    24      6       0.2332653       59.79817
2016    24      7       0.2186625       56.70981
2016    25      0       0.2322965       59.45661
2016    25      1       0.2683475       66.70166
2016    25      2       0.3026221       73.3338
2016    25      3       0.3549965       82.97185
2016    25      4       0.4308299       96.1823
2016    25      5       0.5440063       114.1343
2016    25      6       0.7371215       139.9041
2016    25      7       0.9326198       161.369
2016    26      0       0.9191401       160.1529
2016    26      1       0.913865        159.6553
2016    26      2       0.9909352       167.1599
2016    26      3       0.976361        166.1727
2016    26      4       0.977288        166.5767
2016    26      5       0.9572436       164.8095
2016    26      6       1.061692        174.4934
2016    26      7       1.414065        200.8245
2016    27      0       1.43096         202.1952
2016    27      1       0.8799129       156.0411
2016    27      2       0.4607322       99.5649
2016    27      3       0.3207421       75.79766
2016    27      4       0.3074462       73.40092
2016    27      5       0.3265942       76.57122
2016    27      6       0.2736061       66.44913
2016    27      7       0.271102        66.26953
2016    28      0       0.4880074       104.713
2016    28      1       0.8027257       147.1034
2016    28      2       1.178613        182.2649
2016    28      3       0.960203        162.5605
2016    28      4       0.9790059       163.8938
2016    28      5       1.305698        191.248
2016    28      6       1.223635        185.2826
2016    28      7       1.154369        179.5678
2016    29      0       1.041344        169.7828
2016    29      1       0.9108568       156.9784
2016    29      2       0.8148366       146.511
2016    29      3       0.7698506       141.4127
2016    29      4       0.7567374       139.5918
2016    29      5       0.7859755       142.2522
2016    29      6       0.7606436       138.3214
2016    29      7       0.6119757       119.8731
2016    30      0       0.5203779       107.0011
2016    30      1       0.4357871       93.98703
2016    30      2       0.3598981       81.41497
2016    30      3       0.2618341       63.80014
2016    30      4       0.1371173       38.50932
2016    30      5       0.1277362       35.82477
2016    30      6       0.2261113       55.95608
2016    30      7       0.3213173       74.30652
2017    1       0       0.2893211       70.46001
2017    1       1       0.2952673       71.78917
2017    1       2       0.3037792       73.22749
2017    1       3       0.3226388       76.42769
2017    1       4       0.3420499       79.89508
2017    1       5       0.3225068       76.44785
2017    1       6       0.2883194       70.3553
2017    1       7       0.2807773       69.16382
2017    2       0       0.2750136       67.9877
2017    2       1       0.4097579       91.47828
2017    2       2       0.5409793       112.8945
2017    2       3       0.5319591       112.2181
2017    2       4       0.5135918       109.6856
2017    2       5       0.4941376       106.9388
2017    2       6       0.4642905       102.2142
2017    2       7       0.4720507       103.1625
2017    3       0       0.6503152       128.6356
2017    3       1       0.782288        144.6131
2017    3       2       1.01285         167.9793
2017    3       3       1.243767        186.8555
2017    3       4       1.078249        173.1195
2017    3       5       0.9844833       164.38
2017    3       6       1.053258        170.5716
2017    3       7       1.041785        169.8016
2017    4       0       0.9904695       165.0278
2017    4       1       0.7408105       138.4412
2017    4       2       0.6003565       120.7488
2017    4       3       0.52802         110.7248
2017    4       4       0.4684818       102.0778
2017    4       5       0.3446515       81.05631
2017    4       6       0.2763997       68.32061
2017    4       7       0.2569347       64.48498
2017    5       0       0.2543247       64.14571
2017    5       1       0.2400242       61.3599
2017    5       2       0.201994        53.49942
2017    5       3       0.1798453       48.7008
2017    5       4       0.1721085       46.94512
2017    5       5       0.1649094       45.31766
2017    5       6       0.1639987       45.12042
2017    5       7       0.1675759       45.90297
2017    6       0       0.1759778       47.7297
2017    6       1       0.1919667       51.21502
2017    6       2       0.1873579       50.26453
2017    6       3       0.184397        49.67626
2017    6       4       0.2165145       56.37775
2017    6       5       0.39991         90.76792
2017    6       6       0.7400935       140.5619
2017    6       7       0.9360211       162.571
2017    7       0       1.021051        171.0487
2017    7       1       1.018995        169.9933
2017    7       2       1.060259        173.7693
2017    7       3       0.9272253       161.8255
2017    7       4       0.8477929       153.7729
2017    7       5       1.049241        173.5092
2017    7       6       0.9372989       162.0137
2017    7       7       0.7189145       137.3367
2017    8       0       0.720406        137.0099
2017    8       1       0.8055042       146.8766
2017    8       2       0.8220586       149.063
2017    8       3       0.8097581       147.5291
2017    8       4       1.019024        168.476
2017    8       5       1.254402        187.6722
2017    8       6       0.8343301       148.9211
2017    8       7       0.9309245       158.5969
2017    9       0       0.9599935       162.7856
2017    9       1       0.711258        135.8068
2017    9       2       0.5529616       114.5104
2017    9       3       0.5240599       110.2563
2017    9       4       0.8259776       149.7106
2017    9       5       0.5575992       115.1772
2017    9       6       0.4312193       95.14298
2017    9       7       0.3984149       89.65556
2017    10      0       0.3767784       86.07379
2017    10      1       0.3639296       83.65026
2017    10      2       0.4154274       92.32091
2017    10      3       0.4647032       100.5088
2017    10      4       0.3877096       87.98097
2017    10      5       0.3433402       80.29846
2017    10      6       0.3816154       86.49903
2017    10      7       0.7883899       144.3437
2017    11      0       1.016896        168.4533
2017    11      1       1.078741        174.0754
2017    11      2       1.064977        173.2
2017    11      3       1.096825        176.1397
2017    11      4       1.128692        178.6137
2017    11      5       1.242685        187.3072
2017    11      6       1.408961        199.0764
2017    11      7       1.384975        197.5737
2017    12      0       1.16551         182.4141
2017    12      1       0.8783054       156.4589
2017    12      2       0.5556677       114.3909
2017    12      3       0.7474288       140.3067
2017    12      4       0.9028171       158.1481
2017    12      5       1.156959        181.2828
2017    12      6       0.894023        157.0007
2017    12      7       0.8553299       153.5594
2017    13      0       0.9110648       159.4419
2017    13      1       0.7042928       136.264
2017    13      2       0.8780261       155.5889
2017    13      3       0.9456041       163.0886
2017    13      4       0.9762562       166.6594
2017    13      5       0.8831498       156.4064
2017    13      6       1.14451         180.3512
2017    13      7       1.048735        172.2779
2017    14      0       0.9632058       164.7198
2017    14      1       0.8763617       156.7463
2017    14      2       0.8076026       149.5139
2017    14      3       0.7442582       142.1147
2017    14      4       0.8865223       157.9763
2017    14      5       0.89915         158.857
2017    14      6       0.8690593       155.4946
2017    14      7       0.958669        164.7958
2017    15      0       0.9033244       159.4423
2017    15      1       1.236669        188.5036
2017    15      2       1.422454        201.3233
2017    15      3       1.239577        188.9685
2017    15      4       1.21348         187.5305
2017    15      5       1.182676        185.2988
2017    15      6       1.092834        177.9925
2017    15      7       0.9901886       168.6427
2017    16      0       0.8805096       157.2835
2017    16      1       0.8507513       153.3574
2017    16      2       0.651596        128.9292
2017    16      3       0.6769659       130.5564
2017    16      4       0.9924614       165.3457
2017    16      5       0.891993        155.4334
2017    16      6       0.7794625       143.2294
2017    16      7       0.8318324       149.2411
2017    17      0       0.8611634       151.9547
2017    17      1       0.9585963       162.192
2017    17      2       1.136829        178.3865
2017    17      3       1.132868        178.0207
2017    17      4       1.1379          178.3136
2017    17      5       1.175088        181.3376
2017    17      6       1.222461        185.3151
2017    17      7       1.1646          181.1224
2017    18      0       1.228074        186.0819
2017    18      1       1.191277        183.2631
2017    18      2       0.9506533       162.024
2017    18      3       0.601251        120.8687
2017    18      4       0.6804819       132.326
2017    18      5       0.7927837       145.7804
2017    18      6       0.8078159       147.1141
2017    18      7       0.8188243       148.3086
2017    19      0       0.8391138       150.3102
2017    19      1       0.8552545       151.8548
2017    19      2       0.7998454       145.8634
2017    19      3       0.8120677       147.2408
2017    19      4       0.9566933       162.065
2017    19      5       1.028086        168.9508
2017    19      6       1.030101        168.7372
2017    19      7       0.9389099       159.4575
2017    20      0       0.9161333       156.6611
2017    20      1       0.7438034       136.9963
2017    20      2       0.6341676       122.6025
2017    20      3       0.6540239       124.407
2017    20      4       0.442484        93.88651
2017    20      5       0.2394798       58.82397
2017    20      6       0.1765106       46.45985
2017    20      7       0.1344          37.36743
2017    21      0       0.1705615       44.92466
2017    21      1       0.2465544       59.99972
2017    21      2       0.3996358       87.75145
2017    21      3       0.5354704       109.3693
2017    21      4       0.6282918       122.9003
2017    21      5       0.7364071       136.941
2017    21      6       0.7379163       137.3222
2017    21      7       0.7205156       135.241
2017    22      0       0.6522518       127.1054
2017    22      1       0.7342472       137.2978
2017    22      2       0.9585853       162.1996
2017    22      3       0.9944288       166.2366
2017    22      4       0.8894659       156.3844
2017    22      5       0.8202625       148.6683
2017    22      6       0.4578077       99.6755
2017    22      7       0.3728749       85.6839
2017    23      0       0.2827398       68.82732
2017    23      1       0.3246689       76.65403
2017    23      2       0.413019        92.70927
2017    23      3       0.4770668       103.6992
2017    23      4       0.5304228       112.3247
2017    23      5       0.5645241       117.4729
2017    23      6       0.5243432       111.8701
2017    23      7       0.4656734       102.766
2017    24      0       0.3936809       90.45615
2017    24      1       0.2899816       71.12125
2017    24      2       0.2407956       61.00901
2017    24      3       0.2996237       72.47377
2017    24      4       0.393226        89.65909
2017    24      5       0.3802537       87.57847
2017    24      6       0.3220115       76.87398
2017    24      7       0.316419        75.56464
2017    25      0       0.3362594       78.53791
2017    25      1       0.2773194       68.14697
2017    25      2       0.2245469       58.00997
2017    25      3       0.2020456       53.3413
2017    25      4       0.2068585       54.26979
2017    25      5       0.2135408       55.64006
2017    25      6       0.2135112       55.61972
2017    25      7       0.2348622       59.84236
2017    26      0       0.3002143       72.00556
2017    26      1       0.3028094       72.49036
2017    26      2       0.2754367       67.83981
2017    26      3       0.3949776       89.8189
2017    26      4       0.9167044       159.5538
2017    26      5       1.047044        171.4814
2017    26      6       1.094545        174.8913
2017    26      7       1.144129        179.2198
2017    27      0       1.066122        172.8485
2017    27      1       1.266232        188.4418
2017    27      2       1.320629        192.3013
2017    27      3       1.243456        186.6633
2017    27      4       1.226643        185.6859
2017    27      5       1.235826        186.1642
2017    27      6       1.144032        178.4166
2017    27      7       0.8205585       147.3388
2017    28      0       0.8008036       144.7229
2017    28      1       0.8042379       144.8683
2017    28      2       0.7718655       140.9927
2017    28      3       0.7367733       136.466
2017    28      4       0.6155251       121.23
2017    28      5       0.491926        103.8967
2017    28      6       0.4779791       101.9491
2017    28      7       0.615036        121.7272
2017    29      0       0.5604036       114.8226
2017    29      1       0.3962318       89.11955
2017    29      2       0.4243261       93.62899
2017    29      3       0.5457153       112.8584
2017    29      4       0.5910838       119.2956
2017    29      5       0.489728        104.2137
2017    29      6       0.4146577       91.54187
2017    29      7       0.5528831       113.1613
2017    30      0       0.8418796       151.2265
2017    30      1       1.266957        191.0109
2017    30      2       1.014688        170.0593
2017    30      3       0.9574519       166.3448
2017    30      4       1.160741        184.4788
2017    30      5       1.219932        189.0172
2017    30      6       1.261758        192.4195
2017    30      7       1.226947        189.7018
2018    1       0       0.4423453       97.93816
2018    1       1       1.204465        187.9351
2018    1       2       1.758723        223.4366
2018    1       3       1.838496        227.5785
2018    1       4       1.870844        229.1806
2018    1       5       2.09818         237.3997
2018    1       6       2.040695        235.7031
2018    1       7       1.904495        230.6211
2018    2       0       1.725263        223.07
2018    2       1       1.730556        223.0181
2018    2       2       1.832134        227.1589
2018    2       3       1.60283         216.202
2018    2       4       1.450694        207.515
2018    2       5       1.473696        208.894
2018    2       6       1.449484        207.6516
2018    2       7       1.407399        205.252
2018    3       0       1.429184        206.7376
2018    3       1       1.510728        211.8116
2018    3       2       1.602519        216.97
2018    3       3       1.500161        211.2668
2018    3       4       1.162432        187.2513
2018    3       5       0.8495772       155.8644
2018    3       6       0.7419404       142.1326
2018    3       7       0.6610442       131.2202
2018    4       0       0.5781327       119.2535
2018    4       1       0.5053864       107.9167
2018    4       2       0.3685804       84.82459
2018    4       3       0.3502004       81.65216
2018    4       4       0.492652        106.7321
2018    4       5       0.4358516       97.15835
2018    4       6       0.3524025       82.58592
2018    4       7       0.2926541       71.21683
2018    5       0       0.2185699       56.46446
2018    5       1       0.1978832       52.27968
2018    5       2       0.2681311       67.23469
2018    5       3       0.344188        81.82596
2018    5       4       0.3935891       90.55668
2018    5       5       0.4026801       91.99129
2018    5       6       0.384161        88.43529
2018    5       7       0.4025818       91.19304
2018    6       0       0.4172885       93.7878
2018    6       1       0.4769614       104.18
2018    6       2       0.5419103       114.5651
2018    6       3       0.5288172       112.6651
2018    6       4       0.4929458       107.1199
2018    6       5       0.4368337       98.05834
2018    6       6       0.3969795       91.29745
2018    6       7       0.4026277       92.1886
2018    7       0       0.3965971       90.9525
2018    7       1       0.3778523       87.58468
2018    7       2       0.3709538       86.35813
2018    7       3       0.3529422       83.12197
2018    7       4       0.3254205       78.13418
2018    7       5       0.2952276       72.6258
2018    7       6       0.2382109       61.42746
2018    7       7       0.2003391       53.67078
2018    8       0       0.1910967       51.62097
2018    8       1       0.2032918       53.92164
2018    8       2       0.2459998       62.52123
2018    8       3       0.294751        72.04535
2018    8       4       0.3240313       77.73596
2018    8       5       0.3487302       82.21283
2018    8       6       0.3751312       86.80167
2018    8       7       0.3966314       90.88289
2018    9       0       0.4426403       98.97753
2018    9       1       0.4741703       104.2764
2018    9       2       0.4527582       100.9294
2018    9       3       0.3897789       90.37397
2018    9       4       0.330997        79.86624
2018    9       5       0.3058791       75.0671
2018    9       6       0.2987823       73.58049
2018    9       7       0.3024954       74.15399
2018    10      0       0.2938655       72.35032
2018    10      1       0.2697788       67.53467
2018    10      2       0.2592088       65.43069
2018    10      3       0.2569851       64.96091
2018    10      4       0.2475699       62.94516
2018    10      5       0.2360702       60.54487
2018    10      6       0.2298418       59.23013
2018    10      7       0.2343374       60.10569
2018    11      0       0.2258182       58.22739
2018    11      1       0.2055336       53.84832
2018    11      2       0.1931346       51.19127
2018    11      3       0.1939921       51.43749
2018    11      4       0.1913384       50.8844
2018    11      5       0.1742415       47.18357
2018    11      6       0.175916        47.49023
2018    11      7       0.1807237       48.5672
2018    12      0       0.1763359       47.71419
2018    12      1       0.1945398       51.54101
2018    12      2       0.2448529       62.03342
2018    12      3       0.2761619       68.17024
2018    12      4       0.2976824       72.00456
2018    12      5       0.3336737       78.57578
2018    12      6       0.3721058       85.51005
2018    12      7       0.4370408       96.73867
2018    13      0       0.4803189       103.4435
2018    13      1       0.5679366       116.3032
2018    13      2       0.5884448       119.6765
2018    13      3       0.5416958       113.2615
2018    13      4       0.5575339       115.6875
2018    13      5       0.5271635       111.5888
2018    13      6       0.4697482       102.8895
2018    13      7       0.4889569       105.9088
2018    14      0       0.7142041       137.7801
2018    14      1       0.9217671       161.3724
2018    14      2       0.864488        155.2186
2018    14      3       0.5760623       118.6411
2018    14      4       0.8765595       156.3035
2018    14      5       0.3789038       87.91178
2018    14      6       0.2593316       64.49062
2018    14      7       0.2618057       63.90498
2018    15      0       0.3625538       82.23752
2018    15      1       0.2336429       58.96762
2018    15      2       0.2899093       69.74368
2018    15      3       0.2247227       56.72982
2018    15      4       0.4477396       96.57192
2018    15      5       0.4510868       96.50981
2018    15      6       0.4099497       89.92077
2018    15      7       0.3761385       84.232
2018    16      0       0.3516053       79.97911
2018    16      1       0.3556994       80.44187
2018    16      2       0.4082301       89.17257
2018    16      3       0.3922828       86.82407
2018    16      4       0.2921524       69.6197
2018    16      5       0.20315         52.41901
2018    16      6       0.2101023       53.48097
2018    16      7       0.2099044       53.4297
2018    17      0       0.2616083       63.39612
2018    17      1       0.3581336       81.52527
2018    17      2       0.4179074       91.99647
2018    17      3       0.490234        103.4627
2018    17      4       0.60935         120.5518
2018    17      5       0.8389494       149.0085
2018    17      6       0.7168384       136.1292
2018    17      7       0.6970059       133.2945
2018    18      0       0.7518586       139.9481
2018    18      1       0.8112249       146.7744
2018    18      2       0.9427475       161.0389
2018    18      3       1.155756        180.2262
2018    18      4       1.40733         198.8863
2018    18      5       1.478763        203.4238
2018    18      6       1.465207        202.7603
2018    18      7       1.495766        205.5461
2018    19      0       1.217896        188.1182
2018    19      1       0.8935914       158.0377
2018    19      2       0.3874155       87.68978
2018    19      3       0.3131212       73.17045
2018    19      4       0.5647035       113.6594
2018    19      5       0.6697915       129.042
2018    19      6       0.7035864       135.0386
2018    19      7       0.9196938       160.1642
2018    20      0       1.2541          189.209
2018    20      1       1.441615        202.0519
2018    20      2       1.310974        193.8198
2018    20      3       1.29266         192.7527
2018    20      4       1.344862        196.0222
2018    20      5       1.508296        206.286
2018    20      6       1.502476        205.8334
2018    20      7       1.476742        204.5135
2018    21      0       1.580021        210.5037
2018    21      1       1.409599        200.2216
2018    21      2       1.584864        210.5103
2018    21      3       1.499677        205.4871
2018    21      4       1.346962        195.6041
2018    21      5       1.382526        197.7143
2018    21      6       1.274253        190.4251
2018    21      7       1.179629        183.1889
2018    22      0       1.12457         178.8299
2018    22      1       1.063852        173.7401
2018    22      2       1.051055        172.4067
2018    22      3       1.149421        180.369
2018    22      4       1.112021        177.2597
2018    22      5       1.083922        174.9063
2018    22      6       0.9870028       166.0978
2018    22      7       0.8594561       153.241
2018    23      0       0.7164179       136.6811
2018    23      1       0.6095872       122.5754
2018    23      2       0.5296835       111.2365
2018    23      3       0.4502957       99.1915
2018    23      4       0.4068347       92.0348
2018    23      5       0.3168122       76.10833
2018    23      6       0.2523793       63.70773
2018    23      7       0.2388999       60.57995
2018    24      0       0.2256838       57.38719
2018    24      1       0.2255213       57.00314
2018    24      2       0.2384772       59.55753
2018    24      3       0.3287788       76.73756
2018    24      4       0.5330487       111.0336
2018    24      5       0.8224003       149.2208
2018    24      6       1.11968         178.4318
2018    24      7       1.165961        182.4789
2018    25      0       1.168013        182.8584
2018    25      1       1.215789        186.8901
2018    25      2       1.21794         187.2566
2018    25      3       1.243849        189.3126
2018    25      4       1.329072        195.794
2018    25      5       1.40887         201.3269
2018    25      6       1.481217        205.4948
2018    25      7       1.207711        188.0548
2018    26      0       1.142479        182.08
2018    26      1       1.314562        194.913
2018    26      2       1.327953        196.0623
2018    26      3       1.477086        205.2533
2018    26      4       1.453396        202.7126
2018    26      5       0.7761597       144.4726
2018    26      6       1.001492        166.6149
2018    26      7       1.313484        192.9843
2018    27      0       1.341457        195.5165
2018    27      1       1.10539         178.2614
2018    27      2       1.273645        191.2672
2018    27      3       1.581096        211.2504
2018    27      4       1.526514        206.7426
2018    27      5       1.532761        207.2924
2018    27      6       1.261954        189.3923
2018    27      7       1.350608        195.5027
2018    28      0       0.8617197       154.1143
2018    28      1       0.6769515       131.7268
2018    28      2       0.7340193       138.0523
2018    28      3       0.7422352       138.7932
2018    28      4       0.900158        156.3091
2018    28      5       0.9940314       165.1481
2018    28      6       0.9352397       159.3361
2018    28      7       0.8594905       151.7588
2018    29      0       0.8200238       147.2836
2018    29      1       0.7423038       138.1151
2018    29      2       0.6635189       128.2167
2018    29      3       0.6162443       122.0008
2018    29      4       0.6040123       120.366
2018    29      5       0.5990824       119.7035
2018    29      6       0.596513        119.2507
2018    29      7       0.5602729       114.1351
2018    30      0       0.460823        99.37125
2018    30      1       0.2979806       71.58712
2018    30      2       0.1519627       42.20002
2018    30      3       0.07957198      25.66238
2018    30      4       0.07107076      23.43626
2018    30      5       0.09822109      29.6386
2018    30      6       0.1265719       35.77973
2018    30      7       0.1698246       44.6571
