####################################################################################################
# Month: 12Dec                                                                                     #
# Station: BRZ                                                                                     #
# Frequency: 230 GHz                                                                               #
# Columns are: year    day     segment         tau     Tb (K)                                      #
####################################################################################################
2009    1       0       2.126644        244.6881
2009    1       1       2.10418         244.5496
2009    1       2       2.101774        244.8556
2009    1       3       1.860366        235.6772
2009    1       4       1.40722         211.3102
2009    1       5       1.286222        202.3473
2009    1       6       1.581905        220.9814
2009    1       7       1.842004        234.6629
2009    2       0       1.548047        219.0706
2009    2       1       1.331291        203.4242
2009    2       2       1.542739        217.1462
2009    2       3       1.551872        217.7542
2009    2       4       1.416133        209.5271
2009    2       5       1.339701        204.1078
2009    2       6       1.228744        196.0598
2009    2       7       1.268542        199.1487
2009    3       0       1.141717        188.6866
2009    3       1       1.067451        182.4123
2009    3       2       0.9858449       174.2019
2009    3       3       0.9225085       167.5906
2009    3       4       1.066057        181.9321
2009    3       5       1.262923        197.7116
2009    3       6       1.485924        214.1655
2009    3       7       1.445784        210.6171
2009    4       0       1.395741        207.1628
2009    4       1       1.579605        218.7765
2009    4       2       1.754195        227.0905
2009    4       3       1.554929        216.2727
2009    4       4       1.47385         211.6605
2009    4       5       1.62029         220.0066
2009    4       6       1.7898          228.5887
2009    4       7       1.805409        229.2029
2009    5       0       1.735101        225.6721
2009    5       1       1.528453        215.5054
2009    5       2       1.553158        217.2448
2009    5       3       1.546902        217.7091
2009    5       4       1.893782        235.8433
2009    5       5       1.909234        236.1025
2009    5       6       2.058845        241.9904
2009    5       7       2.093454        243.0732
2009    6       0       1.955031        237.8108
2009    6       1       1.686813        225.4255
2009    6       2       1.628219        222.3405
2009    6       3       1.528934        216.942
2009    6       4       1.301261        202.0281
2009    6       5       1.324852        203.7087
2009    6       6       1.41948         210.0969
2009    6       7       1.455166        211.833
2009    7       0       1.322536        202.4557
2009    7       1       1.169145        190.0449
2009    7       2       0.9025326       163.2109
2009    7       3       0.6558752       133.1215
2009    7       4       0.6370937       130.6577
2009    7       5       0.7794297       149.2409
2009    7       6       0.8072505       152.3606
2009    7       7       0.7801287       149.4898
2009    8       0       0.6768888       136.3455
2009    8       1       0.648867        132.5758
2009    8       2       0.5949066       125.0624
2009    8       3       0.6027704       126.4747
2009    8       4       0.6332382       131.0649
2009    8       5       0.6228844       129.4877
2009    8       6       0.7012668       139.8665
2009    8       7       0.8577924       158.9584
2009    9       0       0.9918583       173.6494
2009    9       1       1.047714        179.7328
2009    9       2       1.030509        178.8373
2009    9       3       0.9715895       173.4305
2009    9       4       1.18464         193.7724
2009    9       5       1.193311        194.4209
2009    9       6       1.125388        187.4208
2009    9       7       1.249796        197.4052
2009    10      0       1.157475        190.2871
2009    10      1       1.206155        194.6026
2009    10      2       0.9546398       171.1948
2009    10      3       0.6640952       135.9495
2009    10      4       0.4983484       110.4221
2009    10      5       0.4281025       97.57693
2009    10      6       0.5525521       118.5936
2009    10      7       0.6549806       133.4707
2009    11      0       0.5257055       114.1605
2009    11      1       0.2628201       65.09528
2009    11      2       0.2122434       54.3312
2009    11      3       0.1920262       50.38684
2009    11      4       0.1912379       50.47754
2009    11      5       0.188979        50.23165
2009    11      6       0.176602        47.61685
2009    11      7       0.1680242       45.73756
2009    12      0       0.1764264       47.61325
2009    12      1       0.1950092       51.72342
2009    12      2       0.2067009       54.38158
2009    12      3       0.2049651       54.16055
2009    12      4       0.1939498       51.94779
2009    12      5       0.1737574       47.72231
2009    12      6       0.1487917       42.22585
2009    12      7       0.1433427       41.18848
2009    13      0       0.210191        56.7174
2009    13      1       0.2747086       70.90614
2009    13      2       0.3334836       83.04457
2009    13      3       0.188177        51.73519
2009    13      4       0.1484397       42.01169
2009    13      5       0.1861111       50.59268
2009    13      6       0.3466915       84.47706
2009    13      7       0.5759784       124.0465
2009    14      0       0.7900714       153.8165
2009    14      1       0.9981658       177.385
2009    14      2       1.099811        186.9276
2009    14      3       1.169401        192.4149
2009    14      4       0.8961725       165.6334
2009    14      5       0.9321841       169.3907
2009    14      6       1.155415        190.405
2009    14      7       1.136979        188.2894
2009    15      0       1.07784         182.6182
2009    15      1       0.9469608       169.9063
2009    15      2       0.8191999       155.8554
2009    15      3       0.6608963       135.2796
2009    15      4       0.5600972       119.9251
2009    15      5       0.5571559       118.6752
2009    15      6       0.5442373       116.6428
2009    15      7       0.6130099       128.3241
2009    16      0       0.6832597       138.9421
2009    16      1       0.4889871       109.0654
2009    16      2       0.4531532       102.4996
2009    16      3       0.4314185       98.6563
2009    16      4       0.4079009       94.32931
2009    16      5       0.3500594       83.57576
2009    16      6       0.3140774       76.34289
2009    16      7       0.3159426       76.63918
2009    17      0       0.361666        85.69186
2009    17      1       0.3781647       89.14639
2009    17      2       0.3759865       88.83091
2009    17      3       0.4136659       95.39973
2009    17      4       0.5755304       121.2494
2009    17      5       0.7491934       145.0184
2009    17      6       0.6806079       135.6281
2009    17      7       0.4923744       107.7089
2009    18      0       0.5032645       109.6423
2009    18      1       0.6140954       126.9847
2009    18      2       0.6933364       138.4554
2009    18      3       0.7235287       141.9047
2009    18      4       0.7602351       145.2364
2009    18      5       0.8784125       158.0654
2009    18      6       1.08784         178.4836
2009    18      7       1.122019        182.2216
2009    19      0       1.050886        176.1314
2009    19      1       0.9369399       166.335
2009    19      2       1.024723        174.7536
2009    19      3       1.063613        179.4083
2009    19      4       1.119443        184.7345
2009    19      5       1.040856        177.5693
2009    19      6       1.07392         181.1985
2009    19      7       0.8753481       161.7438
2009    20      0       1.064786        181.6038
2009    20      1       1.118071        186.478
2009    20      2       1.101035        185.2154
2009    20      3       0.4841683       108.9682
2009    20      4       0.3537982       85.33115
2009    20      5       0.6165356       128.5504
2009    20      6       1.069917        181.5214
2009    20      7       1.467457        213.4256
2009    21      0       1.080385        181.4512
2009    21      1       0.9206272       164.7336
2009    21      2       0.6439396       129.5105
2009    21      3       0.2878866       70.57282
2009    21      4       0.308677        75.67477
2009    21      5       0.5223424       113.3253
2009    21      6       0.7017353       138.3395
2009    21      7       0.6276776       127.8933
2009    22      0       0.4684954       104.303
2009    22      1       0.3681788       87.04601
2009    22      2       0.3565481       85.26365
2009    22      3       0.3758542       88.77441
2009    22      4       0.4757781       104.9699
2009    22      5       0.5336406       114.3733
2009    22      6       0.5352005       114.9225
2009    22      7       0.4471421       100.9538
2009    23      0       0.4640553       104.0051
2009    23      1       0.4749292       105.9866
2009    23      2       0.5602383       119.3441
2009    23      3       0.6122952       126.4984
2009    23      4       0.8619776       157.6546
2009    23      5       0.9731969       169.6226
2009    23      6       0.8740485       160.1303
2009    23      7       0.8839341       161.4614
2009    24      0       0.8604433       158.8349
2009    24      1       0.782558        150.009
2009    24      2       0.8057174       152.6737
2009    24      3       0.7980597       151.663
2009    24      4       0.8534606       157.95
2009    24      5       0.9783854       170.7521
2009    24      6       1.121595        183.8506
2009    24      7       1.19346         190.0459
2009    25      0       1.17348         188.4237
2009    25      1       1.168484        188.358
2009    25      2       1.031724        177.0046
2009    25      3       1.060028        179.372
2009    25      4       1.201671        191.6661
2009    25      5       1.327982        201.0257
2009    25      6       1.514098        213.7998
2009    25      7       1.692926        224.6739
2009    26      0       1.588683        219.0577
2009    26      1       1.401776        207.2017
2009    26      2       1.419155        208.2645
2009    26      3       1.442211        210.1866
2009    26      4       1.302427        200.9599
2009    26      5       1.157213        189.3912
2009    26      6       1.33301         203.1668
2009    26      7       1.800927        230.1544
2009    27      0       1.49686         215.005
2009    27      1       1.610357        221.868
2009    27      2       1.196           192.8818
2009    27      3       1.200344        192.7206
2009    27      4       1.136954        187.6724
2009    27      5       1.148163        189.0003
2009    27      6       1.262266        198.2061
2009    27      7       1.660041        224.2262
2009    28      0       1.74157         229.1838
2009    28      1       1.24463         197.2472
2009    28      2       1.207961        194.4171
2009    28      3       1.379864        207.3644
2009    28      4       1.475699        213.7026
2009    28      5       1.444836        211.1959
2009    28      6       1.605746        219.8051
2009    28      7       1.558908        217.6502
2009    29      0       1.666345        222.3679
2009    29      1       1.380145        205.9084
2009    29      2       1.26279         198.0184
2009    29      3       1.576542        218.8334
2009    29      4       1.267417        198.2279
2009    29      5       1.199413        193.6602
2009    29      6       1.595464        219.584
2009    29      7       1.909756        235.0253
2009    30      0       1.814498        231.8184
2009    30      1       1.591273        219.6022
2009    30      2       1.713552        225.7809
2009    30      3       1.844284        231.926
2009    30      4       1.614614        220.4758
2009    30      5       1.569296        218.6296
2009    30      6       1.663253        223.7812
2009    30      7       1.702332        225.6327
2009    31      0       1.883369        234.557
2009    31      1       2.192284        247.379
2009    31      2       2.006801        240.5944
2009    31      3       1.805641        231.3611
2009    31      4       1.849996        233.0819
2009    31      5       1.892441        234.5613
2009    31      6       1.908879        234.678
2009    31      7       1.790081        229.3785
2010    1       0       0.598015        125.8603
2010    1       1       0.6357358       131.6765
2010    1       2       0.70847         141.9037
2010    1       3       0.8717035       161.9613
2010    1       4       1.015535        177.0019
2010    1       5       1.226621        195.5406
2010    1       6       1.338333        203.9713
2010    1       7       1.243187        196.5499
2010    2       0       1.102896        184.8347
2010    2       1       0.9090986       165.836
2010    2       2       0.9574692       170.8403
2010    2       3       1.233852        196.3499
2010    2       4       1.438223        211.9717
2010    2       5       1.377634        207.4391
2010    2       6       1.446272        210.7116
2010    2       7       1.513503        215.891
2010    3       0       1.623967        223.1399
2010    3       1       1.335618        204.7152
2010    3       2       1.12688         188.0554
2010    3       3       1.1447          189.2112
2010    3       4       1.169977        191.0404
2010    3       5       1.13064         187.7569
2010    3       6       1.215513        195.5849
2010    3       7       1.387025        208.1521
2010    4       0       1.35516         206.0834
2010    4       1       1.381621        208.4399
2010    4       2       1.677577        226.2949
2010    4       3       1.501092        216.6248
2010    4       4       1.464336        213.1652
2010    4       5       1.231361        196.0825
2010    4       6       1.17685         190.2676
2010    4       7       1.147894        186.7688
2010    5       0       1.151225        187.5545
2010    5       1       0.9681096       172.3343
2010    5       2       0.9119164       166.2237
2010    5       3       0.8172626       155.8319
2010    5       4       0.7801703       151.5785
2010    5       5       0.7423976       147.0305
2010    5       6       0.7429337       146.9691
2010    5       7       0.8209458       156.6456
2010    6       0       0.7635977       149.4713
2010    6       1       0.7205141       143.4706
2010    6       2       0.722071        143.8048
2010    6       3       0.7461511       147.0766
2010    6       4       0.7216047       143.5693
2010    6       5       0.7830659       151.2536
2010    6       6       1.234592        197.061
2010    6       7       1.162413        191.3136
2010    7       0       1.266975        200.3946
2010    7       1       1.615241        222.571
2010    7       2       1.477457        213.3181
2010    7       3       1.437555        210.8459
2010    7       4       1.708469        227.3242
2010    7       5       1.708742        226.3799
2010    7       6       1.671432        225.4748
2010    7       7       1.606231        223.146
2010    8       0       1.860664        236.1137
2010    8       1       1.524754        218.7285
2010    8       2       1.404448        211.4957
2010    8       3       1.034377        181.746
2010    8       4       1.017071        178.9487
2010    8       5       0.9011682       165.9294
2010    8       6       1.243878        197.3624
2010    8       7       1.462203        213.365
2010    9       0       1.627542        223.869
2010    9       1       1.929442        237.4638
2010    9       2       1.478031        214.3787
2010    9       3       1.209632        196.1492
2010    9       4       0.7864318       153.9817
2010    9       5       0.7777903       153.1981
2010    9       6       1.181234        194.4026
2010    9       7       1.254956        199.6463
2010    10      0       0.8330375       159.0877
2010    10      1       0.6133695       130.3007
2010    10      2       0.6018683       128.293
2010    10      3       0.5692341       123.0708
2010    10      4       0.4630601       106.2739
2010    10      5       0.5333734       118.7533
2010    10      6       0.9168637       169.5919
2010    10      7       0.8672204       163.5819
2010    11      0       0.437812        102.1213
2010    11      1       0.2175228       58.28808
2010    11      2       0.2011765       54.33011
2010    11      3       0.2183366       57.92055
2010    11      4       0.2204331       58.38387
2010    11      5       0.2202372       58.05489
2010    11      6       0.2936267       72.99796
2010    11      7       0.3876926       91.73129
2010    12      0       0.4790792       107.6393
2010    12      1       0.5297603       116.4049
2010    12      2       0.5196747       115.1417
2010    12      3       0.5266286       116.2403
2010    12      4       0.6071777       128.155
2010    12      5       0.687137        139.1707
2010    12      6       0.6784647       137.7348
2010    12      7       0.64128         132.184
2010    13      0       0.6785259       137.1752
2010    13      1       0.7319752       144.4517
2010    13      2       0.7291284       144.437
2010    13      3       0.7516445       147.3324
2010    13      4       0.7276188       144.5552
2010    13      5       0.8389741       157.78
2010    13      6       1.205234        194.2551
2010    13      7       1.300449        201.3352
2010    14      0       1.470416        213.2413
2010    14      1       1.462834        213.4525
2010    14      2       1.264761        199.3124
2010    14      3       1.046367        179.6942
2010    14      4       1.032379        177.4937
2010    14      5       1.208259        192.891
2010    14      6       1.575936        217.979
2010    14      7       1.499205        213.8991
2010    15      0       1.832425        232.3309
2010    15      1       1.929048        237.0902
2010    15      2       1.469979        212.1108
2010    15      3       1.452311        211.0115
2010    15      4       1.322819        202.5109
2010    15      5       1.32445         203.2668
2010    15      6       1.345082        205.3687
2010    15      7       1.391702        208.6067
2010    16      0       1.284399        201.2733
2010    16      1       1.066552        182.832
2010    16      2       0.7837349       151.5531
2010    16      3       0.4423406       101.1453
2010    16      4       0.2824751       70.95882
2010    16      5       0.2599708       66.73702
2010    16      6       0.2099356       56.04255
2010    16      7       0.2040577       54.68599
2010    17      0       0.2261704       59.53997
2010    17      1       0.2425866       63.19523
2010    17      2       0.2425393       63.29023
2010    17      3       0.2107285       56.43419
2010    17      4       0.180625        49.81829
2010    17      5       0.2125862       57.20959
2010    17      6       0.403861        95.94784
2010    17      7       0.3090113       77.69524
2010    18      0       0.1768711       48.6857
2010    18      1       0.1558162       43.53855
2010    18      2       0.1527317       42.79766
2010    18      3       0.1318204       37.74042
2010    18      4       0.1423847       40.1569
2010    18      5       0.2258491       59.24874
2010    18      6       0.3695401       88.72194
2010    18      7       0.3958864       93.64585
2010    19      0       0.3602965       86.90949
2010    19      1       0.26722         68.32958
2010    19      2       0.2202223       58.13601
2010    19      3       0.1764228       48.06567
2010    19      4       0.191624        51.01244
2010    19      5       0.2277565       58.67173
2010    19      6       0.333125        80.55171
2010    19      7       0.3472303       83.52032
2010    20      0       0.3114077       76.05993
2010    20      1       0.2887851       71.18139
2010    20      2       0.2922298       71.69259
2010    20      3       0.3065473       74.27582
2010    20      4       0.3342031       79.57624
2010    20      5       0.3364904       80.2465
2010    20      6       0.3333895       79.90485
2010    20      7       0.3397511       81.10474
2010    21      0       0.3210771       77.29139
2010    21      1       0.2969544       72.57919
2010    21      2       0.2716151       67.57183
2010    21      3       0.2512377       63.53956
2010    21      4       0.2566855       64.76591
2010    21      5       0.2675889       67.20106
2010    21      6       0.2879101       71.61842
2010    21      7       0.3247197       79.33044
2010    22      0       0.3081312       75.78893
2010    22      1       0.3267102       79.49132
2010    22      2       0.3519703       84.48439
2010    22      3       0.3797284       89.71896
2010    22      4       0.3998009       93.41658
2010    22      5       0.4849751       108.3095
2010    22      6       0.5916036       125.4269
2010    22      7       0.5780441       123.8624
2010    23      0       0.4697904       106.4867
2010    23      1       0.4078451       95.55627
2010    23      2       0.5082133       112.8223
2010    23      3       0.5979903       126.5201
2010    23      4       0.6803096       137.5983
2010    23      5       0.9026353       163.7532
2010    23      6       1.106248        183.5915
2010    23      7       1.27194         197.0807
2010    24      0       1.458933        211.8253
2010    24      1       1.702616        226.6615
2010    24      2       1.839917        232.9507
2010    24      3       1.433457        209.5718
2010    24      4       1.703488        225.4593
2010    24      5       1.562237        216.1425
2010    24      6       1.723977        225.1016
2010    24      7       1.611706        220.0701
2010    25      0       1.388997        206.1416
2010    25      1       1.359949        204.4658
2010    25      2       1.543661        216.7894
2010    25      3       1.562538        218.2727
2010    25      4       1.590928        219.9876
2010    25      5       1.740778        227.8409
2010    25      6       1.809046        231.2194
2010    25      7       1.784389        229.7898
2010    26      0       1.707921        226.8057
2010    26      1       1.50938         216.0875
2010    26      2       1.236504        197.2382
2010    26      3       1.023452        179.1594
2010    26      4       1.154846        191.3965
2010    26      5       1.388446        209.594
2010    26      6       1.440798        212.6996
2010    26      7       1.527762        218.4246
2010    27      0       2.030228        243.6848
2010    27      1       1.588495        221.7184
2010    27      2       1.816667        233.1813
2010    27      3       1.745317        229.2037
2010    27      4       1.367187        205.8623
2010    27      5       1.372452        205.9306
2010    27      6       1.315187        201.5681
2010    27      7       1.33127         202.0777
2010    28      0       1.355434        203.7483
2010    28      1       1.400344        206.9147
2010    28      2       1.638929        220.8702
2010    28      3       1.648534        222.1006
2010    28      4       1.654479        222.4543
2010    28      5       1.883777        233.9237
2010    28      6       1.868481        232.7555
2010    28      7       1.612554        219.9568
2010    29      0       1.564985        217.8275
2010    29      1       1.750861        228.4113
2010    29      2       1.488585        213.787
2010    29      3       1.579131        219.5087
2010    29      4       1.753255        229.3273
2010    29      5       1.990926        240.5924
2010    29      6       1.799029        231.95
2010    29      7       1.517986        216.7855
2010    30      0       1.346263        204.1815
2010    30      1       1.229602        194.4654
2010    30      2       1.169863        190.3562
2010    30      3       1.072296        182.4633
2010    30      4       1.207554        193.9679
2010    30      5       1.564597        218.6581
2010    30      6       2.0008          239.9196
2010    30      7       1.888095        235.437
2010    31      0       1.774364        230.2552
2010    31      1       1.45976         212.612
2010    31      2       1.707253        226.7531
2010    31      3       1.700425        226.3809
2010    31      4       1.433149        210.1528
2010    31      5       1.449603        210.8086
2010    31      6       1.8612          232.4633
2010    31      7       1.833665        231.602
2011    1       0       1.084599        180.6881
2011    1       1       1.136625        185.6959
2011    1       2       1.236182        194.4012
2011    1       3       1.266153        196.3475
2011    1       4       0.9366502       165.7765
2011    1       5       1.131693        184.0101
2011    1       6       1.218809        191.8345
2011    1       7       1.411082        205.212
2011    2       0       1.389658        204.1634
2011    2       1       1.072385        179.8968
2011    2       2       0.8169668       153.6875
2011    2       3       0.7891738       150.2021
2011    2       4       0.8411754       156.2224
2011    2       5       1.082063        181.5491
2011    2       6       1.508032        213.9646
2011    2       7       1.521487        214.8928
2011    3       0       1.548675        216.6039
2011    3       1       1.089279        182.4773
2011    3       2       1.180122        190.9093
2011    3       3       1.464937        211.7882
2011    3       4       1.575915        218.9385
2011    3       5       1.233342        195.2023
2011    3       6       1.266427        198.0022
2011    3       7       1.324302        202.9661
2011    4       0       0.958021        170.3914
2011    4       1       0.9327605       167.6439
2011    4       2       0.8750919       161.2236
2011    4       3       0.8458462       158.0054
2011    4       4       0.769023        148.5715
2011    4       5       0.8357595       156.7432
2011    4       6       1.049758        179.0726
2011    4       7       1.079679        181.6723
2011    5       0       0.9720552       171.4349
2011    5       1       0.9321012       167.5697
2011    5       2       1.001946        174.9865
2011    5       3       1.004404        175.2047
2011    5       4       0.9357226       168.4224
2011    5       5       0.9898188       173.5439
2011    5       6       1.187379        191.7657
2011    5       7       1.463905        212.1163
2011    6       0       1.563035        218.5946
2011    6       1       1.491172        213.3078
2011    6       2       1.434823        209.3003
2011    6       3       1.298687        199.4966
2011    6       4       1.145387        187.7986
2011    6       5       1.307722        200.0095
2011    6       6       1.250628        195.8963
2011    6       7       1.412608        207.6647
2011    7       0       1.345417        203.0106
2011    7       1       1.340959        202.661
2011    7       2       1.105733        184.3244
2011    7       3       1.013107        175.5405
2011    7       4       1.001029        174.6103
2011    7       5       1.257745        196.4327
2011    7       6       1.38603         205.3941
2011    7       7       1.363695        203.308
2011    8       0       1.466648        210.2206
2011    8       1       1.385676        204.7653
2011    8       2       1.22427         193.249
2011    8       3       1.094083        182.5013
2011    8       4       0.999489        173.012
2011    8       5       0.9523773       168.4689
2011    8       6       1.141273        186.0943
2011    8       7       1.208855        191.8976
2011    9       0       1.064049        179.4256
2011    9       1       1.181345        189.3904
2011    9       2       1.204413        191.2495
2011    9       3       1.232874        194.0804
2011    9       4       1.801887        229.9573
2011    9       5       1.813196        229.6538
2011    9       6       1.529787        213.6973
2011    9       7       1.388572        204.5006
2011    10      0       1.441042        208.2243
2011    10      1       1.752155        226.8905
2011    10      2       1.895955        234.254
2011    10      3       1.396391        207.4564
2011    10      4       1.543755        214.4535
2011    10      5       1.619124        218.5319
2011    10      6       1.566943        216.3308
2011    10      7       1.657461        221.5029
2011    11      0       1.2055          191.5181
2011    11      1       1.157075        187.5469
2011    11      2       0.9906522       172.1074
2011    11      3       0.6793075       134.982
2011    11      4       0.4524559       102.1769
2011    11      5       0.5057422       112.2651
2011    11      6       0.794409        152.8699
2011    11      7       0.8726284       161.3314
2011    12      0       0.5849833       123.5248
2011    12      1       0.5997753       125.9411
2011    12      2       0.5775077       122.7911
2011    12      3       0.7643105       149.1101
2011    12      4       0.9605223       171.8535
2011    12      5       1.139254        188.715
2011    12      6       0.7466956       146.6216
2011    12      7       0.6263835       130.8823
2011    13      0       0.5685891       122.1427
2011    13      1       0.5601976       120.7397
2011    13      2       0.7002659       141.3638
2011    13      3       1.183908        193.112
2011    13      4       1.219381        194.5212
2011    13      5       1.094164        182.1949
2011    13      6       1.137077        186.3229
2011    13      7       1.092076        181.164
2011    14      0       1.033537        176.4545
2011    14      1       0.9134516       165.3321
2011    14      2       0.9617161       170.6155
2011    14      3       0.792328        151.0625
2011    14      4       0.7981742       151.8789
2011    14      5       1.082225        181.7037
2011    14      6       1.086788        181.0696
2011    14      7       1.184126        189.1892
2011    15      0       1.163615        187.8391
2011    15      1       1.074197        180.5575
2011    15      2       1.099954        182.9749
2011    15      3       1.102833        183.8899
2011    15      4       1.130038        186.6522
2011    15      5       1.528638        215.4838
2011    15      6       1.210543        192.7135
2011    15      7       1.104345        183.666
2011    16      0       1.314563        201.1539
2011    16      1       1.503982        214.1486
2011    16      2       1.228221        194.2284
2011    16      3       1.166358        190.1012
2011    16      4       0.9779428       173.0146
2011    16      5       1.208734        193.7158
2011    16      6       1.210901        193.068
2011    16      7       1.305787        199.8083
2011    17      0       1.381724        205.4613
2011    17      1       1.435737        209.7723
2011    17      2       1.470606        212.2275
2011    17      3       1.569818        217.7872
2011    17      4       1.586043        219.248
2011    17      5       1.200108        192.188
2011    17      6       1.123359        185.7272
2011    17      7       1.091888        183.2099
2011    18      0       1.072793        181.5962
2011    18      1       1.199878        192.0699
2011    18      2       0.8169775       153.2668
2011    18      3       0.7215775       140.9944
2011    18      4       0.9196507       164.4199
2011    18      5       1.055358        178.3245
2011    18      6       1.394885        205.4014
2011    18      7       1.596638        217.4305
2011    19      0       1.37791         204.1588
2011    19      1       1.33356         201.7253
2011    19      2       1.359001        204.1907
2011    19      3       1.689478        225.0732
2011    19      4       1.405707        207.9958
2011    19      5       1.529358        215.1348
2011    19      6       1.530712        215.0232
2011    19      7       1.641439        220.7809
2011    20      0       1.542284        214.2419
2011    20      1       1.37555         204.6624
2011    20      2       1.338653        202.3113
2011    20      3       1.620187        220.9773
2011    20      4       1.66867         223.8542
2011    20      5       1.693411        224.1306
2011    20      6       1.531459        215.8753
2011    20      7       1.515105        216.0285
2011    21      0       1.709539        227.3376
2011    21      1       1.480987        214.5463
2011    21      2       0.8846842       164.4532
2011    21      3       0.5914948       125.971
2011    21      4       0.6794295       136.8694
2011    21      5       0.8961302       161.6046
2011    21      6       0.9779369       169.7433
2011    21      7       1.107189        181.3531
2011    22      0       1.060781        176.0248
2011    22      1       0.8259265       152.8337
2011    22      2       0.7890104       148.7507
2011    22      3       0.6160487       126.7697
2011    22      4       0.6469531       131.7249
2011    22      5       0.8860676       160.5562
2011    22      6       0.9210525       164.7763
2011    22      7       0.9153503       164.1143
2011    23      0       0.8122513       152.7086
2011    23      1       0.7404721       144.2325
2011    23      2       0.8311939       155.4438
2011    23      3       0.7784866       149.6868
2011    23      4       0.7123993       142.1871
2011    23      5       0.8990626       164.423
2011    23      6       1.015088        175.835
2011    23      7       1.017708        175.269
2011    24      0       0.9002519       164.132
2011    24      1       0.7517123       147.5057
2011    24      2       0.9239239       166.9537
2011    24      3       0.788663        151.2215
2011    24      4       0.8480012       158.044
2011    24      5       0.8426991       157.6647
2011    24      6       0.7650936       148.5354
2011    24      7       0.6912354       139.1363
2011    25      0       0.7101544       141.8535
2011    25      1       0.7251897       144.1683
2011    25      2       0.6465793       133.6982
2011    25      3       0.5644784       121.8801
2011    25      4       0.5132205       113.9525
2011    25      5       0.5779624       123.5903
2011    25      6       0.8186992       156.0909
2011    25      7       0.7466863       146.8638
2011    26      0       0.5610081       121.04
2011    26      1       0.4832042       108.4229
2011    26      2       0.4264251       98.65942
2011    26      3       0.4068041       94.90956
2011    26      4       0.3914201       91.79744
2011    26      5       0.4090332       94.40316
2011    26      6       0.4955055       109.0003
2011    26      7       0.5536796       118.3322
2011    27      0       0.4827242       107.4056
2011    27      1       0.5126209       111.7759
2011    27      2       0.5404902       115.6647
2011    27      3       0.4821258       106.7293
2011    27      4       0.4053799       93.58539
2011    27      5       0.4849413       107.7696
2011    27      6       0.6360843       131.6684
2011    27      7       0.9746285       172.3957
2011    28      0       1.112811        184.9011
2011    28      1       1.169956        190.215
2011    28      2       1.109205        183.5167
2011    28      3       0.9413062       167.4316
2011    28      4       0.9842987       172.5254
2011    28      5       1.191484        191.703
2011    28      6       1.082311        182.561
2011    28      7       0.8505547       158.8941
2011    29      0       1.033581        176.9837
2011    29      1       1.151908        187.7962
2011    29      2       1.149542        187.5716
2011    29      3       1.539628        216.7987
2011    29      4       1.067702        180.0885
2011    29      5       1.245525        195.3909
2011    29      6       1.49578         213.9196
2011    29      7       1.211941        194.7612
2011    30      0       0.7542019       147.2871
2011    30      1       0.6540439       134.4358
2011    30      2       0.7608332       148.052
2011    30      3       0.8431066       158.3081
2011    30      4       0.9784683       172.6101
2011    30      5       1.420399        209.6343
2011    30      6       1.431904        210.1692
2011    30      7       1.705959        227.2167
2011    31      0       1.717141        228.2036
2011    31      1       1.42644         211.1155
2011    31      2       1.215398        195.9571
2011    31      3       1.147447        190.0584
2011    31      4       1.08364         184.1807
2011    31      5       1.161415        190.7325
2011    31      6       1.175799        191.3225
2011    31      7       1.192449        191.3287
2012    1       0       1.158158        191.1472
2012    1       1       0.8437501       159.608
2012    1       2       0.7370068       146.1482
2012    1       3       0.7212008       144.0096
2012    1       4       0.8318205       158.0243
2012    1       5       1.074454        182.8125
2012    1       6       1.271218        197.7561
2012    1       7       1.492162        213.0537
2012    2       0       1.220182        193.0339
2012    2       1       0.9668998       169.7731
2012    2       2       0.753201        145.8344
2012    2       3       0.6380451       129.4763
2012    2       4       0.5400236       115.312
2012    2       5       0.5405071       115.2199
2012    2       6       0.577001        120.6725
2012    2       7       0.5666778       119.3708
2012    3       0       0.5332161       114.4818
2012    3       1       0.4929804       108.5308
2012    3       2       0.5155917       111.9919
2012    3       3       0.4900486       108.1892
2012    3       4       0.5104127       112.2639
2012    3       5       0.7370979       144.3462
2012    3       6       1.148706        187.6472
2012    3       7       1.371013        205.3353
2012    4       0       1.094548        183.4648
2012    4       1       0.8867667       163.5688
2012    4       2       0.793434        152.6732
2012    4       3       0.6389472       132.6489
2012    4       4       0.5422016       118.5733
2012    4       5       0.4903535       110.4798
2012    4       6       0.5424451       119.1031
2012    4       7       0.5946653       127.0906
2012    5       0       0.5540688       120.6145
2012    5       1       0.4598921       105.0645
2012    5       2       0.3938036       93.30682
2012    5       3       0.255055        66.12453
2012    5       4       0.2236683       59.37081
2012    5       5       0.2832793       72.26808
2012    5       6       0.5721296       124.276
2012    5       7       0.381214        92.06141
2012    6       0       0.2877425       73.47709
2012    6       1       0.2840315       72.29003
2012    6       2       0.2354868       61.88852
2012    6       3       0.1960722       53.25309
2012    6       4       0.1910668       52.2213
2012    6       5       0.2539744       66.32324
2012    6       6       0.3784751       91.54548
2012    6       7       0.32913         82.16884
2012    7       0       0.2950808       75.39839
2012    7       1       0.212511        57.40646
2012    7       2       0.1900721       52.3829
2012    7       3       0.1889711       52.04901
2012    7       4       0.1618589       45.69891
2012    7       5       0.1752508       48.80836
2012    7       6       0.3996897       95.84509
2012    7       7       0.6345167       134.0027
2012    8       0       0.5963236       127.9015
2012    8       1       0.4588608       105.6808
2012    8       2       0.4125202       97.29665
2012    8       3       0.3291023       81.60656
2012    8       4       0.2684294       69.37085
2012    8       5       0.3057388       77.05922
2012    8       6       0.7454133       149.1586
2012    8       7       0.740915        148.4606
2012    9       0       0.6577536       137.074
2012    9       1       0.5518962       121.1678
2012    9       2       0.5717822       124.1601
2012    9       3       0.6588532       136.8099
2012    9       4       0.858077        161.823
2012    9       5       1.331803        205.0043
2012    9       6       1.660332        225.8111
2012    9       7       1.866713        235.7685
2012    10      0       1.692319        226.2271
2012    10      1       1.226917        195.6663
2012    10      2       1.308183        202.6512
2012    10      3       1.379314        208.2486
2012    10      4       1.571331        220.5414
2012    10      5       1.710862        227.3564
2012    10      6       1.441964        211.368
2012    10      7       1.25131         197.4801
2012    11      0       1.151515        189.5855
2012    11      1       0.9356129       170.232
2012    11      2       0.825305        158.2987
2012    11      3       0.7056654       143.3724
2012    11      4       0.760316        150.3
2012    11      5       0.9207367       168.7038
2012    11      6       1.087012        185.0241
2012    11      7       1.082567        184.5439
2012    12      0       0.9527691       171.2947
2012    12      1       0.7998073       154.0061
2012    12      2       0.7407821       146.6955
2012    12      3       0.7854701       152.3468
2012    12      4       1.026652        177.907
2012    12      5       1.102809        185.1626
2012    12      6       1.154619        189.3657
2012    12      7       1.095091        184.212
2012    13      0       1.183824        191.6524
2012    13      1       0.9939676       174.2099
2012    13      2       1.023541        177.4705
2012    13      3       0.8662935       161.2691
2012    13      4       0.9202835       167.2022
2012    13      5       0.9212231       167.2934
2012    13      6       0.8818976       163.0538
2012    13      7       0.7997263       153.1915
2012    14      0       0.8454838       159.3987
2012    14      1       1.101742        186.8837
2012    14      2       1.184148        193.806
2012    14      3       0.9617352       173.6731
2012    14      4       0.9742155       174.5797
2012    14      5       1.092955        185.4715
2012    14      6       1.554602        220.1573
2012    14      7       2.110995        246.1538
2012    15      0       1.760661        231.0306
2012    15      1       1.209782        195.1378
2012    15      2       1.643413        225.3702
2012    15      3       1.559049        219.5404
2012    15      4       0.676816        138.6634
2012    15      5       0.7355823       146.2987
2012    15      6       1.037834        179.1951
2012    15      7       1.144345        188.9809
2012    16      0       1.125027        187.7942
2012    16      1       1.155071        191.3267
2012    16      2       1.406914        211.5932
2012    16      3       1.349653        207.3547
2012    16      4       0.7682303       151.141
2012    16      5       0.9065555       165.8543
2012    16      6       1.112389        185.94
2012    16      7       1.049267        179.6876
2012    17      0       1.053456        180.6817
2012    17      1       0.8308779       157.8874
2012    17      2       0.6546171       135.4787
2012    17      3       0.5174987       114.7324
2012    17      4       0.587974        125.5885
2012    17      5       0.695575        140.8607
2012    17      6       1.040387        180.6175
2012    17      7       0.9875225       175.4917
2012    18      0       1.14212         189.9797
2012    18      1       1.104614        186.2437
2012    18      2       0.8250787       156.8959
2012    18      3       0.7571675       148.9371
2012    18      4       0.7504918       148.3209
2012    18      5       0.8931995       165.4991
2012    18      6       1.07153         184.0405
2012    18      7       1.062638        182.7819
2012    19      0       0.9591325       172.619
2012    19      1       1.049105        180.8968
2012    19      2       1.048251        180.6224
2012    19      3       1.099529        185.4006
2012    19      4       1.062388        181.6957
2012    19      5       1.165506        190.4699
2012    19      6       1.38661         207.8914
2012    19      7       1.233044        196.4901
2012    20      0       1.320155        203.0938
2012    20      1       1.355895        205.3606
2012    20      2       1.223894        195.0299
2012    20      3       0.8118095       153.3239
2012    20      4       0.714297        140.7522
2012    20      5       0.7240703       141.9854
2012    20      6       0.7704803       148.5347
2012    20      7       0.8158597       155.0645
2012    21      0       0.6694026       136.1006
2012    21      1       0.4947679       109.3913
2012    21      2       0.4286632       98.09269
2012    21      3       0.3830167       90.24448
2012    21      4       0.3364848       81.76104
2012    21      5       0.3274044       80.29507
2012    21      6       0.3931444       93.53704
2012    21      7       0.3895738       93.05301
2012    22      0       0.331218        81.59563
2012    22      1       0.2818404       71.50493
2012    22      2       0.2915433       73.68753
2012    22      3       0.3040015       76.22278
2012    22      4       0.2696275       69.14712
2012    22      5       0.3284082       81.23843
2012    22      6       0.7241347       146.8391
2012    22      7       0.9058842       168.5588
2012    23      0       0.6948934       142.2535
2012    23      1       0.3762487       90.5287
2012    23      2       0.2620179       67.56706
2012    23      3       0.2294489       60.54182
2012    23      4       0.2145839       57.33436
2012    23      5       0.251206        65.46595
2012    23      6       0.4625138       106.2639
2012    23      7       0.6554093       136.3834
2012    24      0       0.5213385       115.7289
2012    24      1       0.3825614       90.70084
2012    24      2       0.3435419       82.75538
2012    24      3       0.3394396       82.05653
2012    24      4       0.3633324       86.80264
2012    24      5       0.39664         93.25871
2012    24      6       0.514265        114.4668
2012    24      7       0.5487865       120.2888
2012    25      0       0.5125906       114.2691
2012    25      1       0.427678        99.21684
2012    25      2       0.4429707       102.3334
2012    25      3       0.4603763       105.6332
2012    25      4       0.4433719       102.807
2012    25      5       0.4224807       99.27909
2012    25      6       0.7034497       143.4149
2012    25      7       0.8912521       166.5474
2012    26      0       0.8711742       164.4481
2012    26      1       0.6857686       140.9395
2012    26      2       0.6310414       133.1117
2012    26      3       0.6253841       132.2736
2012    26      4       0.5382481       118.888
2012    26      5       0.4795144       109.3547
2012    26      6       0.7073408       144.2297
2012    26      7       0.7598776       151.0505
2012    27      0       0.9495117       173.1487
2012    27      1       0.9879705       177.0036
2012    27      2       0.695566        142.2736
2012    27      3       0.5228689       116.557
2012    27      4       0.5692163       123.7735
2012    27      5       0.751827        149.3248
2012    27      6       0.8755443       164.7885
2012    27      7       0.7471376       149.1927
2012    28      0       0.832219        159.7502
2012    28      1       0.7425042       148.1452
2012    28      2       0.5749866       123.9992
2012    28      3       0.4751461       108.0682
2012    28      4       0.5314597       116.8364
2012    28      5       0.8933914       164.5596
2012    28      6       1.179817        192.0399
2012    28      7       0.8819104       163.5979
2012    29      0       0.578192        124.2584
2012    29      1       0.4260417       99.32085
2012    29      2       0.4094413       95.98374
2012    29      3       0.4512634       103.2235
2012    29      4       0.5289864       115.6438
2012    29      5       0.6698858       136.3936
2012    29      6       0.9349008       168.8176
2012    29      7       1.004073        176.0749
2012    30      0       0.8718371       162.0804
2012    30      1       0.5199811       113.8906
2012    30      2       0.3787286       89.79009
2012    30      3       0.3083505       76.55768
2012    30      4       0.284492        71.72963
2012    30      5       0.3582204       86.31067
2012    30      6       0.5486806       120.1129
2012    30      7       0.637196        134.0444
2012    31      0       0.3794714       91.20291
2012    31      1       0.2757768       70.00003
2012    31      2       0.2543332       65.12245
2012    31      3       0.2298087       59.90494
2012    31      4       0.1886729       50.54198
2012    31      5       0.1661479       45.4568
2012    31      6       0.3235046       80.45526
2012    31      7       0.4140279       98.17742
2013    1       0       1.143545        187.7636
2013    1       1       1.174544        190.2886
2013    1       2       1.160001        188.9732
2013    1       3       1.10679         184.2045
2013    1       4       1.114827        185.2194
2013    1       5       1.357386        204.3249
2013    1       6       1.539346        215.8593
2013    1       7       1.495921        213.4746
2013    2       0       1.235935        195.3897
2013    2       1       1.055844        179.8872
2013    2       2       0.8778459       160.8163
2013    2       3       0.8822883       161.236
2013    2       4       0.8356571       155.656
2013    2       5       0.7833172       149.0041
2013    2       6       1.076584        181.2433
2013    2       7       1.346583        203.651
2013    3       0       1.422145        209.5402
2013    3       1       1.306526        201.6338
2013    3       2       1.063147        181.0286
2013    3       3       1.231484        195.2343
2013    3       4       1.250704        197.3529
2013    3       5       1.030157        179.0077
2013    3       6       1.121459        189.2073
2013    3       7       1.03138         180.4334
2013    4       0       1.042395        181.0294
2013    4       1       0.7037069       142.6937
2013    4       2       0.5798566       124.8988
2013    4       3       0.4733719       107.5315
2013    4       4       0.5453676       119.2403
2013    4       5       0.7787647       152.4537
2013    4       6       0.9684161       173.7261
2013    4       7       0.7834135       152.4624
2013    5       0       0.6348409       132.8007
2013    5       1       0.5353646       117.4125
2013    5       2       0.5693082       122.4604
2013    5       3       0.5718604       122.7534
2013    5       4       0.6641493       135.4975
2013    5       5       0.6542517       134.1772
2013    5       6       0.7375741       144.7354
2013    5       7       0.8643125       159.8095
2013    6       0       1.038228        177.5406
2013    6       1       0.9426106       167.5917
2013    6       2       0.7704892       147.8748
2013    6       3       0.718204        141.3861
2013    6       4       0.7331673       142.835
2013    6       5       0.9480622       168.1666
2013    6       6       1.063298        180.0966
2013    6       7       1.191029        191.1527
2013    7       0       1.371676        205.2197
2013    7       1       1.221659        195.0304
2013    7       2       0.9981848       174.9352
2013    7       3       0.9649625       171.3748
2013    7       4       1.003885        174.4329
2013    7       5       1.036631        177.456
2013    7       6       1.281804        198.7802
2013    7       7       1.423524        207.4411
2013    8       0       1.295809        199.0904
2013    8       1       1.390057        206.3247
2013    8       2       1.262753        197.2933
2013    8       3       1.175284        190.6603
2013    8       4       1.243187        195.726
2013    8       5       1.575227        216.8798
2013    8       6       1.682964        222.8831
2013    8       7       1.738458        226.0502
2013    9       0       1.450601        211.1665
2013    9       1       1.221242        195.8024
2013    9       2       1.220253        196.2804
2013    9       3       0.9247663       168.8481
2013    9       4       0.8319795       158.7371
2013    9       5       0.9309528       170.4512
2013    9       6       1.014412        179.5168
2013    9       7       0.8471759       161.1693
2013    10      0       0.8895327       165.6715
2013    10      1       0.9476971       171.884
2013    10      2       0.6640483       137.6426
2013    10      3       0.6250443       131.9952
2013    10      4       0.5670185       123.3891
2013    10      5       0.6786851       139.5265
2013    10      6       1.077988        183.7796
2013    10      7       1.47658         214.4386
2013    11      0       1.36143         206.3705
2013    11      1       1.216538        195.0504
2013    11      2       1.145953        189.1005
2013    11      3       1.109547        186.1422
2013    11      4       1.144447        189.5479
2013    11      5       1.28531         199.9676
2013    11      6       1.589747        220.0903
2013    11      7       1.500108        214.4479
2013    12      0       1.73435         228.8106
2013    12      1       1.284934        199.8046
2013    12      2       1.444701        211.6833
2013    12      3       1.468391        213.2966
2013    12      4       1.987787        239.7385
2013    12      5       1.771252        229.9509
2013    12      6       1.740329        228.15
2013    12      7       1.785838        230.7596
2013    13      0       1.643383        223.6915
2013    13      1       1.356359        206.1897
2013    13      2       1.189501        193.6222
2013    13      3       1.25494         199.6058
2013    13      4       1.545672        219.8008
2013    13      5       1.74227         230.3921
2013    13      6       1.72851         230.1107
2013    13      7       1.459866        214.3536
2013    14      0       1.103486        187.0878
2013    14      1       1.057441        182.676
2013    14      2       0.8373899       159.2462
2013    14      3       0.7381029       147.1795
2013    14      4       0.692214        141.2736
2013    14      5       0.5930158       127.2436
2013    14      6       0.9458905       172.095
2013    14      7       0.936282        170.4849
2013    15      0       0.5326624       117.2439
2013    15      1       0.4343545       100.5955
2013    15      2       0.4424817       101.2892
2013    15      3       0.6256582       129.366
2013    15      4       0.7143977       142.1967
2013    15      5       0.85462         159.1167
2013    15      6       0.9622517       170.2414
2013    15      7       1.079381        181.92
2013    16      0       1.076729        182.7302
2013    16      1       1.065378        181.3213
2013    16      2       1.014056        175.4517
2013    16      3       0.9823632       172.6386
2013    16      4       0.9857009       173.7796
2013    16      5       1.297548        200.9079
2013    16      6       1.436164        210.2312
2013    16      7       1.390622        208.0997
2013    17      0       1.648495        223.4441
2013    17      1       1.353827        204.5706
2013    17      2       1.158015        188.1202
2013    17      3       1.260984        196.5142
2013    17      4       1.337536        203.3732
2013    17      5       1.801125        231.4528
2013    17      6       1.224556        194.7343
2013    17      7       1.252275        197.3419
2013    18      0       1.198284        192.5848
2013    18      1       1.268193        198.4431
2013    18      2       1.593692        221.3796
2013    18      3       1.327824        205.1671
2013    18      4       1.293714        202.8977
2013    18      5       1.468288        214.395
2013    18      6       1.128643        188.0455
2013    18      7       1.000633        176.16
2013    19      0       1.213826        195.8358
2013    19      1       0.9019598       166.5424
2013    19      2       0.6092393       129.377
2013    19      3       0.5705874       123.6744
2013    19      4       0.5816839       125.2752
2013    19      5       0.7732135       151.1508
2013    19      6       0.8161853       155.4258
2013    19      7       0.6497693       133.5175
2013    20      0       0.6313832       131.1789
2013    20      1       0.7109199       142.1652
2013    20      2       0.6753048       137.5474
2013    20      3       0.6546108       134.8817
2013    20      4       0.8867547       163.5768
2013    20      5       1.050903        179.0735
2013    20      6       1.206371        192.0795
2013    20      7       1.378503        206.4377
2013    21      0       1.852144        232.7355
2013    21      1       1.709346        225.7955
2013    21      2       1.254334        197.7446
2013    21      3       1.809109        232.6553
2013    21      4       1.72473         229.0179
2013    21      5       1.260333        197.7655
2013    21      6       1.620169        220.8388
2013    21      7       1.874538        232.8683
2013    22      0       1.499547        214.5819
2013    22      1       1.528296        216.6935
2013    22      2       1.370296        205.5554
2013    22      3       1.175466        190.1535
2013    22      4       1.254847        197.145
2013    22      5       1.393568        207.9438
2013    22      6       1.650957        223.6404
2013    22      7       1.748137        227.9664
2013    23      0       1.5033          214.3969
2013    23      1       1.2955          200.5062
2013    23      2       1.553645        217.8599
2013    23      3       1.433182        210.3673
2013    23      4       1.390458        208.9231
2013    23      5       1.670889        225.493
2013    23      6       1.537155        215.8809
2013    23      7       1.572438        216.9401
2013    24      0       1.618079        220.5089
2013    24      1       1.479943        213.1904
2013    24      2       1.592035        219.5941
2013    24      3       1.861444        234.2639
2013    24      4       1.386793        207.605
2013    24      5       1.254462        197.1812
2013    24      6       1.160672        190.6482
2013    24      7       1.403695        208.9716
2013    25      0       1.359777        205.8423
2013    25      1       1.41836         209.8961
2013    25      2       1.328507        203.3132
2013    25      3       1.136004        188.6478
2013    25      4       1.302279        201.8523
2013    25      5       1.420366        210.0934
2013    25      6       1.341172        205.0388
2013    25      7       1.238713        197.1512
2013    26      0       1.388202        209.7397
2013    26      1       1.556258        219.5967
2013    26      2       1.592382        221.1601
2013    26      3       1.502426        215.8793
2013    26      4       1.67059         226.6706
2013    26      5       1.544318        220.5577
2013    26      6       1.470756        216.265
2013    26      7       0.9521266       172.6444
2013    27      0       0.8661509       161.8987
2013    27      1       0.6836849       139.2459
2013    27      2       0.4895824       110.573
2013    27      3       0.3792724       91.21485
2013    27      4       0.4512201       103.8495
2013    27      5       0.665791        136.2443
2013    27      6       0.7799356       150.4136
2013    27      7       0.703277        140.636
2013    28      0       0.5294467       115.5702
2013    28      1       0.4550821       102.9732
2013    28      2       0.5288597       115.5894
2013    28      3       0.5552755       119.5787
2013    28      4       0.4898047       108.7426
2013    28      5       0.4927255       109.072
2013    28      6       0.471078        105.8457
2013    28      7       0.4798989       108.092
2013    29      0       0.5651889       121.9571
2013    29      1       0.5817789       124.6957
2013    29      2       0.4998401       111.5618
2013    29      3       0.4849416       108.7703
2013    29      4       0.6350869       131.8175
2013    29      5       0.850667        159.9058
2013    29      6       1.227009        196.7097
2013    29      7       1.286784        200.9906
2013    30      0       1.337297        204.3928
2013    30      1       1.314637        202.7495
2013    30      2       1.122671        187.7853
2013    30      3       1.158168        190.6325
2013    30      4       1.148514        189.517
2013    30      5       1.050843        180.981
2013    30      6       1.086102        184.2188
2013    30      7       1.150349        189.7436
2013    31      0       1.10042         185.5433
2013    31      1       0.9466677       171.0982
2013    31      2       0.897565        165.8734
2013    31      3       0.881268        163.863
2013    31      4       0.7788052       152.311
2013    31      5       0.8280316       158.2474
2013    31      6       0.9197649       169.3512
2013    31      7       0.9927535       177.5792
2014    1       0       1.033091        177.3056
2014    1       1       1.05548         179.0425
2014    1       2       0.8823167       161.9944
2014    1       3       1.031024        177.6928
2014    1       4       0.8362548       157.3787
2014    1       5       0.8350701       157.4121
2014    1       6       0.7393004       145.5698
2014    1       7       0.6486077       133.3821
2014    2       0       0.6473817       133.1535
2014    2       1       0.6062532       127.1838
2014    2       2       0.7179793       141.9365
2014    2       3       0.6400474       131.0428
2014    2       4       0.6441369       131.7203
2014    2       5       0.7039444       139.823
2014    2       6       0.8486193       158.264
2014    2       7       0.6772905       136.7543
2014    3       0       0.5736611       122.2526
2014    3       1       0.5159022       113.4564
2014    3       2       0.4798085       107.5677
2014    3       3       0.4558017       103.7201
2014    3       4       0.3979983       93.75324
2014    3       5       0.3772419       90.0945
2014    3       6       0.5926865       126.6452
2014    3       7       0.5654272       122.4475
2014    4       0       0.4257985       99.49464
2014    4       1       0.3656935       88.38134
2014    4       2       0.3591912       86.99454
2014    4       3       0.3240232       80.2846
2014    4       4       0.3048206       76.5217
2014    4       5       0.4584932       105.2177
2014    4       6       0.9156595       167.938
2014    4       7       0.8573759       160.495
2014    5       0       0.8576057       160.5458
2014    5       1       1.030166        178.5727
2014    5       2       1.098113        184.6113
2014    5       3       1.107042        184.8021
2014    5       4       1.02061         175.9917
2014    5       5       1.067362        179.3617
2014    5       6       1.045027        176.9746
2014    5       7       0.8705885       159.4811
2014    6       0       0.8501994       157.2517
2014    6       1       0.8679633       159.6709
2014    6       2       1.066868        180.2305
2014    6       3       1.067324        179.5771
2014    6       4       1.056209        178.3349
2014    6       5       1.147068        186.4743
2014    6       6       1.136976        184.6585
2014    6       7       0.8310973       153.939
2014    7       0       0.6510619       131.8458
2014    7       1       0.5851298       122.3895
2014    7       2       0.5813766       121.6906
2014    7       3       0.5244189       113.1288
2014    7       4       0.4982828       108.2179
2014    7       5       0.5339193       114.1365
2014    7       6       0.7634053       148.0446
2014    7       7       0.7664479       148.8756
2014    8       0       0.6449192       132.7001
2014    8       1       0.4574028       102.7401
2014    8       2       0.3886241       89.84948
2014    8       3       0.3569635       83.13202
2014    8       4       0.4222484       96.18635
2014    8       5       0.462156        103.8513
2014    8       6       0.4966166       110.0336
2014    8       7       0.451152        102.9497
2014    9       0       0.4169524       97.2019
2014    9       1       0.4701805       106.5515
2014    9       2       0.5402819       118.2127
2014    9       3       0.4628719       105.5346
2014    9       4       0.3446366       84.26838
2014    9       5       0.2077525       55.54537
2014    9       6       0.4620928       105.8133
2014    9       7       0.7186173       144.3786
2014    10      0       0.5312662       117.085
2014    10      1       0.2462692       64.0472
2014    10      2       0.1916173       52.00023
2014    10      3       0.1450029       40.9819
2014    10      4       0.1272156       36.60871
2014    10      5       0.1267994       36.42124
2014    10      6       0.1609248       44.77988
2014    10      7       0.199925        54.0285
2014    11      0       0.1639123       45.54531
2014    11      1       0.1722798       47.37213
2014    11      2       0.1943044       52.37575
2014    11      3       0.2014233       53.70859
2014    11      4       0.238134        61.80383
2014    11      5       0.435759        101.3184
2014    11      6       0.5686816       123.5397
2014    11      7       0.4183881       98.06778
2014    12      0       0.3535269       85.79796
2014    12      1       0.3309733       80.72657
2014    12      2       0.3175886       77.86242
2014    12      3       0.2763803       69.65476
2014    12      4       0.2934529       73.51014
2014    12      5       0.6142922       129.6124
2014    12      6       0.8170919       156.3862
2014    12      7       0.840025        158.8832
2014    13      0       0.6036626       127.7434
2014    13      1       0.5320455       116.5751
2014    13      2       0.5015887       111.3892
2014    13      3       0.4253062       98.08444
2014    13      4       0.5004423       110.4843
2014    13      5       0.8931599       163.2625
2014    13      6       1.613834        219.283
2014    13      7       1.656486        221.7228
2014    14      0       1.892749        233.8008
2014    14      1       1.709073        224.793
2014    14      2       1.441991        209.7799
2014    14      3       1.304739        200.735
2014    14      4       1.508814        214.423
2014    14      5       1.651338        223.6431
2014    14      6       1.609367        222.2619
2014    14      7       1.32085         204.2002
2014    15      0       0.8510573       161.2456
2014    15      1       1.241695        196.1426
2014    15      2       1.50628         215.6081
2014    15      3       1.465822        214.271
2014    15      4       1.282835        201.8636
2014    15      5       1.423356        211.1421
2014    15      6       1.65152         224.6279
2014    15      7       1.598906        221.6155
2014    16      0       1.304694        202.4128
2014    16      1       1.020064        178.1321
2014    16      2       0.7899901       152.7588
2014    16      3       0.4268207       99.2638
2014    16      4       0.3766162       90.25684
2014    16      5       0.4324611       100.5864
2014    16      6       0.5524097       120.5013
2014    16      7       0.3971159       94.17217
2014    17      0       0.2813884       71.76593
2014    17      1       0.1877827       51.44146
2014    17      2       0.1212077       35.79122
2014    17      3       0.09870603      30.21091
2014    17      4       0.1046881       31.68067
2014    17      5       0.1100919       33.08302
2014    17      6       0.1315967       38.42201
2014    17      7       0.1764642       49.12453
2014    18      0       0.1851378       51.09274
2014    18      1       0.1216481       35.90072
2014    18      2       0.1407828       40.44841
2014    18      3       0.1567826       44.08416
2014    18      4       0.2179973       58.13082
2014    18      5       0.3654379       88.44527
2014    18      6       0.3097762       77.32991
2014    18      7       0.2153536       57.21735
2014    19      0       0.2190324       57.78698
2014    19      1       0.2320609       60.21332
2014    19      2       0.2517644       64.1123
2014    19      3       0.2645983       66.57075
2014    19      4       0.3645276       86.69456
2014    19      5       0.357167        84.65145
2014    19      6       0.4181353       95.86136
2014    19      7       0.4512999       102.1577
2014    20      0       0.412999        95.48477
2014    20      1       0.3885597       91.03791
2014    20      2       0.4327941       99.27939
2014    20      3       0.4165466       96.24313
2014    20      4       0.5253076       114.7322
2014    20      5       0.6827692       137.555
2014    20      6       0.9167983       165.2692
2014    20      7       1.038288        176.84
2014    21      0       1.107329        183.6662
2014    21      1       1.105313        183.8703
2014    21      2       0.9812731       172.4996
2014    21      3       0.9390537       168.8492
2014    21      4       1.31561         202.2489
2014    21      5       1.692598        225.2879
2014    21      6       1.480618        212.0985
2014    21      7       1.453011        210.3767
2014    22      0       1.407349        207.8112
2014    22      1       1.286838        199.5416
2014    22      2       1.06384         181.4496
2014    22      3       0.8871968       164.1187
2014    22      4       0.8640586       161.7083
2014    22      5       0.9453976       170.5754
2014    22      6       1.260457        198.0774
2014    22      7       1.400024        208.4729
2014    23      0       1.157505        190.5679
2014    23      1       0.9226603       167.8173
2014    23      2       0.6754249       138.1365
2014    23      3       0.4894095       110.1679
2014    23      4       0.3864718       92.04535
2014    23      5       0.4134825       96.8816
2014    23      6       0.7893468       152.9481
2014    23      7       0.8146351       156.2083
2014    24      0       0.7554832       148.9591
2014    24      1       0.4523882       103.7336
2014    24      2       0.2722144       69.31797
2014    24      3       0.1877168       50.92358
2014    24      4       0.1641713       45.3647
2014    24      5       0.1561843       43.43331
2014    24      6       0.23226         61.13747
2014    24      7       0.3280509       81.56695
2014    25      0       0.3059113       77.19469
2014    25      1       0.2618177       67.74087
2014    25      2       0.1979421       53.36244
2014    25      3       0.1548207       43.2486
2014    25      4       0.1421514       40.09313
2014    25      5       0.141578        39.8909
2014    25      6       0.1604359       44.45383
2014    25      7       0.1769554       48.49739
2014    26      0       0.1694914       46.83485
2014    26      1       0.166635        46.18577
2014    26      2       0.1623017       45.31545
2014    26      3       0.1450376       41.29689
2014    26      4       0.1367456       39.32231
2014    26      5       0.1458106       41.52166
2014    26      6       0.2357559       62.43475
2014    26      7       0.3743445       91.03063
2014    27      0       0.2056932       55.55665
2014    27      1       0.1320093       38.1283
2014    27      2       0.1304424       37.72492
2014    27      3       0.1308601       37.91047
2014    27      4       0.1340087       38.61026
2014    27      5       0.1373047       39.34368
2014    27      6       0.1870203       51.20295
2014    27      7       0.2561468       66.62299
2014    28      0       0.1885981       51.53151
2014    28      1       0.1432584       40.72228
2014    28      2       0.1309433       37.81342
2014    28      3       0.1275835       36.96674
2014    28      4       0.1377404       39.20869
2014    28      5       0.1474355       41.45788
2014    28      6       0.207366        55.41013
2014    28      7       0.2630605       67.61707
2014    29      0       0.3076691       76.82114
2014    29      1       0.2761985       70.37491
2014    29      2       0.1714948       47.12194
2014    29      3       0.1609925       44.34104
2014    29      4       0.1824339       48.92959
2014    29      5       0.203398        53.66682
2014    29      6       0.3048485       75.79428
2014    29      7       0.3069173       76.37871
2014    30      0       0.303973        75.63822
2014    30      1       0.3127813       77.17417
2014    30      2       0.4228529       97.92993
2014    30      3       0.4462179       102.1656
2014    30      4       0.4232462       97.96037
2014    30      5       0.450857        102.3867
2014    30      6       0.5942316       125.871
2014    30      7       0.8922242       164.9781
2014    31      0       1.031502        179.4994
2014    31      1       1.060168        182.2609
2014    31      2       0.7980284       153.8447
2014    31      3       0.56163         120.955
2014    31      4       0.3990031       93.40907
2014    31      5       0.315905        77.15085
2014    31      6       0.3931429       92.36495
2014    31      7       0.5970565       127.2044
2015    1       0       1.386988        206.4704
2015    1       1       1.362414        205.1601
2015    1       2       1.192368        192.6168
2015    1       3       1.026302        178.3475
2015    1       4       1.049734        181.3761
2015    1       5       1.375061        207.9989
2015    1       6       1.57988         219.9736
2015    1       7       1.450008        211.4905
2015    2       0       1.281735        199.8348
2015    2       1       1.118238        187.9106
2015    2       2       1.495657        216.406
2015    2       3       1.652697        224.7873
2015    2       4       1.733077        229.0311
2015    2       5       1.873684        235.3461
2015    2       6       1.926074        237.3793
2015    2       7       1.751009        229.2911
2015    3       0       1.422487        209.7598
2015    3       1       1.391389        207.6425
2015    3       2       1.529945        216.7429
2015    3       3       1.497037        214.6797
2015    3       4       1.251464        197.8692
2015    3       5       1.148645        189.9385
2015    3       6       1.196903        194.3321
2015    3       7       1.245735        197.9474
2015    4       0       1.109632        186.5781
2015    4       1       1.153596        190.2248
2015    4       2       1.006894        177.1144
2015    4       3       1.272002        199.5884
2015    4       4       0.9680225       172.1839
2015    4       5       1.120347        186.2964
2015    4       6       1.1423          188.0906
2015    4       7       1.160112        189.0053
2015    5       0       1.14849         187.8038
2015    5       1       1.05898         180.2035
2015    5       2       0.986353        172.9083
2015    5       3       1.029539        177.4017
2015    5       4       1.130084        186.2743
2015    5       5       1.180385        189.5802
2015    5       6       1.281299        196.9464
2015    5       7       1.421496        207.6003
2015    6       0       1.308567        200.4544
2015    6       1       1.235932        195.3381
2015    6       2       1.369376        206.1474
2015    6       3       1.652418        223.9957
2015    6       4       1.108426        184.6303
2015    6       5       1.230179        193.8463
2015    6       6       1.407857        207.0123
2015    6       7       1.45648         210.439
2015    7       0       1.37239         205.3382
2015    7       1       1.36824         205.1399
2015    7       2       1.269776        198.1063
2015    7       3       1.11642         185.9666
2015    7       4       1.393199        207.0536
2015    7       5       1.394418        207.5138
2015    7       6       1.616842        222.0444
2015    7       7       1.805758        231.5301
2015    8       0       1.406425        208.9167
2015    8       1       1.580943        219.6391
2015    8       2       1.282172        199.8031
2015    8       3       1.21179         194.1764
2015    8       4       1.174638        191.2768
2015    8       5       1.323696        202.9335
2015    8       6       1.562912        218.3173
2015    8       7       1.495469        213.4594
2015    9       0       1.513447        214.4834
2015    9       1       1.456454        210.9853
2015    9       2       1.393232        206.6808
2015    9       3       1.153899        188.7446
2015    9       4       1.170206        189.5271
2015    9       5       1.282452        198.2383
2015    9       6       1.421064        208.2637
2015    9       7       1.189978        191.7217
2015    10      0       1.094596        184.5195
2015    10      1       1.05361         181.23
2015    10      2       1.107152        185.8727
2015    10      3       1.081563        183.2644
2015    10      4       1.253101        198.0167
2015    10      5       1.433665        210.4152
2015    10      6       1.495038        213.5638
2015    10      7       1.417403        208.6733
2015    11      0       1.35685         205.0537
2015    11      1       1.320835        202.9506
2015    11      2       1.54086         216.9947
2015    11      3       1.691132        224.1705
2015    11      4       1.561923        216.7915
2015    11      5       1.493096        213.0535
2015    11      6       1.629186        221.3991
2015    11      7       1.657351        223.4428
2015    12      0       1.68044         224.7169
2015    12      1       1.346586        204.9386
2015    12      2       1.566892        218.6892
2015    12      3       1.432135        210.4454
2015    12      4       1.222649        195.2643
2015    12      5       1.316672        202.2515
2015    12      6       1.348901        204.3303
2015    12      7       1.380397        206.3235
2015    13      0       1.308814        201.132
2015    13      1       1.248403        196.6246
2015    13      2       1.179924        191.2126
2015    13      3       1.247435        196.4131
2015    13      4       1.250497        196.7367
2015    13      5       1.218693        194.3288
2015    13      6       1.270553        197.9517
2015    13      7       1.22251         194.3696
2015    14      0       1.025017        177.4671
2015    14      1       0.8541271       159.6118
2015    14      2       0.9073796       165.1653
2015    14      3       0.9558177       170.0265
2015    14      4       0.8224599       154.892
2015    14      5       0.5878904       123.7605
2015    14      6       0.4501277       101.9323
2015    14      7       0.4528346       103.6746
2015    15      0       0.3852022       92.00982
2015    15      1       0.2551407       66.03356
2015    15      2       0.2065872       55.56991
2015    15      3       0.1773553       48.83588
2015    15      4       0.1789936       49.19697
2015    15      5       0.1916415       52.19672
2015    15      6       0.2553576       66.57183
2015    15      7       0.4114181       97.6468
2015    16      0       0.3851851       93.05878
2015    16      1       0.2494372       65.57258
2015    16      2       0.1997261       54.27539
2015    16      3       0.1278793       37.2065
2015    16      4       0.1150243       33.93646
2015    16      5       0.1492409       42.25526
2015    16      6       0.406804        96.2763
2015    16      7       0.6566284       136.0218
2015    17      0       0.651605        135.1278
2015    17      1       0.4673773       106.6623
2015    17      2       0.4816895       108.4383
2015    17      3       0.3545833       84.98021
2015    17      4       0.43587         99.76759
2015    17      5       0.7287725       144.4897
2015    17      6       1.0411          179.4412
2015    17      7       1.140319        188.4125
2015    18      0       0.9247124       167.7723
2015    18      1       0.8252213       155.8141
2015    18      2       0.7922245       151.0615
2015    18      3       0.6789797       136.9628
2015    18      4       0.6857527       137.5299
2015    18      5       0.8866896       162.1876
2015    18      6       1.170915        190.413
2015    18      7       1.122996        186.059
2015    19      0       0.8852861       162.0484
2015    19      1       0.6520517       133.6587
2015    19      2       0.6762275       136.6219
2015    19      3       0.6644105       134.9503
2015    19      4       0.6546293       133.5171
2015    19      5       0.7825091       149.8418
2015    19      6       1.227291        195.531
2015    19      7       1.403867        209.4194
2015    20      0       1.623136        222.4878
2015    20      1       1.16759         189.8789
2015    20      2       0.9675985       171.0067
2015    20      3       0.5432648       117.8971
2015    20      4       0.4113573       95.88028
2015    20      5       0.7273462       143.7936
2015    20      6       1.144835        188.0638
2015    20      7       1.279015        199.4565
2015    21      0       1.286351        200.2909
2015    21      1       1.105497        184.0764
2015    21      2       0.84574         156.8163
2015    21      3       0.4849858       107.9069
2015    21      4       0.3441685       83.47213
2015    21      5       0.4424156       102.0783
2015    21      6       0.6834836       139.7666
2015    21      7       0.8052144       155.1727
2015    22      0       0.4972401       111.8808
2015    22      1       0.3520589       85.57612
2015    22      2       0.2760083       70.31583
2015    22      3       0.2321599       61.00703
2015    22      4       0.2751873       70.2787
2015    22      5       0.3685996       88.92678
2015    22      6       0.7114372       144.3909
2015    22      7       0.7928033       154.7773
2015    23      0       0.551819        120.8405
2015    23      1       0.5638626       122.3658
2015    23      2       0.4682067       106.7409
2015    23      3       0.3745538       89.71624
2015    23      4       0.4073658       95.82475
2015    23      5       0.4752309       107.8414
2015    23      6       0.5697803       123.8344
2015    23      7       0.5496782       120.966
2015    24      0       0.3497781       85.61096
2015    24      1       0.3633181       88.00283
2015    24      2       0.3505583       85.39658
2015    24      3       0.2566992       66.35753
2015    24      4       0.2497352       64.75291
2015    24      5       0.2449348       63.72376
2015    24      6       0.2995306       75.52621
2015    24      7       0.4479428       103.8387
2015    25      0       0.5092306       114.1086
2015    25      1       0.3783262       91.1245
2015    25      2       0.3828008       91.38395
2015    25      3       0.3148847       78.21986
2015    25      4       0.2589756       66.57678
2015    25      5       0.564876        121.5685
2015    25      6       0.956553        171.0173
2015    25      7       1.144133        189.2172
2015    26      0       0.9758298       173.9561
2015    26      1       1.155018        190.8136
2015    26      2       1.224777        196.7021
2015    26      3       1.190765        193.8809
2015    26      4       1.235521        197.1223
2015    26      5       1.230978        195.8356
2015    26      6       1.056633        180.4876
2015    26      7       0.7268275       144.3862
2015    27      0       0.5693896       122.4257
2015    27      1       0.4561855       103.9826
2015    27      2       0.4760767       107.2409
2015    27      3       0.533164        116.1791
2015    27      4       0.7051755       140.4387
2015    27      5       0.9100318       164.5401
2015    27      6       1.223224        194.0744
2015    27      7       1.055654        179.282
2015    28      0       0.833684        156.6379
2015    28      1       0.7819163       150.7301
2015    28      2       0.7436842       145.9681
2015    28      3       0.697484        140.0125
2015    28      4       0.6673193       135.7042
2015    28      5       0.6835605       137.441
2015    28      6       0.9400535       167.6229
2015    28      7       0.8361059       156.6569
2015    29      0       1.048351        180.2469
2015    29      1       0.869294        161.5735
2015    29      2       0.7772963       149.677
2015    29      3       0.7989612       152.2296
2015    29      4       0.7662902       146.9531
2015    29      5       0.7917639       148.5357
2015    29      6       0.7470891       143.2773
2015    29      7       0.6675243       133.745
2015    30      0       0.7023545       139.607
2015    30      1       0.6845003       137.2342
2015    30      2       0.6530714       131.6392
2015    30      3       0.631855        128.3477
2015    30      4       0.7328202       141.3685
2015    30      5       0.639423        129.4232
2015    30      6       0.5562391       117.4203
2015    30      7       0.4471348       100.7627
2015    31      0       0.4079124       94.21431
2015    31      1       0.3894796       90.83274
2015    31      2       0.344624        82.68752
2015    31      3       0.2766069       69.43883
2015    31      4       0.2360376       60.90465
2015    31      5       0.2494826       63.78551
2015    31      6       0.2970263       73.93721
2015    31      7       0.3420735       83.12806
2016    1       0       1.383533        207.241
2016    1       1       1.097172        184.5608
2016    1       2       1.171134        190.8135
2016    1       3       1.285967        199.9686
2016    1       4       1.275259        198.8305
2016    1       5       1.144217        188.5331
2016    1       6       1.197637        193.6851
2016    1       7       1.244175        197.9293
2016    2       0       1.196501        193.8385
2016    2       1       1.038904        180.161
2016    2       2       0.8066054       155.1802
2016    2       3       0.7372909       146.5077
2016    2       4       0.7531413       148.5241
2016    2       5       0.7937445       153.788
2016    2       6       0.9764931       174.5117
2016    2       7       0.8195527       157.2499
2016    3       0       0.6266084       131.7762
2016    3       1       0.5893692       126.1534
2016    3       2       0.4638828       105.9198
2016    3       3       0.4484082       103.044
2016    3       4       0.4795219       108.2256
2016    3       5       0.5392278       118.1236
2016    3       6       0.8180179       156.9771
2016    3       7       0.8937263       164.8883
2016    4       0       0.8425221       158.3693
2016    4       1       0.8160781       155.6662
2016    4       2       0.9721063       172.7676
2016    4       3       1.037537        178.8443
2016    4       4       1.342258        202.4015
2016    4       5       1.34081         201.9047
2016    4       6       1.291866        198.4374
2016    4       7       1.272328        197.7117
2016    5       0       1.032254        178.6262
2016    5       1       1.002915        175.9785
2016    5       2       1.195858        192.597
2016    5       3       1.143996        188.7799
2016    5       4       1.507224        215.6359
2016    5       5       1.322763        202.2662
2016    5       6       1.347464        204.9564
2016    5       7       1.344612        204.7833
2016    6       0       1.493229        215.8625
2016    6       1       1.136855        189.1538
2016    6       2       0.6543959       135.3133
2016    6       3       0.3206085       80.02746
2016    6       4       0.1747929       48.79437
2016    6       5       0.08940002      28.05211
2016    6       6       0.2164904       58.63578
2016    6       7       0.3796645       92.5184
2016    7       0       0.2475929       65.53553
2016    7       1       0.373395        91.11848
2016    7       2       0.3520055       86.74174
2016    7       3       0.2898708       74.20072
2016    7       4       0.2961161       74.9156
2016    7       5       0.2852892       72.3224
2016    7       6       0.3208495       80.02679
2016    7       7       0.4100199       97.49575
2016    8       0       0.3855803       91.51195
2016    8       1       0.4049369       94.72608
2016    8       2       0.4708415       105.8843
2016    8       3       0.546096        117.6907
2016    8       4       1.019752        175.6282
2016    8       5       1.218401        192.2643
2016    8       6       1.105332        182.733
2016    8       7       0.9928125       172.2122
2016    9       0       1.018532        175.4238
2016    9       1       1.025704        176.0059
2016    9       2       1.040415        177.674
2016    9       3       1.09805         183.4064
2016    9       4       1.358145        203.8692
2016    9       5       1.322567        201.7916
2016    9       6       1.355997        203.8195
2016    9       7       1.492734        212.3259
2016    10      0       1.710585        224.3428
2016    10      1       1.660888        222.5154
2016    10      2       1.392534        206.5038
2016    10      3       1.517006        214.2296
2016    10      4       1.448697        209.814
2016    10      5       1.438657        209.6546
2016    10      6       1.593536        219.4595
2016    10      7       1.812112        229.8677
2016    11      0       1.820587        230.3106
2016    11      1       1.743135        227.007
2016    11      2       1.704983        225.3289
2016    11      3       1.529591        216.2006
2016    11      4       1.380905        206.6894
2016    11      5       1.300885        201.1161
2016    11      6       1.412137        209.5646
2016    11      7       1.508224        214.9951
2016    12      0       1.536424        217.1067
2016    12      1       1.300954        202.2804
2016    12      2       1.276748        199.6123
2016    12      3       1.129435        188.03
2016    12      4       1.210113        194.4091
2016    12      5       1.449978        211.8178
2016    12      6       1.620236        221.9089
2016    12      7       1.56133         218.4943
2016    13      0       1.538149        218.5412
2016    13      1       2.131852        246.3334
2016    13      2       1.57122         220.5019
2016    13      3       1.368248        206.6204
2016    13      4       1.389286        208.1394
2016    13      5       1.372045        206.5912
2016    13      6       1.495523        214.0826
2016    13      7       1.496113        213.718
2016    14      0       1.34223         203.9501
2016    14      1       1.279438        199.7342
2016    14      2       1.595214        219.6951
2016    14      3       1.580602        219.4729
2016    14      4       1.804001        232.3257
2016    14      5       1.667606        224.5598
2016    14      6       1.710552        226.6388
2016    14      7       1.626567        221.8915
2016    15      0       1.594587        220.8013
2016    15      1       1.576176        220.1746
2016    15      2       1.8932          236.9397
2016    15      3       1.893348        237.0075
2016    15      4       1.837981        233.941
2016    15      5       1.588185        221.1825
2016    15      6       1.607959        222.3863
2016    15      7       1.536025        218.4529
2016    16      0       1.290897        202.0904
2016    16      1       1.035785        180.417
2016    16      2       1.165245        192.2051
2016    16      3       0.9461924       171.7569
2016    16      4       1.107294        187.3966
2016    16      5       1.325112        204.4125
2016    16      6       1.465256        213.4334
2016    16      7       1.328568        204.2112
2016    17      0       1.132803        188.3415
2016    17      1       1.036771        179.4647
2016    17      2       1.007958        177.0317
2016    17      3       1.012903        177.6732
2016    17      4       1.027952        179.1713
2016    17      5       1.102921        185.9836
2016    17      6       1.411237        209.638
2016    17      7       1.300881        201.6091
2016    18      0       0.7905498       151.6802
2016    18      1       0.6301669       130.0753
2016    18      2       0.5599578       119.8487
2016    18      3       0.5287428       114.8752
2016    18      4       0.5891257       124.2092
2016    18      5       0.8565965       159.3306
2016    18      6       1.094148        183.2033
2016    18      7       1.113172        184.8159
2016    19      0       1.007612        174.8524
2016    19      1       0.7490266       145.653
2016    19      2       0.6449013       131.6841
2016    19      3       0.6297553       129.6823
2016    19      4       0.6637246       134.7599
2016    19      5       0.8376356       156.2675
2016    19      6       0.8312529       155.6728
2016    19      7       0.8429178       156.7754
2016    20      0       0.8135673       153.0304
2016    20      1       0.7082928       139.5735
2016    20      2       0.6110349       126.2776
2016    20      3       0.4660395       104.0125
2016    20      4       0.338226        81.70202
2016    20      5       0.5082644       111.8279
2016    20      6       0.8479269       157.6438
2016    20      7       0.8916734       161.9091
2016    21      0       1.073508        179.4916
2016    21      1       1.14104         186.886
2016    21      2       0.8618125       159.0726
2016    21      3       0.7867946       150.7599
2016    21      4       0.8052509       153.2978
2016    21      5       0.772921        149.1924
2016    21      6       0.8339951       155.9821
2016    21      7       0.8914088       162.65
2016    22      0       0.8376375       156.0482
2016    22      1       0.8019927       152.0999
2016    22      2       0.750341        146.2256
2016    22      3       0.6768765       137.1532
2016    22      4       0.5777354       122.6454
2016    22      5       0.5248235       114.0171
2016    22      6       0.6014325       126.5339
2016    22      7       0.7153803       142.6644
2016    23      0       0.714399        141.9912
2016    23      1       0.656462        133.8163
2016    23      2       0.6136018       127.6207
2016    23      3       0.6129296       127.454
2016    23      4       0.666826        135.4322
2016    23      5       0.7066196       140.9941
2016    23      6       0.699339        139.9849
2016    23      7       0.7048053       140.4175
2016    24      0       0.6612184       134.2149
2016    24      1       0.6054102       126.0522
2016    24      2       0.6232722       128.6671
2016    24      3       0.6562094       133.2595
2016    24      4       0.6586766       133.6188
2016    24      5       0.7183002       141.222
2016    24      6       0.7948516       150.2638
2016    24      7       0.814767        152.7848
2016    25      0       0.780979        149.1137
2016    25      1       0.7868943       150.3886
2016    25      2       0.8139004       154.2366
2016    25      3       0.7203196       143.1426
2016    25      4       0.6728814       137.091
2016    25      5       0.6743259       137.301
2016    25      6       1.140881        188.8656
2016    25      7       1.245759        197.1295
2016    26      0       1.073048        181.7321
2016    26      1       0.7387227       145.6129
2016    26      2       0.6550815       134.0986
2016    26      3       0.6511089       133.0628
2016    26      4       0.6152312       127.6087
2016    26      5       0.5300613       114.8898
2016    26      6       0.4931679       109.5265
2016    26      7       0.4772605       108.0033
2016    27      0       0.6113436       129.603
2016    27      1       0.548041        119.0953
2016    27      2       0.5217579       115.0289
2016    27      3       0.410388        96.56235
2016    27      4       0.3922541       93.34749
2016    27      5       0.524918        115.2892
2016    27      6       0.6246212       130.1955
2016    27      7       0.4553727       104.5091
2016    28      0       0.4838471       109.0655
2016    28      1       0.4795201       107.7457
2016    28      2       0.3202037       78.95326
2016    28      3       0.2254351       59.59848
2016    28      4       0.290304        72.77911
2016    28      5       0.4888546       108.2296
2016    28      6       0.6152053       127.3001
2016    28      7       0.4869404       107.2935
2016    29      0       0.4925147       107.6358
2016    29      1       0.3571335       85.3717
2016    29      2       0.3392445       82.55382
2016    29      3       0.3641053       87.08955
2016    29      4       0.3816774       89.79605
2016    29      5       0.4323197       98.52996
2016    29      6       0.3580981       84.94641
2016    29      7       0.2981016       73.72182
2016    30      0       0.2960907       73.30785
2016    30      1       0.2851202       71.1456
2016    30      2       0.2584697       65.78876
2016    30      3       0.2245002       58.71996
2016    30      4       0.2325719       60.48606
2016    30      5       0.2691131       68.33239
2016    30      6       0.2973317       74.5401
2016    30      7       0.2711312       69.40842
2016    31      0       0.2392889       62.53355
2016    31      1       0.2392594       62.53788
2016    31      2       0.2382702       61.97223
2016    31      3       0.2225947       58.53549
2016    31      4       0.2372687       61.34332
2016    31      5       0.2127854       56.56073
2016    31      6       0.1890657       51.42337
2016    31      7       0.1799129       49.3178
2017    1       0       1.286841        197.6442
2017    1       1       1.158055        188.6393
2017    1       2       1.020537        175.9751
2017    1       3       1.35949         203.0575
2017    1       4       1.46675         210.8125
2017    1       5       1.366027        202.185
2017    1       6       1.602493        217.9024
2017    1       7       1.597869        218.2668
2017    2       0       1.159479        188.1605
2017    2       1       1.211181        192.5512
2017    2       2       1.179593        189.9335
2017    2       3       1.283918        199.0715
2017    2       4       1.331716        203.0385
2017    2       5       1.561359        220.133
2017    2       6       1.285416        200.9103
2017    2       7       0.9925319       175.4114
2017    3       0       0.9918678       175.526
2017    3       1       0.757089        148.8697
2017    3       2       0.622075        130.8225
2017    3       3       0.6030222       128.0867
2017    3       4       0.7747008       151.9546
2017    3       5       0.9898375       176.4005
2017    3       6       1.041738        181.1419
2017    3       7       1.102993        185.9049
2017    4       0       1.07233         182.3254
2017    4       1       1.386784        208.8152
2017    4       2       1.76785         231.0963
2017    4       3       1.716017        228.574
2017    4       4       1.158319        191.3483
2017    4       5       1.473474        213.9681
2017    4       6       1.471959        213.1451
2017    4       7       1.205384        193.2808
2017    5       0       1.042173        178.8798
2017    5       1       1.543514        217.8857
2017    5       2       1.469958        214.8053
2017    5       3       1.628523        224.9168
2017    5       4       1.688379        227.8897
2017    5       5       1.220397        196.5638
2017    5       6       1.150164        189.6355
2017    5       7       1.093013        184.6089
2017    6       0       0.9404056       169.5476
2017    6       1       0.9686678       172.3404
2017    6       2       0.9489867       170.1055
2017    6       3       0.9167191       166.3965
2017    6       4       0.917083        166.4224
2017    6       5       0.9670826       171.8647
2017    6       6       1.154936        189.9151
2017    6       7       1.056972        180.7759
2017    7       0       0.910764        165.6791
2017    7       1       0.8811732       162.132
2017    7       2       0.8726726       161.0759
2017    7       3       0.8425291       157.3567
2017    7       4       0.875828        160.8966
2017    7       5       0.9538811       169.8914
2017    7       6       1.099696        184.278
2017    7       7       1.629403        221.9996
2017    8       0       1.719693        228.1185
2017    8       1       1.147461        189.4778
2017    8       2       1.414218        209.9057
2017    8       3       1.668999        224.5525
2017    8       4       1.273608        199.2644
2017    8       5       1.331975        204.6526
2017    8       6       1.750255        229.9855
2017    8       7       1.891583        236.9748
2017    9       0       1.238694        198.2396
2017    9       1       0.9254305       169.8915
2017    9       2       0.7477829       149.254
2017    9       3       0.6835463       140.0105
2017    9       4       0.6763689       139.1465
2017    9       5       0.691978        141.0304
2017    9       6       0.7511909       148.8233
2017    9       7       0.651546        135.6579
2017    10      0       0.4400816       101.9971
2017    10      1       0.4550355       104.5302
2017    10      2       0.5243005       116.2005
2017    10      3       0.5331813       117.5195
2017    10      4       0.6412828       134.1782
2017    10      5       0.9141508       168.523
2017    10      6       0.9978395       177.0202
2017    10      7       0.8406173       159.9781
2017    11      0       0.5937966       126.4357
2017    11      1       0.7790083       151.147
2017    11      2       0.9604461       171.1179
2017    11      3       1.180603        190.0619
2017    11      4       1.220696        192.7821
2017    11      5       1.57742         216.8114
2017    11      6       1.469704        211.3537
2017    11      7       1.374706        205.1736
2017    12      0       1.228255        194.5325
2017    12      1       1.290596        199.7079
2017    12      2       1.21583         194.1643
2017    12      3       1.175741        190.8271
2017    12      4       1.114245        184.8762
2017    12      5       1.075303        181.2105
2017    12      6       1.258865        197.7351
2017    12      7       1.427579        210.8145
2017    13      0       1.137054        188.7097
2017    13      1       0.9953504       175.1649
2017    13      2       0.9204736       166.9369
2017    13      3       0.8332096       156.5781
2017    13      4       0.7822262       150.4748
2017    13      5       0.8403899       157.4595
2017    13      6       0.8381428       157.2122
2017    13      7       0.7523656       147.0131
2017    14      0       0.7828718       150.6541
2017    14      1       0.9056316       164.7284
2017    14      2       0.8858717       163.0422
2017    14      3       0.8799727       162.5946
2017    14      4       0.9614483       171.098
2017    14      5       1.251013        196.9761
2017    14      6       1.32839         202.2513
2017    14      7       1.098887        184.1234
2017    15      0       0.8845285       164.3995
2017    15      1       0.7847709       152.7952
2017    15      2       0.5912255       126.1409
2017    15      3       0.5534229       120.6918
2017    15      4       1.037344        180.551
2017    15      5       1.315602        202.9765
2017    15      6       1.166961        190.1349
2017    15      7       0.879413        162.5432
2017    16      0       0.6977377       140.616
2017    16      1       0.6526846       134.4583
2017    16      2       0.6864243       138.7056
2017    16      3       0.6184158       128.3962
2017    16      4       0.7213789       142.449
2017    16      5       1.011228        175.3155
2017    16      6       1.100444        183.7832
2017    16      7       0.866618        159.5243
2017    17      0       0.6615821       134.9158
2017    17      1       0.673604        136.2766
2017    17      2       0.5895594       124.7007
2017    17      3       0.5278597       115.4658
2017    17      4       0.5994631       126.1252
2017    17      5       0.5590101       119.5089
2017    17      6       0.4591417       102.2787
2017    17      7       0.3655727       85.86718
2017    18      0       0.2996075       73.37729
2017    18      1       0.308987        75.15734
2017    18      2       0.2961731       73.08768
2017    18      3       0.3075508       75.49895
2017    18      4       0.3116789       76.31479
2017    18      5       0.3001548       73.90734
2017    18      6       0.275254        68.64269
2017    18      7       0.2607093       65.59664
2017    19      0       0.2678136       67.32491
2017    19      1       0.2386952       61.39166
2017    19      2       0.1926117       51.23503
2017    19      3       0.1809594       48.39345
2017    19      4       0.1935732       51.21829
2017    19      5       0.2077446       54.44255
2017    19      6       0.211084        55.32173
2017    19      7       0.2273843       59.15214
2017    20      0       0.2144341       56.45122
2017    20      1       0.1991672       53.08547
2017    20      2       0.187423        50.44996
2017    20      3       0.1700254       46.50643
2017    20      4       0.1664142       45.54944
2017    20      5       0.1719563       46.80505
2017    20      6       0.300134        75.30485
2017    20      7       0.2150394       57.06739
2017    21      0       0.1921456       51.5459
2017    21      1       0.2033428       53.82335
2017    21      2       0.1806898       49.04601
2017    21      3       0.1541232       42.93203
2017    21      4       0.1427503       40.18325
2017    21      5       0.145305        40.6831
2017    21      6       0.1599093       44.27862
2017    21      7       0.1934869       52.11291
2017    22      0       0.2520494       64.68304
2017    22      1       0.379226        89.81321
2017    22      2       0.3938268       92.37232
2017    22      3       0.3576284       85.57926
2017    22      4       0.4394227       100.7822
2017    22      5       0.5868832       124.51
2017    22      6       0.9004193       164.8383
2017    22      7       1.059968        181.5137
2017    23      0       1.006979        177.0183
2017    23      1       0.6327097       132.1969
2017    23      2       0.5316867       116.9426
2017    23      3       0.4148161       96.85954
2017    23      4       0.4023427       94.36893
2017    23      5       0.4933708       110.3934
2017    23      6       0.7633945       150.3176
2017    23      7       0.74291         147.6054
2017    24      0       0.5580726       121.2575
2017    24      1       0.4222563       98.27907
2017    24      2       0.4348305       100.4029
2017    24      3       0.3963109       93.29553
2017    24      4       0.3860598       91.30153
2017    24      5       0.3745543       89.18428
2017    24      6       0.446933        102.6889
2017    24      7       0.5590042       122.0427
2017    25      0       0.486756        110.4885
2017    25      1       0.4402373       102.4715
2017    25      2       0.4441453       103.1622
2017    25      3       0.4690324       107.4006
2017    25      4       0.459824        105.685
2017    25      5       0.4640321       106.2627
2017    25      6       0.7980585       155.364
2017    25      7       0.9270389       170.2694
2017    26      0       0.690383        141.8114
2017    26      1       0.6630616       138.193
2017    26      2       0.5163519       115.6722
2017    26      3       0.5455933       120.0061
2017    26      4       0.5896866       126.5305
2017    26      5       0.6127948       129.502
2017    26      6       0.8617431       162.5053
2017    26      7       0.9824467       176.0452
2017    27      0       0.6869093       141.0226
2017    27      1       0.5392503       119.1811
2017    27      2       0.4982767       112.5817
2017    27      3       0.5289941       117.4849
2017    27      4       0.5020763       113.1633
2017    27      5       0.4962166       112.1091
2017    27      6       0.7870042       154.1893
2017    27      7       0.8768486       164.7736
2017    28      0       0.7516742       148.8616
2017    28      1       0.6769813       138.6487
2017    28      2       0.6414829       133.4972
2017    28      3       0.5959556       126.8124
2017    28      4       0.5482723       119.2018
2017    28      5       0.7974474       152.5694
2017    28      6       1.102582        183.7686
2017    28      7       1.134939        186.0337
2017    29      0       1.022965        175.3707
2017    29      1       0.8973542       161.9886
2017    29      2       0.819403        153.0947
2017    29      3       0.6899231       136.9769
2017    29      4       0.6880201       137.0455
2017    29      5       0.8364666       155.3274
2017    29      6       1.02333         175.4017
2017    29      7       1.091988        182.1593
2017    30      0       0.8021519       151.59
2017    30      1       0.5936703       124.1742
2017    30      2       0.6610663       134.6869
2017    30      3       0.6444074       131.4929
2017    30      4       0.6537821       132.983
2017    30      5       0.865384        159.4857
2017    30      6       1.048835        178.5011
2017    30      7       1.15407         188.3723
2017    31      0       1.259331        197.0796
2017    31      1       1.310932        200.5372
2017    31      2       1.279095        198.1599
2017    31      3       1.459865        210.7009
2017    31      4       1.300345        199.5423
2017    31      5       1.434815        208.4978
2017    31      6       1.801913        229.1373
2017    31      7       1.487925        212.0617
2018    1       0       1.262302        198.1129
2018    1       1       1.582848        218.9182
2018    1       2       1.440061        209.4644
2018    1       3       1.525028        215.0033
2018    1       4       1.736727        225.6263
2018    1       5       1.625951        219.6684
2018    1       6       1.61501         219.4297
2018    1       7       1.930098        234.4893
