####################################################################################################
# Month: 06Jun                                                                                     #
# Station: BLDR                                                                                    #
# Frequency: 230 GHz                                                                               #
# Columns are: year    day     segment         tau     Tb (K)                                      #
####################################################################################################
2009    1       0       0.9104191       163.5611
2009    1       1       0.8532858       157.245
2009    1       2       0.6816023       136.3432
2009    1       3       0.7009868       138.3901
2009    1       4       0.7878762       149.8009
2009    1       5       0.9018554       162.5139
2009    1       6       0.9529687       167.748
2009    1       7       1.01393         174.5178
2009    2       0       1.101119        182.8052
2009    2       1       1.152416        187.5557
2009    2       2       1.229302        193.5069
2009    2       3       1.18446         189.4154
2009    2       4       1.130125        184.5849
2009    2       5       0.8270164       152.3711
2009    2       6       0.7749985       146.7212
2009    2       7       0.7157702       139.7074
2009    3       0       0.7457121       143.4715
2009    3       1       0.7478379       143.7403
2009    3       2       0.6910071       136.5856
2009    3       3       0.5982817       123.7771
2009    3       4       0.621962        127.5957
2009    3       5       0.6148479       126.2047
2009    3       6       0.7032097       137.3907
2009    3       7       0.6541177       130.9964
2009    4       0       0.7462674       143.3288
2009    4       1       0.7993614       150.5073
2009    4       2       0.806549        151.2003
2009    4       3       0.4577694       102.7821
2009    4       4       0.4659889       103.9417
2009    4       5       0.5315314       114.0824
2009    4       6       0.6775496       134.6151
2009    4       7       0.6761401       134.8077
2009    5       0       0.6968113       138.3152
2009    5       1       0.559971        118.9128
2009    5       2       0.4471261       100.4717
2009    5       3       0.4044509       92.78834
2009    5       4       0.4944552       107.2496
2009    5       5       0.5758537       120.0509
2009    5       6       0.4924479       108.3585
2009    5       7       0.764493        146.6673
2009    6       0       0.8034667       152.1447
2009    6       1       0.6331071       130.319
2009    6       2       0.5368149       115.2875
2009    6       3       0.2786073       69.32279
2009    6       4       0.1642956       45.1318
2009    6       5       0.1795659       48.37139
2009    6       6       0.2341233       60.22895
2009    6       7       0.3045206       74.36156
2009    7       0       0.3777116       87.43612
2009    7       1       0.2941999       71.60578
2009    7       2       0.2310579       59.16954
2009    7       3       0.2639074       66.01646
2009    7       4       0.2411346       61.29507
2009    7       5       0.3188975       76.14138
2009    7       6       0.4911273       105.522
2009    7       7       0.535203        112.445
2009    8       0       0.480827        104.3608
2009    8       1       0.4478413       99.22142
2009    8       2       0.4079542       92.87415
2009    8       3       0.4342432       97.34031
2009    8       4       0.453125        100.3497
2009    8       5       0.4444508       99.09584
2009    8       6       0.5897011       121.1697
2009    8       7       0.70297         137.1332
2009    9       0       0.5943253       122.5047
2009    9       1       0.5207181       111.9859
2009    9       2       0.4220816       95.62868
2009    9       3       0.4193907       94.50287
2009    9       4       0.4639189       101.8914
2009    9       5       0.4298539       96.6608
2009    9       6       0.6531931       130.1213
2009    9       7       0.7947          148.2055
2009    10      0       0.8762254       158.3114
2009    10      1       0.7037557       137.7132
2009    10      2       0.6541554       130.7525
2009    10      3       0.6464923       129.4271
2009    10      4       0.5152713       110.8661
2009    10      5       0.5163097       110.7103
2009    10      6       0.6132629       124.3053
2009    10      7       0.7764602       145.3141
2009    11      0       0.8574962       154.8584
2009    11      1       0.6039302       123.7696
2009    11      2       0.4954772       107.5006
2009    11      3       0.4797293       105.2773
2009    11      4       0.5334865       113.2824
2009    11      5       0.6326594       127.1998
2009    11      6       0.728249        140.2864
2009    11      7       0.9129587       162.0021
2009    12      0       0.7504142       143.0885
2009    12      1       0.714006        138.776
2009    12      2       0.5641823       118.7007
2009    12      3       0.4527671       101.418
2009    12      4       0.3424152       82.02951
2009    12      5       0.3427029       81.86002
2009    12      6       0.5656391       118.7089
2009    12      7       0.7124371       138.6213
2009    13      0       0.7653356       145.9072
2009    13      1       0.8333394       154.2794
2009    13      2       0.8211802       152.6968
2009    13      3       0.6961722       137.7221
2009    13      4       0.6084975       125.892
2009    13      5       0.4018968       92.92658
2009    13      6       0.4029035       93.56046
2009    13      7       0.5756395       120.9194
2009    14      0       0.8041923       150.8902
2009    14      1       0.540158        116.2078
2009    14      2       0.6326408       129.4949
2009    14      3       0.4134431       95.6107
2009    14      4       0.3824265       89.76888
2009    14      5       0.4115403       94.74556
2009    14      6       0.5263652       113.3546
2009    14      7       0.7615072       145.3313
2009    15      0       0.6755478       135.2169
2009    15      1       0.62577         128.4721
2009    15      2       0.6856831       136.4528
2009    15      3       0.4908029       108.5996
2009    15      4       0.486115        107.3689
2009    15      5       0.583491        121.8779
2009    15      6       0.7693114       145.8683
2009    15      7       0.9221484       163.2912
2009    16      0       0.8116595       150.9166
2009    16      1       0.5911782       123.3561
2009    16      2       0.4453127       100.7984
2009    16      3       0.345661        82.90347
2009    16      4       0.35924         85.24598
2009    16      5       0.4811219       105.7028
2009    16      6       0.6314546       128.3254
2009    16      7       0.7401611       142.678
2009    17      0       0.778043        147.6218
2009    17      1       0.850709        156.15
2009    17      2       0.6809816       136.3138
2009    17      3       0.5665747       120.5241
2009    17      4       0.4885438       108.3252
2009    17      5       0.4098903       94.94003
2009    17      6       0.4692115       105.2218
2009    17      7       0.4949286       109.7463
2009    18      0       0.6961763       138.2715
2009    18      1       0.5997693       125.9119
2009    18      2       0.6597587       133.8987
2009    18      3       0.5996335       125.6697
2009    18      4       0.5541102       118.4055
2009    18      5       0.4799364       106.7237
2009    18      6       0.5558082       118.5867
2009    18      7       0.6680422       134.5184
2009    19      0       0.8001024       151.0447
2009    19      1       0.7866649       149.5628
2009    19      2       0.743904        144.36
2009    19      3       0.6105545       126.7001
2009    19      4       0.3984861       92.62688
2009    19      5       0.3442779       82.90557
2009    19      6       0.3754737       89.08598
2009    19      7       0.4290938       99.10854
2009    20      0       0.4766419       107.3537
2009    20      1       0.4999726       111.2233
2009    20      2       0.7042018       141.4093
2009    20      3       0.7862647       152.2228
2009    20      4       0.6121208       126.7991
2009    20      5       0.6594005       132.6905
2009    20      6       0.9658352       169.3873
2009    20      7       1.238686        193.787
2009    21      0       1.317817        200.7564
2009    21      1       1.236439        194.8308
2009    21      2       0.7635415       148.4451
2009    21      3       0.407314        95.83481
2009    21      4       0.2956202       74.11272
2009    21      5       0.36255         87.13537
2009    21      6       0.6286273       130.5519
2009    21      7       0.7519944       145.8766
2009    22      0       0.6084975       127.3861
2009    22      1       0.4676132       106.0081
2009    22      2       0.3928862       93.04088
2009    22      3       0.3632539       87.65918
2009    22      4       0.2980845       74.99028
2009    22      5       0.2537689       65.94429
2009    22      6       0.3191975       79.37975
2009    22      7       0.4102352       96.60125
2009    23      0       0.5309853       116.6159
2009    23      1       0.699304        140.8811
2009    23      2       0.5934616       127.1696
2009    23      3       0.347262        85.57279
2009    23      4       0.2430755       63.82385
2009    23      5       0.3315976       81.18549
2009    23      6       0.4622729       104.7875
2009    23      7       0.93597         168.2572
2009    24      0       1.192282        192.5569
2009    24      1       0.9423152       169.9989
2009    24      2       0.9487935       170.6384
2009    24      3       0.8515698       160.1643
2009    24      4       0.6981047       141.2691
2009    24      5       0.5994295       127.2664
2009    24      6       0.650855        135.0662
2009    24      7       0.920411        167.5775
2009    25      0       1.095786        184.8753
2009    25      1       0.9265809       168.5804
2009    25      2       0.879288        163.7702
2009    25      3       0.8898066       164.8969
2009    25      4       0.8674201       162.6102
2009    25      5       1.023185        178.6617
2009    25      6       1.209894        195.6847
2009    25      7       1.57211         220.495
2009    26      0       1.447303        212.811
2009    26      1       1.345187        205.0681
2009    26      2       1.145114        190.0969
2009    26      3       0.8864614       164.6915
2009    26      4       0.7802889       151.4177
2009    26      5       0.8327694       157.6439
2009    26      6       1.220181        195.4631
2009    26      7       1.283737        199.9517
2009    27      0       1.05            180.22
2009    27      1       0.7820218       151.6273
2009    27      2       0.717926        143.4348
2009    27      3       0.6615272       135.6136
2009    27      4       0.6268535       129.806
2009    27      5       0.5449627       117.4374
2009    27      6       0.5220216       115.0522
2009    27      7       0.567732        122.7699
2009    28      0       0.6450392       134.1554
2009    28      1       0.657315        135.6102
2009    28      2       0.7095407       143.042
2009    28      3       0.7663586       150.8813
2009    28      4       0.6242245       131.9801
2009    28      5       0.5809162       126.2659
2009    28      6       0.6366935       133.7267
2009    28      7       0.8258046       156.9904
2009    29      0       0.7775133       152.1264
2009    29      1       0.6909716       141.2117
2009    29      2       0.632557        133.3914
2009    29      3       0.4731929       107.7808
2009    29      4       0.360311        87.42672
2009    29      5       0.352856        85.82234
2009    29      6       0.4485777       103.0203
2009    29      7       0.6112663       128.4443
2009    30      0       0.7057784       141.656
2009    30      1       0.6771383       137.9049
2009    30      2       0.5289908       116.3307
2009    30      3       0.4001846       94.48763
2009    30      4       0.3364905       82.52145
2009    30      5       0.2949808       74.20714
2009    30      6       0.3183884       78.89831
2009    30      7       0.385549        91.5549
2010    1       0       0.3372239       80.6843
2010    1       1       0.3359782       80.39306
2010    1       2       0.3078611       74.98863
2010    1       3       0.28388         70.31941
2010    1       4       0.2701081       67.31204
2010    1       5       0.2823689       69.66804
2010    1       6       0.3954238       90.39227
2010    1       7       0.5321771       112.7862
2010    2       0       0.5973399       122.6813
2010    2       1       0.6446669       129.2877
2010    2       2       0.4990384       108.8789
2010    2       3       0.4800396       105.7856
2010    2       4       0.4838722       106.2895
2010    2       5       0.644714        129.6251
2010    2       6       0.7069857       138.6241
2010    2       7       0.7931207       149.7546
2010    3       0       0.7206352       141.6851
2010    3       1       0.6408723       130.9768
2010    3       2       0.6013248       125.415
2010    3       3       0.6058439       126.2059
2010    3       4       0.6811322       136.6843
2010    3       5       0.7827975       149.5591
2010    3       6       0.8996732       162.5023
2010    3       7       0.9899039       172.6069
2010    4       0       0.9269657       167.205
2010    4       1       0.7785289       150.6802
2010    4       2       0.6722388       137.0555
2010    4       3       0.7406727       145.7914
2010    4       4       0.7237254       143.4086
2010    4       5       0.711766        142.1175
2010    4       6       0.8498001       159.788
2010    4       7       0.9793148       174.5735
2010    5       0       0.975942        174.4207
2010    5       1       0.8419192       159.1734
2010    5       2       0.7715519       151.3409
2010    5       3       0.7802737       152.9771
2010    5       4       0.7867804       153.4388
2010    5       5       0.9121511       167.5183
2010    5       6       1.095346        185.7751
2010    5       7       1.20704         195.7604
2010    6       0       1.183607        193.6592
2010    6       1       1.049324        181.2818
2010    6       2       1.027881        178.9002
2010    6       3       0.8598573       161.5751
2010    6       4       0.6983051       141.7562
2010    6       5       0.609968        129.2977
2010    6       6       0.7046775       142.1114
2010    6       7       0.7396894       147.1458
2010    7       0       0.7300232       146.0288
2010    7       1       0.6515323       135.6051
2010    7       2       0.6751309       138.6603
2010    7       3       0.6951986       141.36
2010    7       4       0.5289149       117.0218
2010    7       5       0.4181892       98.2949
2010    7       6       0.5087798       113.7037
2010    7       7       0.6150873       130.0683
2010    8       0       0.591638        126.6469
2010    8       1       0.5289468       116.9378
2010    8       2       0.5555763       120.9188
2010    8       3       0.6912371       139.9785
2010    8       4       0.6176591       130.2436
2010    8       5       0.760909        148.5824
2010    8       6       1.085052        182.3315
2010    8       7       0.9885922       173.8055
2010    9       0       0.9390617       169.1341
2010    9       1       0.9690581       172.173
2010    9       2       0.8814963       162.9526
2010    9       3       0.8341594       157.9244
2010    9       4       0.7740392       151.1817
2010    9       5       0.7365561       146.3275
2010    9       6       0.7836102       152.2534
2010    9       7       0.8821347       164.3164
2010    10      0       0.8472962       160.8913
2010    10      1       0.7161308       144.3318
2010    10      2       0.4966027       111.0076
2010    10      3       0.3691313       88.55892
2010    10      4       0.3222182       80.02092
2010    10      5       0.3837459       91.2823
2010    10      6       0.4831035       108.8019
2010    10      7       0.6407017       131.8743
2010    11      0       0.837289        156.2606
2010    11      1       0.6880543       138.5707
2010    11      2       0.4403255       101.4665
2010    11      3       0.3374043       82.9926
2010    11      4       0.3738486       89.52738
2010    11      5       0.5832262       124.2328
2010    11      6       1.058522        180.5386
2010    11      7       1.230848        195.0172
2010    12      0       1.324012        203.0194
2010    12      1       1.056162        181.2774
2010    12      2       1.465597        213.0425
2010    12      3       0.9724447       172.3577
2010    12      4       0.7428429       145.7481
2010    12      5       1.041847        178.3439
2010    12      6       0.9645836       169.4173
2010    12      7       0.9192133       165.846
2010    13      0       0.9599198       168.9956
2010    13      1       0.7419096       145.2931
2010    13      2       0.6983535       139.5164
2010    13      3       0.699011        138.934
2010    13      4       0.8678652       159.1922
2010    13      5       0.8894618       160.4742
2010    13      6       0.8887387       159.462
2010    13      7       0.7287022       140.6288
2010    14      0       0.623018        126.8587
2010    14      1       0.5127874       110.2506
2010    14      2       0.5417024       114.4271
2010    14      3       0.5214529       111.3505
2010    14      4       0.4989185       107.6356
2010    14      5       0.5024197       107.7749
2010    14      6       0.5845277       120.2214
2010    14      7       0.5789856       120.3901
2010    15      0       0.604019        123.6815
2010    15      1       0.4569605       101.8925
2010    15      2       0.1775543       48.44016
2010    15      3       0.2411781       62.21469
2010    15      4       0.2692934       68.1515
2010    15      5       0.240316        62.32419
2010    15      6       0.2219533       58.68542
2010    15      7       0.2611616       67.0044
2010    16      0       0.3809971       90.00249
2010    16      1       0.4870312       108.0287
2010    16      2       0.4787184       107.2132
2010    16      3       0.27351         69.75303
2010    16      4       0.3491301       84.23414
2010    16      5       0.3492677       84.35694
2010    16      6       0.389161        91.83412
2010    16      7       0.4598121       103.3624
2010    17      0       0.447174        100.6839
2010    17      1       0.3456477       82.80422
2010    17      2       0.2843121       70.94677
2010    17      3       0.2319816       61.05445
2010    17      4       0.1338776       38.64422
2010    17      5       0.1239132       36.0766
2010    17      6       0.1716259       47.17064
2010    17      7       0.1890998       51.4899
2010    18      0       0.2103459       56.27912
2010    18      1       0.1936396       52.54079
2010    18      2       0.1621734       45.28649
2010    18      3       0.1695274       46.888
2010    18      4       0.181139        49.53517
2010    18      5       0.192506        52.1754
2010    18      6       0.2472887       64.12848
2010    18      7       0.3063873       76.2434
2010    19      0       0.3672177       87.65141
2010    19      1       0.4021565       93.89335
2010    19      2       0.3501118       84.60704
2010    19      3       0.1977233       53.3969
2010    19      4       0.1873401       50.93182
2010    19      5       0.2087072       55.61075
2010    19      6       0.2853868       71.82289
2010    19      7       0.3678314       87.5905
2010    20      0       0.3625491       85.90838
2010    20      1       0.3258614       79.19988
2010    20      2       0.2641926       67.14987
2010    20      3       0.2314459       60.18484
2010    20      4       0.2468872       63.2
2010    20      5       0.2497508       63.83116
2010    20      6       0.2853623       71.37909
2010    20      7       0.3610524       85.93338
2010    21      0       0.3734755       87.99408
2010    21      1       0.3446764       83.37089
2010    21      2       0.2452371       63.6343
2010    21      3       0.1700493       47.19824
2010    21      4       0.1513067       42.79889
2010    21      5       0.1655636       46.00592
2010    21      6       0.2123436       56.41968
2010    21      7       0.2881503       71.82549
2010    22      0       0.2985313       73.9486
2010    22      1       0.316555        78.18127
2010    22      2       0.3037663       75.72513
2010    22      3       0.2935076       73.64652
2010    22      4       0.2451415       63.46294
2010    22      5       0.172231        47.47563
2010    22      6       0.1920062       51.88964
2010    22      7       0.2299999       60.07438
2010    23      0       0.2217981       58.31093
2010    23      1       0.1883341       51.30049
2010    23      2       0.1781761       48.96808
2010    23      3       0.183202        50.16785
2010    23      4       0.2153093       57.2223
2010    23      5       0.2328463       60.89338
2010    23      6       0.2603032       66.59057
2010    23      7       0.3453682       83.80674
2010    24      0       0.4829107       108.565
2010    24      1       0.5393966       117.5755
2010    24      2       0.5106482       113.1415
2010    24      3       0.4194051       98.47109
2010    24      4       0.2797576       71.79834
2010    24      5       0.2160859       57.64808
2010    24      6       0.2536771       65.72684
2010    24      7       0.2993161       74.93967
2010    25      0       0.3327714       81.31726
2010    25      1       0.3286286       80.88636
2010    25      2       0.3311145       81.92774
2010    25      3       0.3005459       75.65232
2010    25      4       0.2882053       72.78417
2010    25      5       0.3316182       81.71836
2010    25      6       0.379253        91.06371
2010    25      7       0.5252479       115.4545
2010    26      0       0.8357258       156.4789
2010    26      1       0.942947        169.142
2010    26      2       0.9303165       168.0106
2010    26      3       0.6956748       140.2321
2010    26      4       0.7032307       140.4748
2010    26      5       0.8670847       159.6856
2010    26      6       0.7880168       151.7678
2010    26      7       0.9805122       172.7251
2010    27      0       0.8271694       156.2722
2010    27      1       0.8852854       162.983
2010    27      2       0.7453657       146.4033
2010    27      3       0.6211358       130.036
2010    27      4       0.5538975       120.3618
2010    27      5       0.5453112       119.0249
2010    27      6       0.6376926       132.2204
2010    27      7       0.7249463       144.1583
2010    28      0       0.856501        160.4121
2010    28      1       0.706634        142.5198
2010    28      2       0.5939676       126.9397
2010    28      3       0.3811781       91.59512
2010    28      4       0.3241276       80.40628
2010    28      5       0.3169357       78.867
2010    28      6       0.3282105       81.18457
2010    28      7       0.3877071       92.55953
2010    29      0       0.468417        106.7227
2010    29      1       0.5259567       116.0676
2010    29      2       0.5181858       114.917
2010    29      3       0.3984703       94.85387
2010    29      4       0.3039653       76.73398
2010    29      5       0.3065258       77.14552
2010    29      6       0.3515838       85.99285
2010    29      7       0.4411911       102.2171
2010    30      0       0.5362744       117.7842
2010    30      1       0.4046798       95.38487
2010    30      2       0.2741654       70.49988
2010    30      3       0.2214023       59.25717
2010    30      4       0.2431224       63.91426
2010    30      5       0.3573057       86.66944
2010    30      6       0.4775305       107.4045
2010    30      7       0.566823        121.7064
2011    1       0       0.2728085       68.39631
2011    1       1       0.2609829       65.95872
2011    1       2       0.1920363       51.16308
2011    1       3       0.2136669       55.79731
2011    1       4       0.2607277       65.57867
2011    1       5       0.3359733       80.34784
2011    1       6       0.4513757       101.4842
2011    1       7       0.8302452       155.0194
2011    2       0       0.7010777       140.1532
2011    2       1       0.6778972       138.1977
2011    2       2       0.337623        81.69029
2011    2       3       0.2927655       72.61363
2011    2       4       0.2950455       72.8647
2011    2       5       0.2617075       66.35722
2011    2       6       0.2720466       69.06836
2011    2       7       0.3217228       78.95812
2011    3       0       0.3319286       80.88444
2011    3       1       0.2786612       70.27509
2011    3       2       0.2047277       54.40014
2011    3       3       0.1604729       44.14064
2011    3       4       0.1877611       49.94697
2011    3       5       0.2104143       54.97055
2011    3       6       0.2591428       65.38982
2011    3       7       0.3781033       88.04028
2011    4       0       0.5263903       112.3209
2011    4       1       0.4687464       104.0555
2011    4       2       0.3848664       90.22749
2011    4       3       0.3551858       84.896
2011    4       4       0.3567269       84.95496
2011    4       5       0.3951356       91.74928
2011    4       6       0.4395684       100.0757
2011    4       7       0.6021459       125.4506
2011    5       0       0.6665159       134.8321
2011    5       1       0.5662428       121.0673
2011    5       2       0.4853827       108.7705
2011    5       3       0.3373265       82.23567
2011    5       4       0.2236467       58.75829
2011    5       5       0.1998662       53.53471
2011    5       6       0.2770462       69.98791
2011    5       7       0.3613255       86.43717
2011    6       0       0.4476929       101.4416
2011    6       1       0.4411602       100.6742
2011    6       2       0.3916695       92.46531
2011    6       3       0.3298781       81.15142
2011    6       4       0.2998678       75.12228
2011    6       5       0.2803943       71.24321
2011    6       6       0.3416455       83.43845
2011    6       7       0.4651331       104.6204
2011    7       0       0.4934329       109.1061
2011    7       1       0.298554        74.913
2011    7       2       0.2046777       55.32414
2011    7       3       0.1357553       39.52231
2011    7       4       0.07474092      24.29907
2011    7       5       0.09857924      30.26007
2011    7       6       0.2002638       54.10384
2011    7       7       0.2538444       65.58058
2011    8       0       0.2705749       68.93144
2011    8       1       0.280551        70.59096
2011    8       2       0.3013477       74.50998
2011    8       3       0.3308108       80.27914
2011    8       4       0.3278796       79.7047
2011    8       5       0.2948649       73.53521
2011    8       6       0.3582683       85.62472
2011    8       7       0.4612972       103.1853
2011    9       0       0.6366895       129.8213
2011    9       1       0.7549572       145.2591
2011    9       2       0.5439537       117.221
2011    9       3       0.4195494       97.4276
2011    9       4       0.3327883       81.07634
2011    9       5       0.3246793       79.26553
2011    9       6       0.344348        82.83211
2011    9       7       0.4494938       101.9118
2011    10      0       0.5071326       111.3759
2011    10      1       0.3667268       87.24072
2011    10      2       0.3147376       77.11072
2011    10      3       0.3529032       84.33018
2011    10      4       0.2556814       65.26415
2011    10      5       0.2552739       65.26087
2011    10      6       0.2675265       67.83274
2011    10      7       0.3588008       85.80677
2011    11      0       0.473905        106.1583
2011    11      1       0.5756987       122.2765
2011    11      2       0.4609751       104.2828
2011    11      3       0.3487532       84.49962
2011    11      4       0.2725293       68.63825
2011    11      5       0.3750577       86.76366
2011    11      6       0.3921867       91.1613
2011    11      7       0.6029567       124.4678
2011    12      0       0.5376463       115.6619
2011    12      1       0.4609771       103.9992
2011    12      2       0.34918         84.27302
2011    12      3       0.2095467       55.88327
2011    12      4       0.1779207       48.73925
2011    12      5       0.1609856       44.97891
2011    12      6       0.2045359       54.47217
2011    12      7       0.2601563       66.008
2011    13      0       0.2585813       65.60835
2011    13      1       0.2539958       64.47113
2011    13      2       0.2871438       70.44447
2011    13      3       0.2724628       67.69718
2011    13      4       0.3066563       74.26845
2011    13      5       0.3143153       75.76713
2011    13      6       0.3525745       83.48089
2011    13      7       0.482348        106.3026
2011    14      0       0.5599382       118.3476
2011    14      1       0.6491254       130.9051
2011    14      2       0.5565378       118.1422
2011    14      3       0.54419         115.8124
2011    14      4       0.4667154       104.1601
2011    14      5       0.3561168       85.09182
2011    14      6       0.4138374       95.89428
2011    14      7       0.3914102       92.1364
2011    15      0       0.3560044       85.68337
2011    15      1       0.3088411       76.3888
2011    15      2       0.3105068       76.37083
2011    15      3       0.3213839       78.34012
2011    15      4       0.3116391       76.52802
2011    15      5       0.2743266       69.17909
2011    15      6       0.3053106       75.54433
2011    15      7       0.3640003       87.3144
2011    16      0       0.4029212       94.50802
2011    16      1       0.3771141       89.91342
2011    16      2       0.4199994       97.12488
2011    16      3       0.5373742       115.8091
2011    16      4       0.4661891       105.0858
2011    16      5       0.481169        107.7248
2011    16      6       0.5264457       115.4057
2011    16      7       0.6440981       132.2553
2011    17      0       0.6460875       132.6655
2011    17      1       0.4422052       101.2599
2011    17      2       0.433746        99.46766
2011    17      3       0.5789496       122.7834
2011    17      4       0.6356198       130.4603
2011    17      5       0.5849684       122.4697
2011    17      6       0.8284541       153.3563
2011    17      7       0.9947892       171.591
2011    18      0       0.8425845       155.2994
2011    18      1       0.7701065       146.518
2011    18      2       0.6862667       135.8353
2011    18      3       0.5493561       116.6951
2011    18      4       0.564131        118.9967
2011    18      5       0.5771945       120.7895
2011    18      6       0.4896802       107.078
2011    18      7       0.6349353       128.4943
2011    19      0       0.5741307       120.7318
2011    19      1       0.5464272       117.3467
2011    19      2       0.5230943       113.7559
2011    19      3       0.5111637       111.5908
2011    19      4       0.5993529       124.8103
2011    19      5       0.6594842       132.9445
2011    19      6       0.8779337       159.4524
2011    19      7       0.8679712       159.3628
2011    20      0       1.114606        183.9431
2011    20      1       1.025523        176.922
2011    20      2       0.8619974       159.212
2011    20      3       0.6977272       136.8088
2011    20      4       0.7044776       137.4086
2011    20      5       0.7373211       142.7035
2011    20      6       0.8855472       159.9616
2011    20      7       0.7766232       147.8484
2011    21      0       0.7892537       149.431
2011    21      1       0.7429122       143.3865
2011    21      2       0.4773588       105.8143
2011    21      3       0.3436732       82.2379
2011    21      4       0.3730399       87.74569
2011    21      5       0.3446137       82.50587
2011    21      6       0.3630546       86.25447
2011    21      7       0.4156227       96.06834
2011    22      0       0.4096004       95.17691
2011    22      1       0.3406167       82.39055
2011    22      2       0.3067591       75.88934
2011    22      3       0.3144258       77.47486
2011    22      4       0.2762066       69.84811
2011    22      5       0.2616907       66.85726
2011    22      6       0.2942972       73.63893
2011    22      7       0.3683076       88.33872
2011    23      0       0.4175716       97.53797
2011    23      1       0.430486        99.82713
2011    23      2       0.4593088       104.5639
2011    23      3       0.4034968       94.70617
2011    23      4       0.3556986       85.7614
2011    23      5       0.3726689       88.68911
2011    23      6       0.4719035       106.5282
2011    23      7       0.5857695       124.7722
2011    24      0       0.5940194       126.1965
2011    24      1       0.5626895       121.4474
2011    24      2       0.4987555       111.5858
2011    24      3       0.3911011       92.79575
2011    24      4       0.4048422       94.99788
2011    24      5       0.5071588       112.6709
2011    24      6       0.559011        121.4634
2011    24      7       0.6174959       129.8102
2011    25      0       0.5588271       120.9988
2011    25      1       0.3919883       93.17681
2011    25      2       0.3120594       77.79007
2011    25      3       0.3467563       84.80857
2011    25      4       0.3849986       91.94273
2011    25      5       0.3846502       91.50915
2011    25      6       0.4558772       104.0527
2011    25      7       0.5697917       122.3223
2011    26      0       0.5074336       113.1045
2011    26      1       0.4523042       103.7424
2011    26      2       0.3325194       81.75264
2011    26      3       0.2356102       61.99627
2011    26      4       0.171961        47.89295
2011    26      5       0.17222         48.0406
2011    26      6       0.2122299       57.02221
2011    26      7       0.2670763       68.72674
2011    27      0       0.2710149       69.35638
2011    27      1       0.2515743       64.9264
2011    27      2       0.4762999       107.1855
2011    27      3       0.498651        110.4339
2011    27      4       0.6178531       128.7108
2011    27      5       0.4730469       105.8595
2011    27      6       0.4655014       105.0785
2011    27      7       0.6667267       135.5425
2011    28      0       0.8003187       153.4585
2011    28      1       0.6736657       137.6706
2011    28      2       0.4814481       108.7994
2011    28      3       0.2660179       68.32907
2011    28      4       0.3066289       75.85395
2011    28      5       0.3627256       86.52507
2011    28      6       0.3992293       93.83948
2011    28      7       0.478326        107.424
2011    29      0       0.5369045       116.626
2011    29      1       0.4485929       103.0844
2011    29      2       0.4009891       94.809
2011    29      3       0.5217792       114.9783
2011    29      4       0.6089634       126.8311
2011    29      5       0.4603012       104.8169
2011    29      6       0.5309586       116.9987
2011    29      7       0.7824076       150.912
2011    30      0       0.6425402       133.7309
2011    30      1       0.6594838       136.3721
2011    30      2       0.7308624       145.2027
2011    30      3       0.7273227       144.455
2011    30      4       0.790691        151.7227
2011    30      5       0.6479265       133.8687
2011    30      6       0.7418175       145.8355
2011    30      7       0.7139381       142.6058
2012    1       0       0.6802226       136.0013
2012    1       1       0.6380292       130.2305
2012    1       2       0.5949644       124.1792
2012    1       3       0.5916517       123.8842
2012    1       4       0.6028044       125.8657
2012    1       5       0.5622232       119.7502
2012    1       6       0.7239982       141.8814
2012    1       7       0.804117        152.112
2012    2       0       0.7022823       139.8513
2012    2       1       0.6152769       128.2245
2012    2       2       0.5865325       124.1081
2012    2       3       0.614156        128.1725
2012    2       4       0.5772597       122.5993
2012    2       5       0.5394976       116.8667
2012    2       6       0.6613943       134.0559
2012    2       7       0.7797853       149.3718
2012    3       0       0.7231244       142.5786
2012    3       1       0.5955134       125.635
2012    3       2       0.5263185       114.2938
2012    3       3       0.4313962       99.22796
2012    3       4       0.4102108       95.5059
2012    3       5       0.5549358       118.7563
2012    3       6       0.6120368       127.6801
2012    3       7       0.6824621       137.5673
2012    4       0       0.819402        154.2295
2012    4       1       0.6100978       127.9043
2012    4       2       0.573473        122.8292
2012    4       3       0.5318239       116.5087
2012    4       4       0.4821167       108.416
2012    4       5       0.4647537       105.2608
2012    4       6       0.4999477       110.976
2012    4       7       0.5182929       114.1606
2012    5       0       0.4824536       108.5276
2012    5       1       0.4828368       109.3095
2012    5       2       0.4720625       106.0022
2012    5       3       0.4511177       101.6409
2012    5       4       0.6005996       124.7368
2012    5       5       0.5994613       124.4467
2012    5       6       0.4975427       110.1099
2012    5       7       0.4448913       101.0888
2012    6       0       0.5160133       113.6125
2012    6       1       0.474309        107.3431
2012    6       2       0.3638797       87.66672
2012    6       3       0.2538722       65.57309
2012    6       4       0.2295224       59.98271
2012    6       5       0.2207773       58.09365
2012    6       6       0.2829669       71.3331
2012    6       7       0.4088126       95.23653
2012    7       0       0.6294947       129.7641
2012    7       1       0.8452532       158.3576
2012    7       2       0.8693044       161.8411
2012    7       3       0.48985         109.8833
2012    7       4       0.3457313       83.73469
2012    7       5       0.3434185       83.1116
2012    7       6       0.3573903       85.93138
2012    7       7       0.3580267       86.12159
2012    8       0       0.3643265       86.93195
2012    8       1       0.4261147       98.13041
2012    8       2       0.3449886       83.68358
2012    8       3       0.239324        62.00932
2012    8       4       0.2470766       63.34142
2012    8       5       0.2837813       70.64889
2012    8       6       0.2962914       73.91318
2012    8       7       0.3273198       80.5122
2012    9       0       0.3990085       93.47127
2012    9       1       0.3400379       82.87974
2012    9       2       0.2477984       64.50838
2012    9       3       0.2664121       68.42202
2012    9       4       0.2398121       62.68669
2012    9       5       0.2435227       63.41345
2012    9       6       0.2792709       71.16898
2012    9       7       0.283451        72.31893
2012    10      0       0.2686905       69.08848
2012    10      1       0.2262003       60.08182
2012    10      2       0.2292822       60.98771
2012    10      3       0.2684408       69.0248
2012    10      4       0.2597063       66.48818
2012    10      5       0.2436518       62.54104
2012    10      6       0.1893492       50.92
2012    10      7       0.1860861       50.03929
2012    11      0       0.1615111       44.49394
2012    11      1       0.1414298       39.79543
2012    11      2       0.1361741       38.54032
2012    11      3       0.1545814       42.71951
2012    11      4       0.1736728       46.9343
2012    11      5       0.1608276       44.12128
2012    11      6       0.1686412       45.96462
2012    11      7       0.2194083       57.01648
2012    12      0       0.3107996       75.53269
2012    12      1       0.3658368       85.87398
2012    12      2       0.3026432       74.31798
2012    12      3       0.2505393       63.89641
2012    12      4       0.18016         48.5725
2012    12      5       0.1699568       46.26454
2012    12      6       0.2076784       54.4582
2012    12      7       0.2630428       65.65225
2012    13      0       0.320759        76.32665
2012    13      1       0.2991036       72.67349
2012    13      2       0.2867849       70.73384
2012    13      3       0.2973809       73.13947
2012    13      4       0.2800042       69.82804
2012    13      5       0.2383389       61.40796
2012    13      6       0.2497167       63.77381
2012    13      7       0.3232771       77.75529
2012    14      0       0.3569805       83.99259
2012    14      1       0.2959022       72.73583
2012    14      2       0.2150315       56.60651
2012    14      3       0.1780365       48.71956
2012    14      4       0.2163983       57.3594
2012    14      5       0.3052312       76.18857
2012    14      6       0.3196443       78.80978
2012    14      7       0.413473        95.88403
2012    15      0       0.6346694       130.1132
2012    15      1       0.6834176       137.2441
2012    15      2       0.6450234       132.5157
2012    15      3       0.4951824       109.9804
2012    15      4       0.4472557       101.2158
2012    15      5       0.5374076       115.3147
2012    15      6       0.5255396       114.5307
2012    15      7       0.6181412       128.3421
2012    16      0       0.5543981       119.2152
2012    16      1       0.4442898       100.7593
2012    16      2       0.4015186       93.14578
2012    16      3       0.4377012       100.598
2012    16      4       0.5179015       114.5908
2012    16      5       0.5318136       116.6236
2012    16      6       0.4892684       109.6435
2012    16      7       0.6073815       127.6878
2012    17      0       0.5818738       124.2013
2012    17      1       0.5350689       116.9743
2012    17      2       0.4173869       97.61851
2012    17      3       0.3104966       77.49369
2012    17      4       0.3210882       79.3085
2012    17      5       0.4196498       97.49704
2012    17      6       0.3907294       92.59709
2012    17      7       0.3480294       84.27588
2012    18      0       0.3303323       80.60973
2012    18      1       0.3699346       88.49269
2012    18      2       0.3807099       90.90302
2012    18      3       0.3916344       92.76151
2012    18      4       0.3062114       75.80369
2012    18      5       0.3045331       75.29164
2012    18      6       0.3082806       75.96835
2012    18      7       0.321138        78.74709
2012    19      0       0.324154        79.86729
2012    19      1       0.316943        78.33296
2012    19      2       0.2900093       72.87836
2012    19      3       0.2589596       66.55579
2012    19      4       0.2275774       59.88812
2012    19      5       0.2275422       59.88501
2012    19      6       0.2634271       67.69371
2012    19      7       0.3178186       78.67065
2012    20      0       0.4349333       99.89946
2012    20      1       0.5048197       112.3772
2012    20      2       0.402576        94.98376
2012    20      3       0.3393814       83.27265
2012    20      4       0.2615428       67.17319
2012    20      5       0.2737855       69.37148
2012    20      6       0.2982842       74.43245
2012    20      7       0.310479        76.75939
2012    21      0       0.3483618       83.94904
2012    21      1       0.4012161       93.73978
2012    21      2       0.5640693       120.7278
2012    21      3       0.4850114       108.2918
2012    21      4       0.4107889       96.03497
2012    21      5       0.3220229       79.54023
2012    21      6       0.3257782       80.57167
2012    21      7       0.3616121       87.68737
2012    22      0       0.4001065       94.94713
2012    22      1       0.3332074       82.30788
2012    22      2       0.2078888       55.78003
2012    22      3       0.2275751       59.9357
2012    22      4       0.3105902       77.04483
2012    22      5       0.3650471       88.29894
2012    22      6       0.3677977       88.84515
2012    22      7       0.3219979       79.83529
2012    23      0       0.2895808       73.54799
2012    23      1       0.2319691       61.87821
2012    23      2       0.227491        60.85768
2012    23      3       0.2342089       62.49656
2012    23      4       0.220688        59.48418
2012    23      5       0.179905        50.24686
2012    23      6       0.2132879       57.73634
2012    23      7       0.266275        68.94611
2012    24      0       0.3275          80.78762
2012    24      1       0.4347788       99.81453
2012    24      2       0.3977153       94.38086
2012    24      3       0.3408282       83.88279
2012    24      4       0.3592306       86.87888
2012    24      5       0.3874128       92.29047
2012    24      6       0.4589157       104.4414
2012    24      7       0.5318746       116.628
2012    25      0       0.6290044       131.1988
2012    25      1       0.791727        152.2312
2012    25      2       0.6381968       133.4403
2012    25      3       0.7056003       142.0774
2012    25      4       0.5212328       116.1294
2012    25      5       0.4263004       100.3851
2012    25      6       0.4674032       107.267
2012    25      7       0.5462742       119.5897
2012    26      0       0.524193        115.0656
2012    26      1       0.4667566       106.0715
2012    26      2       0.5013693       113.1434
2012    26      3       0.503168        113.5392
2012    26      4       0.4867005       110.4918
2012    26      5       0.5721233       124.3174
2012    26      6       0.6652462       138.2159
2012    26      7       0.8044254       155.6246
2012    27      0       0.8799687       164.8047
2012    27      1       0.8612957       162.6357
2012    27      2       0.7414661       147.9524
2012    27      3       0.7299216       146.3818
2012    27      4       0.7052166       143.3272
2012    27      5       0.755412        149.572
2012    27      6       1.005101        177.3474
2012    27      7       1.282483        201.1939
2012    28      0       1.020104        178.2005
2012    28      1       0.6617914       136.671
2012    28      2       0.61891         130.9696
2012    28      3       0.5922696       127.0098
2012    28      4       0.5232025       116.3912
2012    28      5       0.5390575       119.1782
2012    28      6       0.7535688       148.9323
2012    28      7       1.093635        184.7364
2012    29      0       0.7930436       154.3911
2012    29      1       0.7206062       146.0776
2012    29      2       0.7835771       153.6759
2012    29      3       0.584427        126.1766
2012    29      4       0.5787065       125.4414
2012    29      5       0.6073428       129.5585
2012    29      6       0.6278225       132.6778
2012    29      7       0.8071128       155.2609
2012    30      0       0.7461065       147.5314
2012    30      1       0.5517402       119.7717
2012    30      2       0.5013067       112.2219
2012    30      3       0.4635325       106.0771
2012    30      4       0.4603305       105.0899
2012    30      5       0.497668        111.5883
2012    30      6       0.5410796       118.8542
2012    30      7       0.7181156       143.3674
2013    1       0       0.2959124       71.44561
2013    1       1       0.2781655       67.85324
2013    1       2       0.291498        70.57304
2013    1       3       0.330947        78.58131
2013    1       4       0.3510516       82.4222
2013    1       5       0.4428027       98.39118
2013    1       6       0.3765755       87.28145
2013    1       7       0.3813023       88.81126
2013    2       0       0.4025849       92.78025
2013    2       1       0.3871166       90.06672
2013    2       2       0.3240138       78.49909
2013    2       3       0.272142        68.24143
2013    2       4       0.259536        65.43157
2013    2       5       0.2624065       66.04341
2013    2       6       0.2937816       72.62284
2013    2       7       0.3337599       80.74809
2013    3       0       0.3498738       83.94885
2013    3       1       0.2995352       74.5701
2013    3       2       0.3101575       76.70459
2013    3       3       0.2886943       72.36613
2013    3       4       0.3169636       77.73981
2013    3       5       0.2921257       72.47381
2013    3       6       0.3323348       80.61795
2013    3       7       0.4947769       108.8627
2013    4       0       0.4968059       109.689
2013    4       1       0.467077        104.7332
2013    4       2       0.3850227       89.72132
2013    4       3       0.3059374       74.89778
2013    4       4       0.2332135       60.5361
2013    4       5       0.2381816       61.43177
2013    4       6       0.3696055       87.01119
2013    4       7       0.4917065       107.9157
2013    5       0       0.6529846       131.7225
2013    5       1       0.821321        152.5579
2013    5       2       0.8597324       158.2401
2013    5       3       0.5691754       121.0018
2013    5       4       0.3782637       89.10717
2013    5       5       0.3324532       80.27055
2013    5       6       0.3713108       87.40498
2013    5       7       0.4088633       94.28737
2013    6       0       0.3825787       89.59902
2013    6       1       0.3441544       82.27322
2013    6       2       0.3221082       77.7845
2013    6       3       0.327733        78.8678
2013    6       4       0.4106656       93.53918
2013    6       5       0.4043386       92.77161
2013    6       6       0.4642444       102.8637
2013    6       7       0.5120119       111.0423
2013    7       0       0.5769103       120.8869
2013    7       1       0.5358059       114.5938
2013    7       2       0.4897735       107.6252
2013    7       3       0.4608756       103.0013
2013    7       4       0.5064928       109.7317
2013    7       5       0.5037335       109.3338
2013    7       6       0.6073462       125.0307
2013    7       7       0.6482847       131.4905
2013    8       0       0.6121036       127.0423
2013    8       1       0.5320513       115.1839
2013    8       2       0.5414702       117.3345
2013    8       3       0.6736419       136.8048
2013    8       4       0.5919914       125.3631
2013    8       5       0.6057155       127.0242
2013    8       6       0.9353929       166.939
2013    8       7       0.8232521       154.6588
2013    9       0       0.6136625       127.7539
2013    9       1       0.4939393       109.2142
2013    9       2       0.4996043       110.3417
2013    9       3       0.4407444       100.8354
2013    9       4       0.3483955       84.24111
2013    9       5       0.3479399       84.29344
2013    9       6       0.4060367       95.34528
2013    9       7       0.466289        106.3784
2013    10      0       0.4706463       107.3165
2013    10      1       0.4013058       95.27779
2013    10      2       0.3785157       90.84213
2013    10      3       0.3565336       86.84004
2013    10      4       0.3151638       78.80829
2013    10      5       0.355025        85.92769
2013    10      6       0.4378434       101.1067
2013    10      7       0.5464786       118.4082
2013    11      0       0.5148355       113.897
2013    11      1       0.4909575       110.1421
2013    11      2       0.3942539       93.67037
2013    11      3       0.2680028       68.88375
2013    11      4       0.2737172       69.34703
2013    11      5       0.2997224       74.32306
2013    11      6       0.2158481       57.66232
2013    11      7       0.2394824       62.72912
2013    12      0       0.2779083       71.02481
2013    12      1       0.2261011       59.88992
2013    12      2       0.2858928       72.20752
2013    12      3       0.2965713       74.51982
2013    12      4       0.3240274       79.49278
2013    12      5       0.3662696       87.48144
2013    12      6       0.3863675       91.65193
2013    12      7       0.4393528       100.8013
2013    13      0       0.5309691       115.2191
2013    13      1       0.5861344       123.4417
2013    13      2       0.5400621       117.102
2013    13      3       0.4281681       99.18271
2013    13      4       0.3471634       83.96428
2013    13      5       0.5095847       113.0594
2013    13      6       0.4496056       103.6502
2013    13      7       0.6379803       131.5323
2013    14      0       0.6717357       137.3546
2013    14      1       0.7210386       143.8364
2013    14      2       0.5484506       119.6122
2013    14      3       0.3332524       81.74224
2013    14      4       0.1729279       47.78923
2013    14      5       0.1686424       46.88446
2013    14      6       0.2470549       64.13249
2013    14      7       0.3873528       90.93769
2013    15      0       0.5301479       115.3137
2013    15      1       0.4623956       105.6706
2013    15      2       0.3837861       91.55355
2013    15      3       0.2541476       65.8956
2013    15      4       0.1831494       50.25186
2013    15      5       0.2218174       58.88116
2013    15      6       0.3103682       76.71999
2013    15      7       0.4635831       104.3558
2013    16      0       0.5495919       118.1359
2013    16      1       0.5491396       118.3505
2013    16      2       0.466221        105.2849
2013    16      3       0.4928472       108.6801
2013    16      4       0.5725282       121.258
2013    16      5       0.415942        96.61016
2013    16      6       0.6584782       133.085
2013    16      7       0.864958        159.2786
2013    17      0       0.6967823       139.7342
2013    17      1       0.5670153       121.8586
2013    17      2       0.5241221       115.3248
2013    17      3       0.5416351       117.3349
2013    17      4       0.4806604       106.9247
2013    17      5       0.5139339       111.3892
2013    17      6       0.5448265       117.0088
2013    17      7       0.620642        128.4596
2013    18      0       0.5161553       113.0291
2013    18      1       0.513303        112.5021
2013    18      2       0.5408135       117.5997
2013    18      3       0.445771        101.5125
2013    18      4       0.3835475       89.92964
2013    18      5       0.3660267       86.98174
2013    18      6       0.4039996       94.182
2013    18      7       0.5708412       121.0302
2013    19      0       0.7284071       144.0888
2013    19      1       0.7749949       150.25
2013    19      2       0.5196202       115.1617
2013    19      3       0.2426109       63.41852
2013    19      4       0.2195299       58.05841
2013    19      5       0.2071705       55.62136
2013    19      6       0.2218662       58.96785
2013    19      7       0.2502221       64.694
2013    20      0       0.2334972       60.83335
2013    20      1       0.1869322       50.89804
2013    20      2       0.1878061       51.29277
2013    20      3       0.2176647       57.96131
2013    20      4       0.225525        59.40507
2013    20      5       0.2447675       63.13136
2013    20      6       0.2716884       68.66962
2013    20      7       0.3145256       77.19532
2013    21      0       0.3684604       87.22766
2013    21      1       0.3370668       81.92826
2013    21      2       0.332383        81.64076
2013    21      3       0.308262        77.0048
2013    21      4       0.2370051       61.94094
2013    21      5       0.2213841       58.40936
2013    21      6       0.2494185       64.45264
2013    21      7       0.2924474       72.95974
2013    22      0       0.3785396       88.47121
2013    22      1       0.3888306       90.49995
2013    22      2       0.3809028       89.41608
2013    22      3       0.3096919       76.63307
2013    22      4       0.2624879       67.08898
2013    22      5       0.2477839       64.1237
2013    22      6       0.3013661       74.88295
2013    22      7       0.4394307       99.31028
2013    23      0       0.5159739       111.6166
2013    23      1       0.3772907       88.80421
2013    23      2       0.3045027       75.77893
2013    23      3       0.2978629       74.69162
2013    23      4       0.295462        74.27611
2013    23      5       0.3241179       79.99384
2013    23      6       0.3898711       91.75824
2013    23      7       0.560775        119.5522
2013    24      0       0.7997755       151.9353
2013    24      1       0.8714512       160.3946
2013    24      2       0.7345027       145.784
2013    24      3       0.7274982       145.6265
2013    24      4       0.4513812       103.2211
2013    24      5       0.3734609       88.67963
2013    24      6       0.3748698       88.98759
2013    24      7       0.3825924       89.91054
2013    25      0       0.3518891       84.664
2013    25      1       0.4121073       94.94116
2013    25      2       0.6376275       129.4471
2013    25      3       0.584778        123.4531
2013    25      4       0.517165        113.648
2013    25      5       0.478306        107.4468
2013    25      6       0.5783293       123.5781
2013    25      7       0.6695728       137.4103
2013    26      0       0.681311        139.2722
2013    26      1       0.6456723       134.0053
2013    26      2       0.553981        120.6364
2013    26      3       0.4834927       109.0315
2013    26      4       0.44805         102.9657
2013    26      5       0.466067        106.2512
2013    26      6       0.485473        109.9047
2013    26      7       0.5085643       113.9252
2013    27      0       0.5016377       112.856
2013    27      1       0.4877801       110.5797
2013    27      2       0.4952248       112.1184
2013    27      3       0.4725781       108.374
2013    27      4       0.4063221       96.71324
2013    27      5       0.3920364       94.27283
2013    27      6       0.4546851       105.4403
2013    27      7       0.6304293       132.5864
2013    28      0       0.6800938       139.1531
2013    28      1       0.5617253       122.2043
2013    28      2       0.5903887       126.9478
2013    28      3       0.6203231       132.0871
2013    28      4       0.4736216       108.9646
2013    28      5       0.4464203       103.9347
2013    28      6       0.5101718       114.9254
2013    28      7       0.6635302       138.0059
2013    29      0       0.8855466       165.3677
2013    29      1       0.8586813       162.7453
2013    29      2       0.8705199       164.8527
2013    29      3       0.785649        154.8224
2013    29      4       0.6386167       134.587
2013    29      5       0.7264034       145.6649
2013    29      6       0.9187059       168.5311
2013    29      7       0.991311        176.3564
2013    30      0       0.9725445       174.1929
2013    30      1       0.8371945       159.2895
2013    30      2       0.6870973       140.295
2013    30      3       0.5487205       119.9664
2013    30      4       0.5790815       123.6009
2013    30      5       0.7845768       150.0005
2013    30      6       0.8517153       158.7767
2013    30      7       1.035128        178.7654
2014    1       0       0.80924         153.2167
2014    1       1       0.5709282       122.086
2014    1       2       0.4451507       101.46
2014    1       3       0.5309518       113.4199
2014    1       4       0.4573734       103.0152
2014    1       5       0.2694102       68.14996
2014    1       6       0.2896712       72.33397
2014    1       7       0.3609208       85.75012
2014    2       0       0.4076178       94.2631
2014    2       1       0.3882208       90.85779
2014    2       2       0.4399988       100.5366
2014    2       3       0.3543356       85.23175
2014    2       4       0.2391693       62.14858
2014    2       5       0.2349831       61.04252
2014    2       6       0.2870012       71.7121
2014    2       7       0.3632199       86.53932
2014    3       0       0.4290171       98.65889
2014    3       1       0.4629145       104.3
2014    3       2       0.4536851       102.5237
2014    3       3       0.5379391       117.3207
2014    3       4       0.4790107       107.4692
2014    3       5       0.3405813       82.746
2014    3       6       0.3446433       83.90873
2014    3       7       0.3048675       76.65536
2014    4       0       0.2597584       67.4786
2014    4       1       0.1947476       53.12166
2014    4       2       0.1565244       44.0836
2014    4       3       0.195972        53.20408
2014    4       4       0.2014173       54.22105
2014    4       5       0.2196997       58.03701
2014    4       6       0.2884377       72.42341
2014    4       7       0.4130926       95.4912
2014    5       0       0.561116        119.9086
2014    5       1       0.5199711       114.561
2014    5       2       0.4334197       100.1784
2014    5       3       0.5014772       111.2375
2014    5       4       0.4495625       102.0395
2014    5       5       0.4134713       95.41855
2014    5       6       0.4894518       108.1159
2014    5       7       0.7112775       140.0052
2014    6       0       0.781112        149.5282
2014    6       1       0.6723944       136.2055
2014    6       2       0.5377832       116.9948
2014    6       3       0.4635739       104.8367
2014    6       4       0.3991489       92.90227
2014    6       5       0.3600915       85.04348
2014    6       6       0.5353825       114.0287
2014    6       7       0.5652192       119.3771
2014    7       0       0.6020913       124.9767
2014    7       1       0.5192303       113.0618
2014    7       2       0.4582898       103.8544
2014    7       3       0.5532191       119.0659
2014    7       4       0.6102317       125.6357
2014    7       5       0.3736611       88.46085
2014    7       6       0.3917266       92.27006
2014    7       7       0.6187684       128.4509
2014    8       0       0.7082365       141.1069
2014    8       1       0.8908571       163.7701
2014    8       2       0.5961659       125.9014
2014    8       3       0.3784062       89.40566
2014    8       4       0.3767035       88.18885
2014    8       5       0.410932        93.58363
2014    8       6       0.5204271       111.6716
2014    8       7       0.8443197       154.5274
2014    9       0       0.6295018       126.9374
2014    9       1       0.5143416       109.6815
2014    9       2       0.4264338       95.31809
2014    9       3       0.1443419       39.61126
2014    9       4       0.0700245       22.28686
2014    9       5       0.1012712       30.29656
2014    9       6       0.1421955       40.07719
2014    9       7       0.2118118       55.5927
2014    10      0       0.2729123       68.49301
2014    10      1       0.2580302       65.80928
2014    10      2       0.2207814       57.81728
2014    10      3       0.2730885       68.61306
2014    10      4       0.2626058       66.59179
2014    10      5       0.2115791       55.94251
2014    10      6       0.302802        74.5716
2014    10      7       0.5866624       121.7122
2014    11      0       0.3417027       82.66006
2014    11      1       0.6019898       124.7117
2014    11      2       0.4712177       105.249
2014    11      3       0.4542453       101.962
2014    11      4       0.4325621       98.58788
2014    11      5       0.4035723       93.6714
2014    11      6       0.578896        121.4088
2014    11      7       0.7819143       148.4453
2014    12      0       0.4629348       103.7325
2014    12      1       0.4870558       108.0113
2014    12      2       0.8956826       163.0125
2014    12      3       0.8149876       151.8734
2014    12      4       0.5080738       111.5395
2014    12      5       0.3824897       90.38863
2014    12      6       0.5358065       115.7363
2014    12      7       0.600467        125.3903
2014    13      0       0.5826542       123.0233
2014    13      1       0.5371419       116.4075
2014    13      2       0.4921095       109.3747
2014    13      3       0.4786349       107.2146
2014    13      4       0.3953218       92.10748
2014    13      5       0.3047241       75.60832
2014    13      6       0.2818155       71.76874
2014    13      7       0.3425124       83.54957
2014    14      0       0.4106578       95.55684
2014    14      1       0.4811433       107.9009
2014    14      2       0.3925844       92.99042
2014    14      3       0.1852817       50.63225
2014    14      4       0.2066434       55.24785
2014    14      5       0.2596479       66.56513
2014    14      6       0.3611859       86.37018
2014    14      7       0.6253289       127.9667
2014    15      0       0.7615785       145.6262
2014    15      1       0.30536         74.92585
2014    15      2       0.270848        67.99515
2014    15      3       0.2450249       62.26447
2014    15      4       0.2865859       70.14867
2014    15      5       0.3870666       88.69498
2014    15      6       0.4921505       106.3434
2014    15      7       0.4206673       95.33837
2014    16      0       0.4378348       98.68725
2014    16      1       0.4712909       104.4762
2014    16      2       0.2864925       71.05344
2014    16      3       0.2579793       65.53419
2014    16      4       0.2939731       72.94691
2014    16      5       0.3492372       83.73112
2014    16      6       0.391399        91.61806
2014    16      7       0.4588429       103.0334
2014    17      0       0.4662756       103.9308
2014    17      1       0.3944799       91.45139
2014    17      2       0.3264908       78.92557
2014    17      3       0.3189461       77.53889
2014    17      4       0.3074199       75.71736
2014    17      5       0.2916206       72.79885
2014    17      6       0.3707905       88.34894
2014    17      7       0.4835445       107.7865
2014    18      0       0.4902815       108.8062
2014    18      1       0.3906628       92.08864
2014    18      2       0.305077        75.80683
2014    18      3       0.2969163       74.43136
2014    18      4       0.273233        69.54317
2014    18      5       0.2871638       72.02848
2014    18      6       0.4211327       96.74127
2014    18      7       0.5929725       123.321
2014    19      0       0.7640314       146.5007
2014    19      1       0.6764588       135.5759
2014    19      2       0.444433        100.5103
2014    19      3       0.3108557       75.78067
2014    19      4       0.2729527       68.26643
2014    19      5       0.1793972       48.40484
2014    19      6       0.1718803       46.93549
2014    19      7       0.2201317       57.49538
2014    20      0       0.2533096       64.53984
2014    20      1       0.2694451       67.60033
2014    20      2       0.3066105       75.12941
2014    20      3       0.3746506       88.63668
2014    20      4       0.337552        81.73464
2014    20      5       0.2574654       65.66846
2014    20      6       0.2801186       70.52732
2014    20      7       0.3497969       84.34334
2014    21      0       0.4185203       96.93959
2014    21      1       0.4293761       98.79474
2014    21      2       0.3936591       92.4116
2014    21      3       0.3460949       83.54353
2014    21      4       0.3507382       83.85244
2014    21      5       0.4109354       94.30876
2014    21      6       0.4964464       108.9237
2014    21      7       0.7366722       143.5205
2014    22      0       0.7108386       141.088
2014    22      1       0.6558764       133.8291
2014    22      2       0.5691446       121.0433
2014    22      3       0.5478832       117.304
2014    22      4       0.5398087       115.1345
2014    22      5       0.4894499       107.0036
2014    22      6       0.5458789       115.8201
2014    22      7       0.5813177       121.727
2014    23      0       0.6022971       125.5496
2014    23      1       0.6387427       131.5045
2014    23      2       0.924223        166.7853
2014    23      3       0.5499178       118.9195
2014    23      4       0.5288782       115.0674
2014    23      5       0.5128447       112.079
2014    23      6       0.6543725       132.9421
2014    23      7       0.926833        165.832
2014    24      0       0.5973982       125.9178
2014    24      1       0.7614712       147.5436
2014    24      2       0.6756307       137.0149
2014    24      3       0.6930709       138.7761
2014    24      4       0.497818        110.5205
2014    24      5       0.373827        88.95756
2014    24      6       0.4433881       101.4322
2014    24      7       0.6574082       134.2187
2014    25      0       0.8001826       152.9067
2014    25      1       0.9040315       164.6138
2014    25      2       0.7576073       147.9153
2014    25      3       0.6840212       138.0032
2014    25      4       0.527598        115.3435
2014    25      5       0.4686261       105.7834
2014    25      6       0.5193895       113.6311
2014    25      7       0.6094865       126.9531
2014    26      0       0.6118523       127.8532
2014    26      1       0.5706906       122.0951
2014    26      2       0.5090188       112.7358
2014    26      3       0.4239282       98.30495
2014    26      4       0.3109975       76.82598
2014    26      5       0.3136372       77.0427
2014    26      6       0.414858        95.97198
2014    26      7       0.5836416       123.0705
2014    27      0       0.6370223       131.2555
2014    27      1       0.5506145       118.5234
2014    27      2       0.4527416       102.0453
2014    27      3       0.4594081       102.6365
2014    27      4       0.4238954       96.71617
2014    27      5       0.4426033       100.1575
2014    27      6       0.647724        131.3219
2014    27      7       0.841627        155.566
2014    28      0       0.8418352       155.5771
2014    28      1       0.8058642       151.6635
2014    28      2       0.7307781       142.7718
2014    28      3       0.4399601       99.84377
2014    28      4       0.3114779       76.53974
2014    28      5       0.2456177       63.30327
2014    28      6       0.3806617       89.86196
2014    28      7       0.3625154       86.78236
2014    29      0       0.3785237       89.72456
2014    29      1       0.4161743       96.0664
2014    29      2       0.4490413       101.6342
2014    29      3       0.4129249       95.50407
2014    29      4       0.3765318       89.1361
2014    29      5       0.3721279       88.70743
2014    29      6       0.4526919       103.1136
2014    29      7       0.4776633       107.6746
2014    30      0       0.4876085       109.6095
2014    30      1       0.4683135       106.3572
2014    30      2       0.4430531       102.2188
2014    30      3       0.4145797       97.36479
2014    30      4       0.4100337       96.22777
2014    30      5       0.4400162       101.0956
2014    30      6       0.4733712       106.9246
2014    30      7       0.5013955       111.6038
2015    1       0       0.6569165       133.7668
2015    1       1       0.5504291       119.0921
2015    1       2       0.6896886       137.7996
2015    1       3       0.6304347       129.1793
2015    1       4       0.6724179       134.9157
2015    1       5       0.4930633       108.1685
2015    1       6       0.6251816       128.8562
2015    1       7       0.7681447       148.165
2015    2       0       0.7766974       149.5537
2015    2       1       0.6120835       128.356
2015    2       2       0.5009942       111.1383
2015    2       3       0.4036246       94.30007
2015    2       4       0.2662454       67.6164
2015    2       5       0.2684148       68.25456
2015    2       6       0.3173366       78.28829
2015    2       7       0.3788409       89.97303
2015    3       0       0.4050825       94.96752
2015    3       1       0.4129827       96.4001
2015    3       2       0.3635618       87.1294
2015    3       3       0.2882186       72.33581
2015    3       4       0.2751775       69.53045
2015    3       5       0.2698135       68.416
2015    3       6       0.3363808       81.66763
2015    3       7       0.5434222       117.197
2015    4       0       0.6921763       139.1945
2015    4       1       0.61515         128.7732
2015    4       2       0.3672205       87.46259
2015    4       3       0.2727965       68.56326
2015    4       4       0.2590665       65.64917
2015    4       5       0.2268404       59.33265
2015    4       6       0.2758901       69.84571
2015    4       7       0.4062801       94.59842
2015    5       0       0.5009507       110.8217
2015    5       1       0.5080418       111.7596
2015    5       2       0.4333123       99.25522
2015    5       3       0.8185581       154.6036
2015    5       4       0.7524029       146.0845
2015    5       5       0.8020709       151.9804
2015    5       6       1.200133        190.7225
2015    5       7       1.251712        196.4188
2015    6       0       0.9066903       163.8226
2015    6       1       0.9299134       165.7373
2015    6       2       0.8053364       152.5417
2015    6       3       0.5762128       122.1117
2015    6       4       0.5776306       121.8729
2015    6       5       0.5854834       122.7555
2015    6       6       0.8427669       155.2834
2015    6       7       0.7650733       146.5742
2015    7       0       0.634729        129.3009
2015    7       1       0.459747        102.4572
2015    7       2       0.5001261       109.4423
2015    7       3       0.424273        97.6391
2015    7       4       0.3715477       88.26645
2015    7       5       0.3619748       86.34305
2015    7       6       0.5135067       111.6816
2015    7       7       0.6522314       131.8965
2015    8       0       0.8084047       151.6403
2015    8       1       0.5973483       124.728
2015    8       2       0.4987241       109.8637
2015    8       3       0.4244024       97.45838
2015    8       4       0.4150336       95.86373
2015    8       5       0.3987993       93.20243
2015    8       6       0.4538637       103.2814
2015    8       7       0.5683529       122.0019
2015    9       0       0.6878082       139.2023
2015    9       1       0.6492359       134.0762
2015    9       2       0.6048434       127.7601
2015    9       3       0.4972237       111.2754
2015    9       4       0.3689325       88.95395
2015    9       5       0.3676093       88.63659
2015    9       6       0.4737398       107.381
2015    9       7       0.7236313       144.0343
2015    10      0       1.108159        185.186
2015    10      1       0.859231        160.7045
2015    10      2       0.9764793       172.9125
2015    10      3       1.018801        177.1705
2015    10      4       0.9426204       168.8114
2015    10      5       1.066535        180.0918
2015    10      6       1.398877        206.7575
2015    10      7       1.446215        210.6119
2015    11      0       1.124909        186.1695
2015    11      1       0.8223094       155.3668
2015    11      2       0.6616321       134.4752
2015    11      3       0.5899692       124.1113
2015    11      4       0.6393654       130.6983
2015    11      5       0.8369534       155.29
2015    11      6       1.143427        185.8005
2015    11      7       1.189702        190.249
2015    12      0       1.019524        174.9322
2015    12      1       0.9760949       170.3274
2015    12      2       1.057971        179.46
2015    12      3       1.31476         201.5402
2015    12      4       1.236544        194.7709
2015    12      5       0.9830175       171.3826
2015    12      6       0.6614763       134.0733
2015    12      7       0.348445        84.35642
2015    13      0       0.3296871       81.15631
2015    13      1       0.4137215       96.97338
2015    13      2       0.4486419       103.3066
2015    13      3       0.4502262       103.4599
2015    13      4       0.5073754       113.0002
2015    13      5       0.56086         121.3105
2015    13      6       0.6498921       133.9045
2015    13      7       0.6920303       140.0028
2015    14      0       0.7966458       153.2611
2015    14      1       0.9257799       167.2149
2015    14      2       0.8580243       159.7808
2015    14      3       0.6914734       139.1526
2015    14      4       0.6712742       136.8127
2015    14      5       0.68078         137.6467
2015    14      6       0.8121804       152.9651
2015    14      7       0.8408786       155.7722
2015    15      0       0.8201451       154.2793
2015    15      1       0.8320808       156.5357
2015    15      2       0.8231847       155.7152
2015    15      3       0.7641207       148.3469
2015    15      4       0.656884        134.3377
2015    15      5       0.6817434       136.983
2015    15      6       0.7335504       144.0435
2015    15      7       0.8550227       158.9122
2015    16      0       1.190793        191.5817
2015    16      1       0.90235         165.6495
2015    16      2       0.7840167       152.3132
2015    16      3       0.7271121       145.3504
2015    16      4       0.9570226       169.8356
2015    16      5       0.801373        154.0959
2015    16      6       0.7040618       141.7542
2015    16      7       0.810274        155.0979
2015    17      0       0.8040241       154.321
2015    17      1       0.7852087       152.5553
2015    17      2       0.9033903       165.9469
2015    17      3       0.849099        159.8392
2015    17      4       0.6796932       138.5543
2015    17      5       0.512843        114.1738
2015    17      6       0.5783072       124.2036
2015    17      7       0.7244265       144.4195
2015    18      0       0.7929908       153.6404
2015    18      1       0.7001883       142.3336
2015    18      2       0.5424606       119.3814
2015    18      3       0.4656298       106.1498
2015    18      4       0.4537739       103.9917
2015    18      5       0.4616411       105.5595
2015    18      6       0.4859932       109.6787
2015    18      7       0.564836        122.5333
2015    19      0       0.6860816       140.0205
2015    19      1       0.6961419       141.5011
2015    19      2       0.5681307       123.0609
2015    19      3       0.3899186       93.06945
2015    19      4       0.2540652       66.21847
2015    19      5       0.2217515       59.06639
2015    19      6       0.2823232       72.13616
2015    19      7       0.416499        97.75352
2015    20      0       0.5137194       114.6439
2015    20      1       0.5053189       113.6777
2015    20      2       0.4233978       99.37232
2015    20      3       0.3954246       93.83593
2015    20      4       0.3954651       93.62542
2015    20      5       0.4170951       97.45525
2015    20      6       0.4402102       102.0249
2015    20      7       0.5310073       117.6261
2015    21      0       0.624375        131.9272
2015    21      1       0.5576103       121.7502
2015    21      2       0.384882        92.09404
2015    21      3       0.348944        85.30359
2015    21      4       0.287499        73.18017
2015    21      5       0.2778079       71.40562
2015    21      6       0.3710378       90.05522
2015    21      7       0.4356382       102.0214
2015    22      0       0.3691841       90.19856
2015    22      1       0.2939395       75.49736
2015    22      2       0.2422558       64.25122
2015    22      3       0.2618544       68.12709
2015    22      4       0.2188471       58.88971
2015    22      5       0.2321694       61.89869
2015    22      6       0.2880545       73.73764
2015    22      7       0.3778496       91.48278
2015    23      0       0.4479412       104.3022
2015    23      1       0.447179        104.1778
2015    23      2       0.3419708       84.70344
2015    23      3       0.2860452       73.26096
2015    23      4       0.2690003       69.62948
2015    23      5       0.2800297       72.01511
2015    23      6       0.3563294       87.20316
2015    23      7       0.4968627       111.6064
2015    24      0       0.7476865       146.667
2015    24      1       0.6266128       132.0279
2015    24      2       0.5242636       116.7658
2015    24      3       0.5635452       122.275
2015    24      4       0.7887778       152.1187
2015    24      5       0.6077          126.1969
2015    24      6       0.5102056       111.5127
2015    24      7       0.6328564       131.4868
2015    25      0       1.019082        176.3257
2015    25      1       0.7539996       148.2964
2015    25      2       0.5835372       124.898
2015    25      3       0.5957131       125.9254
2015    25      4       0.5974466       126.3578
2015    25      5       0.6200328       129.8856
2015    25      6       0.6027276       127.6511
2015    25      7       0.7793417       150.7031
2015    26      0       0.9606577       171.1335
2015    26      1       0.8279146       157.1826
2015    26      2       0.792995        153.4288
2015    26      3       0.7042545       142.8588
2015    26      4       0.6739356       138.3888
2015    26      5       0.7268335       144.6749
2015    26      6       0.9657062       172.9318
2015    26      7       0.9707259       173.6743
2015    27      0       0.7345038       146.7545
2015    27      1       0.6048016       128.9502
2015    27      2       0.5216576       116.2324
2015    27      3       0.484412        109.931
2015    27      4       0.4679457       106.5756
2015    27      5       0.454297        104.168
2015    27      6       0.4884144       110.2663
2015    27      7       0.6333151       132.6436
2015    28      0       0.6897309       140.4332
2015    28      1       0.6035681       128.6591
2015    28      2       0.5603221       122.35
2015    28      3       0.5526009       120.871
2015    28      4       0.6548843       135.1936
2015    28      5       0.7190815       143.7128
2015    28      6       0.8643787       161.198
2015    28      7       1.062501        182.0351
2015    29      0       1.091789        184.7236
2015    29      1       0.8019559       154.5667
2015    29      2       0.8277835       158.1075
2015    29      3       0.890502        164.7058
2015    29      4       0.9444079       170.2073
2015    29      5       0.9155964       166.9319
2015    29      6       1.135907        188.2637
2015    29      7       1.072888        183.2099
2015    30      0       1.000865        176.5448
2015    30      1       0.7596447       150.3695
2015    30      2       0.7056641       143.8773
2015    30      3       0.6692493       139.0758
2015    30      4       0.5806852       125.7379
2015    30      5       0.5484876       120.7153
2015    30      6       0.7040931       143.4402
2015    30      7       0.92373         169.5892
2016    1       0       0.8717242       157.6895
2016    1       1       0.655636        131.8899
2016    1       2       0.7357035       143.0123
2016    1       3       0.8325726       154.7365
2016    1       4       0.569592        120.1527
2016    1       5       0.457733        102.2054
2016    1       6       0.4919733       108.0235
2016    1       7       0.6343375       128.8558
2016    2       0       0.7493712       144.0976
2016    2       1       0.7236102       141.5727
2016    2       2       0.5632611       119.7198
2016    2       3       0.4273304       97.84568
2016    2       4       0.3144405       76.67071
2016    2       5       0.2762691       69.12761
2016    2       6       0.3098674       76.01731
2016    2       7       0.3914018       91.38119
2016    3       0       0.4212695       96.95723
2016    3       1       0.4075506       94.31269
2016    3       2       0.50243         109.6779
2016    3       3       0.4404765       100.4309
2016    3       4       0.3608797       85.53564
2016    3       5       0.4721321       104.8455
2016    3       6       0.4838745       107.2514
2016    3       7       0.6128824       127.1182
2016    4       0       0.7437372       144.5871
2016    4       1       0.6816261       136.7681
2016    4       2       0.5950316       125.0894
2016    4       3       0.5753603       122.206
2016    4       4       0.4728064       106.2819
2016    4       5       0.3657422       87.3342
2016    4       6       0.3282393       80.43655
2016    4       7       0.356427        86.08714
2016    5       0       0.3765626       89.9355
2016    5       1       0.3908525       92.37739
2016    5       2       0.4270725       98.80701
2016    5       3       0.4671791       105.5521
2016    5       4       0.4418637       101.0767
2016    5       5       0.3956697       92.89027
2016    5       6       0.4047084       94.7789
2016    5       7       0.5591983       119.9039
2016    6       0       0.6794488       137.1185
2016    6       1       0.634889        131.2838
2016    6       2       0.5816537       123.6874
2016    6       3       0.4760161       107.1282
2016    6       4       0.4245986       98.09425
2016    6       5       0.4671303       105.0417
2016    6       6       0.5779609       122.7362
2016    6       7       0.7415441       144.5241
2016    7       0       0.7620113       147.5442
2016    7       1       0.6963856       139.0405
2016    7       2       0.5290655       115.3626
2016    7       3       0.3438398       83.43025
2016    7       4       0.3944942       92.66378
2016    7       5       0.4475245       101.6124
2016    7       6       0.5398588       116.2658
2016    7       7       0.6033857       126.3742
2016    8       0       0.7936949       151.95
2016    8       1       0.7888112       151.5376
2016    8       2       0.5889159       124.5195
2016    8       3       0.5372838       116.1151
2016    8       4       0.5812742       122.9778
2016    8       5       0.6376523       131.0345
2016    8       6       0.7640685       147.1852
2016    8       7       0.9471664       168.0463
2016    9       0       0.9909211       172.7812
2016    9       1       0.8875104       162.0659
2016    9       2       0.7799549       149.6029
2016    9       3       0.6827354       137.9183
2016    9       4       0.6402118       132.3177
2016    9       5       0.6955589       139.6856
2016    9       6       0.6568381       135.0041
2016    9       7       0.6274899       131.4215
2016    10      0       0.7195682       143.6091
2016    10      1       0.6099092       128.9902
2016    10      2       0.4903451       110.5202
2016    10      3       0.4753871       107.1761
2016    10      4       0.482983        108.0048
2016    10      5       0.4739476       106.2032
2016    10      6       0.4739218       106.7518
2016    10      7       0.5280474       115.5795
2016    11      0       0.5976594       125.9734
2016    11      1       0.567992        122.1259
2016    11      2       0.5777874       123.9452
2016    11      3       0.5725087       122.7656
2016    11      4       0.5270185       115.6441
2016    11      5       0.4809247       108.1783
2016    11      6       0.4605604       105.2245
2016    11      7       0.5219832       115.3673
2016    12      0       0.7738198       150.432
2016    12      1       0.9902866       174.3691
2016    12      2       0.7756003       149.133
2016    12      3       0.560962        119.8176
2016    12      4       0.5359446       115.268
2016    12      5       0.5031684       110.6588
2016    12      6       0.6243107       129.4773
2016    12      7       0.9594002       170.0555
2016    13      0       1.143483        187.4014
2016    13      1       0.9395068       168.6702
2016    13      2       0.9979095       173.6541
2016    13      3       0.5818976       124.0341
2016    13      4       0.4952765       110.0291
2016    13      5       0.5220084       113.7451
2016    13      6       0.7106871       140.5866
2016    13      7       0.9810174       172.3558
2016    14      0       0.8245249       155.6779
2016    14      1       0.8362072       156.6257
2016    14      2       0.5268498       113.3051
2016    14      3       0.3166715       76.71859
2016    14      4       0.2534816       64.18739
2016    14      5       0.3061292       74.94588
2016    14      6       0.3582551       85.60208
2016    14      7       0.4013085       93.81159
2016    15      0       0.3910067       92.04409
2016    15      1       0.3937306       92.31037
2016    15      2       0.4142256       96.11839
2016    15      3       0.3500278       84.57363
2016    15      4       0.2444837       63.33596
2016    15      5       0.2097402       55.71525
2016    15      6       0.2504317       64.60797
2016    15      7       0.3091426       76.82756
2016    16      0       0.3642027       87.49865
2016    16      1       0.3539112       85.77328
2016    16      2       0.2396931       63.0608
2016    16      3       0.134099        39.06933
2016    16      4       0.1152654       34.57769
2016    16      5       0.1050619       32.05942
2016    16      6       0.170316        47.86247
2016    16      7       0.2595092       67.24677
2016    17      0       0.3632114       87.37242
2016    17      1       0.4022951       94.29344
2016    17      2       0.3883659       91.81651
2016    17      3       0.3964793       93.37865
2016    17      4       0.3880705       91.69903
2016    17      5       0.3971732       93.08493
2016    17      6       0.4092344       95.63832
2016    17      7       0.5224688       115.1305
2016    18      0       0.5901737       125.3959
2016    18      1       0.5160029       114.35
2016    18      2       0.4589158       105.0325
2016    18      3       0.3251877       80.71018
2016    18      4       0.2772677       71.13181
2016    18      5       0.2753088       70.50934
2016    18      6       0.2558156       66.53961
2016    18      7       0.2760495       71.1493
2016    19      0       0.3723265       90.57076
2016    19      1       0.4900749       111.7123
2016    19      2       0.4314587       101.7452
2016    19      3       0.2902558       74.39235
2016    19      4       0.1926208       52.87124
2016    19      5       0.1673258       46.7902
2016    19      6       0.3626121       87.45194
2016    19      7       0.5434164       118.7366
2016    20      0       0.781466        151.8487
2016    20      1       0.9338705       169.2854
2016    20      2       0.7180325       143.9657
2016    20      3       0.6245598       131.3369
2016    20      4       0.6931182       141.6946
2016    20      5       0.7742138       152.7069
2016    20      6       0.934253        171.6605
2016    20      7       1.155515        192.9823
2016    21      0       1.208196        197.3492
2016    21      1       0.9838476       176.9114
2016    21      2       0.8119164       158.3938
2016    21      3       0.5999763       129.8244
2016    21      4       0.3736995       91.1548
2016    21      5       0.2982854       75.301
2016    21      6       0.4591998       105.5033
2016    21      7       0.6396305       133.7913
2016    22      0       0.7307366       146.341
2016    22      1       0.6662633       138.3798
2016    22      2       0.6369774       134.0363
2016    22      3       0.6990329       141.6181
2016    22      4       0.6277624       131.356
2016    22      5       0.661327        135.661
2016    22      6       0.6657795       136.4241
2016    22      7       0.7900745       152.0658
2016    23      0       0.8779572       163.3028
2016    23      1       0.8328061       158.0457
2016    23      2       0.6769998       138.5
2016    23      3       0.683945        139.0258
2016    23      4       0.4928498       111.1669
2016    23      5       0.4247117       99.50453
2016    23      6       0.6117956       128.9463
2016    23      7       0.9195252       166.4659
2016    24      0       0.9023237       165.6386
2016    24      1       0.7081363       143.7017
2016    24      2       0.7469439       147.7256
2016    24      3       0.7009664       141.2954
2016    24      4       0.5013398       111.3466
2016    24      5       0.4524682       103.6237
2016    24      6       0.5993405       126.2802
2016    24      7       0.8044016       153.6159
2016    25      0       0.8249221       156.779
2016    25      1       0.7748377       150.7955
2016    25      2       0.6547077       135.1638
2016    25      3       0.6044044       127.8792
2016    25      4       0.5603881       120.7421
2016    25      5       0.6131944       128.4233
2016    25      6       0.6570233       134.3752
2016    25      7       0.6794498       137.4989
2016    26      0       0.5765372       123.1817
2016    26      1       0.4466934       102.5822
2016    26      2       0.4262113       98.75164
2016    26      3       0.3128872       77.98012
2016    26      4       0.212413        57.04714
2016    26      5       0.1887927       51.77149
2016    26      6       0.2653257       68.21213
2016    26      7       0.3283022       80.79187
2016    27      0       0.3707128       88.95333
2016    27      1       0.4027639       94.94384
2016    27      2       0.4377066       101.3109
2016    27      3       0.3368883       82.92064
2016    27      4       0.2421787       63.36003
2016    27      5       0.2635828       67.70346
2016    27      6       0.2920708       73.50863
2016    27      7       0.3398503       82.91549
2016    28      0       0.3977444       93.83842
2016    28      1       0.474143        107.2452
2016    28      2       0.5716535       123.2439
2016    28      3       0.5462628       119.8365
2016    28      4       0.4247469       99.33051
2016    28      5       0.3647261       87.7463
2016    28      6       0.4205839       98.04912
2016    28      7       0.5981337       126.3262
2016    29      0       0.6900639       139.5925
2016    29      1       0.6926589       140.1942
2016    29      2       0.799384        153.7512
2016    29      3       0.6794675       139.1053
2016    29      4       0.7356536       145.3941
2016    29      5       0.6126035       128.5373
2016    29      6       0.7751772       149.0491
2016    29      7       0.9595861       170.3034
2016    30      0       0.6772326       138.5425
2016    30      1       0.7031715       142.2014
2016    30      2       0.6887655       139.6215
2016    30      3       0.7339081       144.9298
2016    30      4       0.8067282       153.4417
2016    30      5       0.8718268       161.0987
2016    30      6       1.281702        199.515
2016    30      7       1.353934        204.5619
2017    1       0       0.6089524       126.2763
2017    1       1       0.6083625       126.4375
2017    1       2       0.5504698       117.7593
2017    1       3       0.4974615       109.5588
2017    1       4       0.4283158       97.92359
2017    1       5       0.4070946       94.19193
2017    1       6       0.5500868       117.6943
2017    1       7       0.6992837       138.8827
2017    2       0       0.6886999       137.7444
2017    2       1       0.6626542       134.1928
2017    2       2       0.6325177       130.4968
2017    2       3       0.5677248       121.0964
2017    2       4       0.5631955       120.0296
2017    2       5       0.6398594       130.6879
2017    2       6       0.8325854       154.9784
2017    2       7       0.9911328       172.5488
2017    3       0       0.9595019       168.8724
2017    3       1       0.4881787       108.3299
2017    3       2       0.3509783       84.59323
2017    3       3       0.4523241       102.2478
2017    3       4       0.466583        105.0026
2017    3       5       0.5119338       111.7492
2017    3       6       0.4613538       104.121
2017    3       7       0.4707893       105.9726
2017    4       0       0.5006526       110.8488
2017    4       1       0.4875017       108.6473
2017    4       2       0.4646224       104.8704
2017    4       3       0.4530191       103.2447
2017    4       4       0.3748757       89.63829
2017    4       5       0.3311305       81.22968
2017    4       6       0.4292455       99.40803
2017    4       7       0.6178975       129.2933
2017    5       0       0.7283176       144.2879
2017    5       1       0.7039717       141.3031
2017    5       2       0.6563057       134.9046
2017    5       3       0.5960695       126.4281
2017    5       4       0.5613362       121.1015
2017    5       5       0.5967915       126.0676
2017    5       6       0.7468888       146.2249
2017    5       7       0.7796777       150.1805
2017    6       0       0.7821779       150.5897
2017    6       1       0.6725518       137.3466
2017    6       2       0.8262972       156.1432
2017    6       3       0.6232819       130.2233
2017    6       4       0.5716673       122.251
2017    6       5       0.5765544       122.663
2017    6       6       0.6678674       135.6903
2017    6       7       0.9283739       167.358
2017    7       0       1.088681        183.2413
2017    7       1       0.8532493       159.2544
2017    7       2       0.7875516       151.8648
2017    7       3       0.7013754       140.8826
2017    7       4       0.6446316       133.3506
2017    7       5       0.6225743       129.9221
2017    7       6       0.8359119       157.0059
2017    7       7       0.8566023       159.3694
2017    8       0       0.8479494       159.2238
2017    8       1       0.8472991       159.4523
2017    8       2       0.8133906       155.1756
2017    8       3       0.652446        134.0409
2017    8       4       0.5853003       124.1554
2017    8       5       0.577183        122.9328
2017    8       6       0.6477738       133.7026
2017    8       7       0.7474137       147.1939
2017    9       0       0.6201454       130.3614
2017    9       1       0.4557465       104.5632
2017    9       2       0.3007989       75.45605
2017    9       3       0.1885854       51.37785
2017    9       4       0.1786304       49.09491
2017    9       5       0.2069323       55.52557
2017    9       6       0.2629167       67.47704
2017    9       7       0.3482497       84.67801
2017    10      0       0.3855874       92.22277
2017    10      1       0.3463137       85.24904
2017    10      2       0.322772        80.81391
2017    10      3       0.2434507       64.35884
2017    10      4       0.2193731       58.64365
2017    10      5       0.2323049       61.29344
2017    10      6       0.3148835       78.67975
2017    10      7       0.3971606       94.18647
2017    11      0       0.443402        102.621
2017    11      1       0.3570433       87.38288
2017    11      2       0.219612        58.67575
2017    11      3       0.2980592       74.68169
2017    11      4       0.3712511       89.15697
2017    11      5       0.4022814       94.5359
2017    11      6       0.5229889       114.7066
2017    11      7       0.5869922       125.2006
2017    12      0       0.6407333       133.0821
2017    12      1       0.6285379       131.2013
2017    12      2       0.5218357       115.2037
2017    12      3       0.3497439       85.18553
2017    12      4       0.2865649       72.50936
2017    12      5       0.2935556       73.78144
2017    12      6       0.3869506       92.24282
2017    12      7       0.3126838       77.48564
2017    13      0       0.3009643       75.55589
2017    13      1       0.2619737       67.74285
2017    13      2       0.1868074       51.24597
2017    13      3       0.1244065       36.48415
2017    13      4       0.1138519       33.48751
2017    13      5       0.09296085      28.42245
2017    13      6       0.1889312       50.184
2017    13      7       0.3455872       81.80706
2017    14      0       0.4450905       99.2528
2017    14      1       0.3020463       74.69655
2017    14      2       0.21368         56.65402
2017    14      3       0.2261388       59.16525
2017    14      4       0.2583975       65.97323
2017    14      5       0.2646171       67.16555
2017    14      6       0.3679768       87.16594
2017    14      7       0.4423068       100.463
2017    15      0       0.4564926       102.8617
2017    15      1       0.3844629       90.4143
2017    15      2       0.379316        89.38909
2017    15      3       0.3513464       84.41143
2017    15      4       0.2946987       73.54528
2017    15      5       0.2942471       73.5622
2017    15      6       0.328279        80.29665
2017    15      7       0.4084949       94.83665
2017    16      0       0.4779862       106.5855
2017    16      1       0.4709646       105.2698
2017    16      2       0.4589443       102.7905
2017    16      3       0.4669497       104.3533
2017    16      4       0.4445184       100.5437
2017    16      5       0.4857513       108.0831
2017    16      6       0.4989515       110.5851
2017    16      7       0.55002         119.1607
2017    17      0       0.5605702       120.9332
2017    17      1       0.4961201       110.4552
2017    17      2       0.5224583       114.8617
2017    17      3       0.5040906       111.6175
2017    17      4       0.5809244       123.8602
2017    17      5       0.6769311       137.7474
2017    17      6       0.8935331       163.7133
2017    17      7       1.090186        183.5965
2017    18      0       1.261807        197.5525
2017    18      1       1.037022        179.5842
2017    18      2       0.9733176       172.5572
2017    18      3       1.094047        183.8101
2017    18      4       0.6836069       138.0748
2017    18      5       0.4966159       109.8895
2017    18      6       0.5646814       120.9232
2017    18      7       0.607784        128.0368
2017    19      0       0.625893        130.5283
2017    19      1       0.5925404       125.2936
2017    19      2       0.5789484       123.9985
2017    19      3       0.4153318       97.38875
2017    19      4       0.3331973       81.89189
2017    19      5       0.3608725       86.98612
2017    19      6       0.414433        97.08318
2017    19      7       0.4753277       108.2462
2017    20      0       0.4709598       107.7758
2017    20      1       0.4479879       103.6964
2017    20      2       0.4020183       95.75909
2017    20      3       0.3581804       87.65116
2017    20      4       0.4110616       97.09374
2017    20      5       0.4412354       102.2614
2017    20      6       0.577019        124.4885
2017    20      7       0.7295772       145.7099
2017    21      0       0.6903864       140.7524
2017    21      1       0.6034968       128.8821
2017    21      2       0.7618896       149.8116
2017    21      3       0.7062244       143.0269
2017    21      4       0.5480799       120.4198
2017    21      5       0.4711037       107.606
2017    21      6       0.4752649       108.0332
2017    21      7       0.5508498       119.9358
2017    22      0       0.5799084       124.5873
2017    22      1       0.5828975       125.2659
2017    22      2       0.5605251       120.8167
2017    22      3       0.6025492       127.9584
2017    22      4       0.4603103       105.3242
2017    22      5       0.5057665       111.4966
2017    22      6       0.534852        116.9543
2017    22      7       0.6948027       139.9004
2017    23      0       0.9721304       172.3656
2017    23      1       0.9546237       171.0254
2017    23      2       0.483217        109.2165
2017    23      3       0.4734552       107.6947
2017    23      4       0.838249        158.4528
2017    23      5       0.3682086       88.21845
2017    23      6       0.349712        84.75907
2017    23      7       0.4000437       94.08546
2017    24      0       0.3940662       92.97119
2017    24      1       0.3773143       89.62711
2017    24      2       0.4028227       93.93631
2017    24      3       0.4424483       100.9907
2017    24      4       0.3292074       80.46989
2017    24      5       0.2834054       71.24911
2017    24      6       0.3244139       79.16409
2017    24      7       0.3724285       88.37594
2017    25      0       0.4414336       100.5413
2017    25      1       0.4517051       102.1161
2017    25      2       0.4098464       94.94034
2017    25      3       0.3573474       85.61285
2017    25      4       0.3153313       77.55842
2017    25      5       0.3016614       74.83004
2017    25      6       0.3750949       88.93498
2017    25      7       0.4781147       107.0153
2017    26      0       0.4848358       108.4122
2017    26      1       0.45472         103.6358
2017    26      2       0.4073543       95.55583
2017    26      3       0.3113202       77.47895
2017    26      4       0.2896022       72.6091
2017    26      5       0.3086448       76.29011
2017    26      6       0.3252189       79.75018
2017    26      7       0.3617198       86.80947
2017    27      0       0.4296204       98.78051
2017    27      1       0.4557721       103.6525
2017    27      2       0.5284846       116.2951
2017    27      3       0.4382217       100.2804
2017    27      4       0.3821569       89.93551
2017    27      5       0.5362591       114.9907
2017    27      6       0.4548188       103.3792
2017    27      7       0.4376249       100.4175
2017    28      0       0.288554        72.51591
2017    28      1       0.3138556       77.48303
2017    28      2       0.6449113       132.3712
2017    28      3       0.7083013       141.2366
2017    28      4       0.471178        106.6954
2017    28      5       0.43002         99.34101
2017    28      6       0.6658401       135.0637
2017    28      7       0.7082538       140.8355
2017    29      0       0.8219872       155.0207
2017    29      1       0.774334        149.9743
2017    29      2       0.6133774       128.3199
2017    29      3       0.6010932       126.1199
2017    29      4       0.4811879       108.2629
2017    29      5       0.4859859       108.8125
2017    29      6       0.5777616       122.4165
2017    29      7       0.6647798       134.134
2017    30      0       0.7576467       146.6078
2017    30      1       0.8455932       157.1187
2017    30      2       0.7445733       144.9223
2017    30      3       0.6726818       136.0268
2017    30      4       0.4690003       105.6736
2017    30      5       0.4236324       97.29165
2017    30      6       0.4182651       96.08537
2017    30      7       0.4107163       95.13687
2018    1       0       0.5508411       118.6084
2018    1       1       0.2658025       67.93355
2018    1       2       0.1641636       46.05242
2018    1       3       0.142028        40.61955
2018    1       4       0.1455045       41.58101
2018    1       5       0.1547638       43.68209
2018    1       6       0.2085861       55.93703
2018    1       7       0.2572618       66.06773
2018    2       0       0.2427007       62.98843
2018    2       1       0.2053216       55.17231
2018    2       2       0.2354856       61.86763
2018    2       3       0.1322155       38.31638
2018    2       4       0.09219765      28.38688
2018    2       5       0.09137502      28.05128
2018    2       6       0.1204662       35.12986
2018    2       7       0.1452958       41.10939
2018    3       0       0.1714432       47.21107
2018    3       1       0.19321         52.04093
2018    3       2       0.2664255       67.81002
2018    3       3       0.315882        77.5314
2018    3       4       0.3341405       80.87648
2018    3       5       0.3267882       78.92683
2018    3       6       0.4993101       108.567
2018    3       7       0.7407532       143.4689
2018    4       0       0.5019911       110.3669
2018    4       1       0.5717683       120.2367
2018    4       2       0.5392126       114.247
2018    4       3       0.3920743       90.50536
2018    4       4       0.3555137       84.7348
2018    4       5       0.3240439       79.21319
2018    4       6       0.3939913       92.69507
2018    4       7       0.4357234       100.0778
2018    5       0       0.4438261       101.2098
2018    5       1       0.4022041       94.29465
2018    5       2       0.3720903       89.08212
2018    5       3       0.3575377       86.42642
2018    5       4       0.315162        78.03386
2018    5       5       0.300156        74.79169
2018    5       6       0.3378819       81.94444
2018    5       7       0.436803        99.33757
2018    6       0       0.6069627       125.6624
2018    6       1       0.4915533       109.6626
2018    6       2       0.3963803       93.16519
2018    6       3       0.2881461       72.23313
2018    6       4       0.2802724       70.45159
2018    6       5       0.2918955       72.76237
2018    6       6       0.3528199       84.84129
2018    6       7       0.5570737       119.4338
2018    7       0       0.772151        149.0551
2018    7       1       0.9541418       169.6702
2018    7       2       0.4173117       96.40438
2018    7       3       0.2954561       73.96961
2018    7       4       0.2207358       57.88489
2018    7       5       0.1558831       43.23919
2018    7       6       0.2228488       57.96013
2018    7       7       0.3399856       80.63288
2018    8       0       0.4425552       99.72488
2018    8       1       0.3594769       86.08662
2018    8       2       0.2534609       65.09007
2018    8       3       0.2010406       53.94067
2018    8       4       0.1801662       49.20108
2018    8       5       0.1925671       51.75494
2018    8       6       0.2459727       63.28723
2018    8       7       0.335957        80.48535
2018    9       0       0.4389931       98.40146
2018    9       1       0.4133428       94.82341
2018    9       2       0.3505739       84.34831
2018    9       3       0.2380404       61.8344
2018    9       4       0.1708052       46.90631
2018    9       5       0.1594625       44.34262
2018    9       6       0.2089583       55.67691
2018    9       7       0.2668155       67.92473
2018    10      0       0.3505989       83.39956
2018    10      1       0.3963969       91.56288
2018    10      2       0.3542528       85.18175
2018    10      3       0.2729943       69.52547
2018    10      4       0.2147506       57.16906
2018    10      5       0.174809        48.33978
2018    10      6       0.1846525       50.66793
2018    10      7       0.2316131       60.60765
2018    11      0       0.2573992       65.44139
2018    11      1       0.2713579       68.0441
2018    11      2       0.2798567       70.81076
2018    11      3       0.2395374       62.87447
2018    11      4       0.1245097       36.22177
2018    11      5       0.1181455       34.49774
2018    11      6       0.1485479       41.88347
2018    11      7       0.1778002       48.91995
2018    12      0       0.2305261       60.59704
2018    12      1       0.2309711       60.81315
2018    12      2       0.1831335       50.20244
2018    12      3       0.2142662       57.05623
2018    12      4       0.2198372       58.0555
2018    12      5       0.2643259       67.28312
2018    12      6       0.3205756       78.55066
2018    12      7       0.4136483       95.65411
2018    13      0       0.4828138       107.3784
2018    13      1       0.5856686       124.0191
2018    13      2       0.6386601       132.432
2018    13      3       0.4814703       108.8222
2018    13      4       0.4060253       95.82947
2018    13      5       0.2567749       66.16847
2018    13      6       0.357123        86.4471
2018    13      7       0.4393821       101.1521
2018    14      0       0.5553458       119.4241
2018    14      1       0.5316983       116.3222
2018    14      2       0.4248289       99.14686
2018    14      3       0.3987658       93.80833
2018    14      4       0.4505252       102.7854
2018    14      5       0.4666982       104.9662
2018    14      6       0.6683307       136.0871
2018    14      7       0.6539678       134.9129
2018    15      0       0.5539653       120.0586
2018    15      1       0.6991681       140.8921
2018    15      2       0.5430601       118.968
2018    15      3       0.440241        101.7233
2018    15      4       0.4580721       104.949
2018    15      5       0.5234714       115.7706
2018    15      6       0.4575192       105.0099
2018    15      7       0.6315177       131.4599
2018    16      0       0.8856125       163.5966
2018    16      1       0.9790321       174.944
2018    16      2       0.8979145       166.3777
2018    16      3       0.7995772       154.9676
2018    16      4       0.8364462       158.0945
2018    16      5       0.9523894       169.5164
2018    16      6       1.124298        186.3589
2018    16      7       1.075766        182.5844
2018    17      0       1.299594        200.9715
2018    17      1       1.157579        190.5277
2018    17      2       1.030386        180.1473
2018    17      3       0.9285937       170.1844
2018    17      4       0.8707678       163.6859
2018    17      5       0.949896        171.705
2018    17      6       1.326664        203.8599
2018    17      7       1.44976         212.0972
2018    18      0       1.35834         205.8101
2018    18      1       1.636184        223.2788
2018    18      2       1.364369        205.2579
2018    18      3       1.032187        177.6182
2018    18      4       0.7304541       144.7001
2018    18      5       0.5680743       122.9472
2018    18      6       0.5899087       126.6506
2018    18      7       0.6874547       140.6627
2018    19      0       0.8548146       160.8916
2018    19      1       0.9747703       173.667
2018    19      2       1.048781        181.8087
2018    19      3       0.8507546       161.9463
2018    19      4       0.5243757       116.6675
2018    19      5       0.503205        112.4419
2018    19      6       0.6817591       138.2577
2018    19      7       0.7536412       147.0241
2018    20      0       0.9082247       165.8847
2018    20      1       1.035876        179.1611
2018    20      2       0.6795675       137.4896
2018    20      3       0.6497389       132.968
2018    20      4       0.5352545       116.3659
2018    20      5       0.4941456       109.7225
2018    20      6       0.5901831       124.8453
2018    20      7       0.6613012       134.9627
2018    21      0       0.7032454       140.6128
2018    21      1       0.5892203       124.9568
2018    21      2       0.4958873       110.6084
2018    21      3       0.444892        102.2651
2018    21      4       0.3695471       88.91
2018    21      5       0.2703201       69.24688
2018    21      6       0.4406264       101.2045
2018    21      7       0.5538489       119.6095
2018    22      0       0.6074979       127.4042
2018    22      1       0.555402        119.4898
2018    22      2       0.6317021       130.6814
2018    22      3       0.8136259       154.6362
2018    22      4       0.5948454       126.1712
2018    22      5       0.6151122       127.6105
2018    22      6       0.7504964       144.8884
2018    22      7       0.4278493       98.52492
2018    23      0       0.4799009       107.1061
2018    23      1       0.4508302       102.7887
2018    23      2       0.4701167       106.7358
2018    23      3       0.4590275       104.587
2018    23      4       0.4154076       96.72317
2018    23      5       0.4066496       94.95574
2018    23      6       0.4330803       99.47886
2018    23      7       0.4676636       105.414
2018    24      0       0.5421954       117.1449
2018    24      1       0.719141        142.2881
2018    24      2       1.247683        196.533
2018    24      3       1.146895        188.6659
2018    24      4       0.5691515       121.5074
2018    24      5       0.3560129       85.33803
2018    24      6       0.52107         112.4996
2018    24      7       0.6721435       133.6182
2018    25      0       0.5168602       111.2843
2018    25      1       0.4722166       104.7392
2018    25      2       0.5007663       109.1892
2018    25      3       0.4273374       97.37112
2018    25      4       0.3209324       77.82717
2018    25      5       0.3939792       91.78146
2018    25      6       0.4060651       94.62418
2018    25      7       0.4326976       99.65069
2018    26      0       0.4233478       98.32376
2018    26      1       0.3313597       81.64953
2018    26      2       0.2792341       71.49565
2018    26      3       0.2751857       70.78423
2018    26      4       0.2544279       66.2334
2018    26      5       0.1976558       53.85802
2018    26      6       0.257806        66.81569
2018    26      7       0.3487745       84.95521
2018    27      0       0.4395766       101.0877
2018    27      1       0.4562172       104.1715
2018    27      2       0.4583073       104.7989
2018    27      3       0.5158681       113.9064
2018    27      4       0.4352978       100.7176
2018    27      5       0.4260475       99.02733
2018    27      6       0.4419488       101.9979
2018    27      7       0.5518464       119.3285
2018    28      0       0.753379        146.7615
2018    28      1       0.696811        140.5753
2018    28      2       0.5991038       127.533
2018    28      3       0.4809231       108.2755
2018    28      4       0.2774323       71.01666
2018    28      5       0.1999401       54.51201
2018    28      6       0.2732082       69.8258
2018    28      7       0.401407        93.45425
2018    29      0       0.6038897       125.8706
2018    29      1       0.5743414       122.5083
2018    29      2       0.4585858       104.1232
2018    29      3       0.3960622       93.15274
2018    29      4       0.272545        68.96394
2018    29      5       0.1775818       48.67669
2018    29      6       0.2524096       65.15321
2018    29      7       0.3890054       90.40049
2018    30      0       0.4986452       108.8382
2018    30      1       0.4142204       96.23462
2018    30      2       0.3693861       89.00987
2018    30      3       0.4257947       99.99702
2018    30      4       0.4587612       104.9767
2018    30      5       0.3594187       86.74461
2018    30      6       0.473233        106.4822
2018    30      7       0.8296431       156.0028
