####################################################################################################
# Month: 05May                                                                                     #
# Station: YBG                                                                                     #
# Frequency: 230 GHz                                                                               #
# Columns are: year    day     tau     Tb (K)                                                      #
####################################################################################################
2009    1       0.150078        40.5854325
2009    2       0.13007091      34.93054
2009    3       0.23411894      58.46016125
2009    4       0.27543054      66.5597775
2009    5       0.26073868      64.24100875
2009    6       0.22934459      56.95023
2009    7       0.10194712      29.94008125
2009    8       0.11433819      32.43197375
2009    9       0.15199927      40.8125075
2009    10      0.19099716      49.0885475
2009    11      0.276896        66.03137125
2009    12      0.30069023      70.264015
2009    13      0.27644918      65.7124275
2009    14      0.12128867      33.558375
2009    15      0.1462085       38.6731175
2009    16      0.34405995      78.61286125
2009    17      0.23377554      58.11427125
2009    18      0.08916331      26.52607375
2009    19      0.063329        20.58762875
2009    20      0.17061575      44.88725375
2009    21      0.2569436       63.734925
2009    22      0.38819632      88.066145
2009    23      0.37897059      86.63854625
2009    24      0.28699994      69.6841225
2009    25      0.61408464      123.03866125
2009    26      0.68895871      134.515875
2009    27      0.30535066      72.76730625
2009    28      0.26766632      65.82164875
2009    29      0.30676374      73.2519525
2009    30      0.34243695      80.00976375
2009    31      0.41640686      92.1704525
2010    1       0.25868079      63.3954925
2010    2       0.34748435      80.359075
2010    3       0.34060358      78.92642875
2010    4       0.16692349      44.38816875
2010    5       0.24348939      60.6788425
2010    6       0.39486485      88.5665175
2010    7       0.43712168      95.69789125
2010    8       0.41068281      91.019835
2010    9       0.17128636      45.17000125
2010    10      0.16697491      44.50023375
2010    11      0.16882002      44.4636775
2010    12      0.20155585      51.55394125
2010    13      0.18414851      47.96237875
2010    14      0.16789491      44.41452875
2010    15      0.16629189      43.66330625
2010    16      0.10575646      30.43547
2010    17      0.1619542       43.04325625
2010    18      0.17545522      46.03334
2010    19      0.18719895      49.08633625
2010    20      0.17006214      45.46168625
2010    21      0.20373446      51.31169
2010    22      0.06816207      21.8497225
2010    23      0.2606273       62.7985375
2010    24      0.39703998      88.3962225
2010    25      0.23886011      58.443835
2010    26      0.13696847      37.231365
2010    27      0.23139754      57.31795625
2010    28      0.25842051      62.49116125
2010    29      0.40444522      91.55956125
2010    30      0.35307879      82.2920475
2010    31      0.30921541      73.1278875
2011    1       0.33074452      76.03194375
2011    2       0.29099566      68.67493375
2011    3       0.15313244      40.08380125
2011    4       0.05927342      19.404695
2011    5       0.07435065      23.13986375
2011    6       0.12702921      35.469045
2011    7       0.29650685      71.32592375
2011    8       0.22881174      56.8060875
2011    9       0.25815344      62.9220875
2011    10      0.22496076      56.4827125
2011    11      0.31704068      73.760655
2011    12      0.35570439      81.728595
2011    13      0.35074718      81.724365
2011    14      0.32930125      76.859455
2011    15      0.30193859      71.88971625
2011    16      0.22171521      55.546735
2011    17      0.1321491       36.29211
2011    18      0.2302687       57.34221625
2011    19      0.42809651      93.7262575
2011    20      0.42074244      92.45113625
2011    21      0.2295581       57.88675375
2011    22      0.31355055      74.628855
2011    23      0.33706435      78.1984775
2011    24      0.1661357       43.6018475
2011    25      0.11694789      33.13638875
2011    26      0.16277277      43.1911975
2011    27      0.27529407      67.116715
2011    28      0.45642208      99.49009
2011    29      0.46240021      101.1781775
2011    30      0.46841038      102.375055
2011    31      0.42721872      95.0634125
2012    1       0.10990083      30.89641875
2012    2       0.11396593      31.98054
2012    3       0.15603754      41.22865
2012    4       0.20262905      51.3163775
2012    5       0.25153555      61.1902275
2012    6       0.26687906      64.1380425
2012    7       0.233555        58.04049625
2012    8       0.14428832      39.6390225
2012    9       0.28882671      69.685825
2012    10      0.33245121      77.35019875
2012    11      0.29873305      71.2999075
2012    12      0.29019666      69.38770125
2012    13      0.21102896      53.54992125
2012    14      0.21303182      54.22006125
2012    15      0.1527271       41.32846125
2012    16      0.2066145       52.5408075
2012    17      0.18200348      47.60392125
2012    18      0.15240984      40.6248
2012    19      0.30935894      73.15146
2012    20      0.28809061      70.233695
2012    21      0.19291545      51.098915
2012    22      0.14700271      41.01457625
2012    23      0.13283964      37.67362
2012    24      0.12845038      36.3397625
2012    25      0.13170573      36.77577625
2012    26      0.29111746      71.08017625
2012    27      0.27949708      68.70195
2012    28      0.30586534      73.14267625
2012    29      0.40703569      92.63875
2012    30      0.30260839      73.0584925
2012    31      0.261465        64.43600375
2013    1       0.21990172      55.14647875
2013    2       0.23681131      58.58202875
2013    3       0.123297        34.23748
2013    4       0.22438824      55.2176075
2013    5       0.25423067      61.78154125
2013    6       0.19744064      50.22339125
2013    7       0.1804202       46.8746875
2013    8       0.21001049      53.20258875
2013    9       0.17773139      46.24859625
2013    10      0.17386791      45.5796125
2013    11      0.17492956      45.6147025
2013    12      0.16319607      42.24544375
2013    13      0.19089432      49.52288125
2013    14      0.2142734       54.52182875
2013    15      0.28056235      68.1238275
2013    16      0.30859264      73.0803525
2013    17      0.41614029      92.640875
2013    18      0.33440971      77.2856625
2013    19      0.12127816      34.49315125
2013    20      0.20637199      52.2816925
2013    21      0.26390228      64.49657875
2013    22      0.33663781      78.936585
2013    23      0.30238675      71.72211375
2013    24      0.15742721      42.10839
2013    25      0.15229111      41.2197475
2013    26      0.26946511      66.4483025
2013    27      0.38406082      88.47020875
2013    28      0.51159468      109.36552375
2013    29      0.54266404      114.3711375
2013    30      0.6904653       134.9414625
2013    31      0.62614695      126.6384375
2014    1       0.28698894      68.28603375
2014    2       0.33369321      77.4931725
2014    3       0.25244039      61.6858475
2014    4       0.20298476      52.00198125
2014    5       0.2673878       65.2390075
2014    6       0.33457804      78.16016125
2014    7       0.40378051      90.29501375
2014    8       0.39176142      88.22474125
2014    9       0.37939351      85.50389625
2014    10      0.29993828      70.94712125
2014    11      0.18043089      47.44421375
2014    12      0.19332068      50.09643375
2014    13      0.16455006      44.2570975
2014    14      0.19428958      50.28339125
2014    15      0.19873261      50.90205125
2014    16      0.18184684      47.55624375
2014    17      0.16172392      43.44822375
2014    18      0.24625795      61.243455
2014    19      0.19383185      50.051605
2014    20      0.13522644      37.97172
2014    21      0.15192777      41.9995025
2014    22      0.14021493      38.85061875
2014    23      0.18429196      48.73697125
2014    24      0.27647308      68.04095375
2014    25      0.29554276      70.98331875
2014    26      0.56278465      116.0388775
2014    27      0.63002591      126.6429375
2014    28      0.56550585      116.05188875
2014    29      0.23889304      59.3002925
2014    30      0.2020493       51.26509
2014    31      0.15115698      40.76958875
2015    1       0.26607144      63.73274
2015    2       0.15941722      42.65405875
2015    3       0.13564059      37.45464125
2015    4       0.12070308      33.81152
2015    5       0.10549437      30.1902
2015    6       0.19135372      49.4149225
2015    7       0.11849491      33.280915
2015    8       0.12304208      34.35607
2015    9       0.10846427      31.0007225
2015    10      0.3543566       81.338505
2015    11      0.37556886      84.85973125
2015    12      0.29254802      70.28293875
2015    13      0.2687071       65.5324
2015    14      0.23249176      58.549175
2015    15      0.2588692       63.7863725
2015    16      0.33559244      77.82210375
2015    17      0.27460414      66.343285
2015    18      0.15978873      43.180875
2015    19      0.2207718       56.161855
2015    20      0.20668725      53.24246625
2015    21      0.28080634      68.3765625
2015    22      0.29599069      71.09815875
2015    23      0.26482055      65.03658875
2015    24      0.21336779      54.41705875
2015    25      0.19886798      51.47335
2015    26      0.23744785      59.21901625
2015    27      0.17269792      45.85590875
2015    28      0.15248665      41.43765875
2015    29      0.20493692      52.8132625
2015    30      0.19478341      51.0443
2015    31      0.1421624       39.6782275
2016    1       0.11081961      31.3105425
2016    2       0.10449455      29.96225
2016    3       0.15015516      40.59811375
2016    4       0.25001958      61.780045
2016    5       0.30888649      72.8068525
2016    6       0.308916        72.6449375
2016    7       0.3832225       86.41847875
2016    8       0.20708094      51.69182125
2016    9       0.09319532      27.8752975
2016    10      0.12989401      35.46959625
2016    11      0.18391016      48.4201225
2016    12      0.43287806      95.16136
2016    13      0.45159716      98.3694275
2016    14      0.30834642      72.929095
2016    15      0.32819066      76.29740875
2016    16      0.2512591       61.3675875
2016    17      0.25120029      61.88765
2016    18      0.14007619      38.06109875
2016    19      0.22613096      55.23450375
2016    20      0.35390286      80.85945
2016    21      0.38517355      86.6258475
2016    22      0.11671412      32.51962375
2016    23      0.10978902      31.57368625
2016    24      0.37577665      86.05037375
2016    25      0.43548631      96.075285
2016    26      0.29874889      71.63652125
2016    27      0.38099459      86.18682625
2016    28      0.45825454      98.87958625
2016    29      0.33106785      77.19257875
2016    30      0.29020944      69.6771225
2016    31      0.35530392      81.70223
2017    1       0.14544363      39.46341875
2017    2       0.10510202      30.04884125
2017    3       0.2262147       54.5143475
2017    4       0.22495304      56.12719875
2017    5       0.22121215      55.1860875
2017    6       0.14769341      39.01482625
2017    7       0.0782785       24.02265625
2017    8       0.11056016      31.116205
2017    9       0.15946039      42.80768875
2017    10      0.35536511      81.545945
2017    11      0.19272279      49.8030225
2017    12      0.17585951      45.867655
2017    13      0.33349976      77.10259875
2017    14      0.22268016      55.53343625
2017    15      0.21480535      54.184035
2017    16      0.24807828      61.53173875
2017    17      0.46411954      101.02041
2017    18      0.39323741      88.96289625
2017    19      0.23581458      59.64088875
2017    20      0.29570014      71.01470625
2017    21      0.33665868      78.30304
2017    22      0.44062099      97.2892675
2017    23      0.29816204      72.03307875
2017    24      0.29700454      71.7797
2017    25      0.33619079      77.17717375
2017    26      0.46390638      101.30088625
2017    27      0.49663898      106.75517375
2017    28      0.41075852      92.44432125
2017    29      0.42338534      93.988885
2017    30      0.71565371      137.9267
2017    31      0.33602998      78.51926375
2018    1       0.21439616      53.44461
2018    2       0.2221736       55.05812625
2018    3       0.2339966       56.8567275
2018    4       0.26901315      64.2555875
2018    5       0.18152319      46.86852125
2018    6       0.20061929      50.69662
2018    7       0.21649284      54.51726875
2018    8       0.2026946       51.801295
2018    9       0.1407759       38.6175625
2018    10      0.1749647       45.652545
2018    11      0.12278835      33.95281
2018    12      0.10901053      31.15566375
2018    13      0.0800618       24.836475
2018    14      0.25065876      62.191045
2018    15      0.34962216      80.50527375
2018    16      0.30283164      72.02867875
2018    17      0.40437905      91.15414875
2018    18      0.35479114      82.41285625
2018    19      0.3649296       84.8138925
2018    20      0.3502271       82.45545125
2018    21      0.24305228      61.07272
2018    22      0.41509772      92.79602
2018    23      0.38932683      89.32748875
2018    24      0.23387785      59.762235
2018    25      0.33019836      77.74993
2018    26      0.3026088       73.13339
2018    27      0.31459116      74.34338625
2018    28      0.36795474      83.58484625
2018    29      0.3588416       81.98027875
2018    30      0.43696572      95.93024125
2018    31      0.31714078      75.258595
