####################################################################################################
# Month: 05May                                                                                     #
# Station: YBG                                                                                     #
# Frequency: 230 GHz                                                                               #
# Columns are: year    day     segment         tau     Tb (K)                                      #
####################################################################################################
2009    1       0       0.1634633       43.78232
2009    1       1       0.1608676       43.18822
2009    1       2       0.1957446       50.38935
2009    1       3       0.221731        55.73512
2009    1       4       0.1460109       40.01035
2009    1       5       0.1232776       34.97611
2009    1       6       0.1043225       30.58728
2009    1       7       0.08520648      26.01471
2009    2       0       0.0678035       21.80765
2009    2       1       0.05766231      19.21786
2009    2       2       0.05924554      19.5576
2009    2       3       0.06682944      21.39739
2009    2       4       0.07647279      23.62882
2009    2       5       0.08757244      26.00517
2009    2       6       0.2398834       60.41446
2009    2       7       0.3850979       87.41537
2009    3       0       0.3190638       75.26346
2009    3       1       0.2675484       65.46839
2009    3       2       0.2261743       57.16745
2009    3       3       0.1643615       43.80884
2009    3       4       0.1521769       40.98264
2009    3       5       0.1993255       51.79199
2009    3       6       0.2602541       64.28604
2009    3       7       0.284047        68.91248
2009    4       0       0.2918388       70.47204
2009    4       1       0.4037992       89.48006
2009    4       2       0.2839148       68.51085
2009    4       3       0.2376168       59.37866
2009    4       4       0.2291438       57.56295
2009    4       5       0.2574949       63.14413
2009    4       6       0.2378041       59.59398
2009    4       7       0.2618319       64.33555
2009    5       0       0.2899586       70.10316
2009    5       1       0.3208829       75.4039
2009    5       2       0.2689699       65.80982
2009    5       3       0.2359506       59.1846
2009    5       4       0.2244354       56.87878
2009    5       5       0.212766        54.47016
2009    5       6       0.2652512       65.70685
2009    5       7       0.2676948       66.3708
2009    6       0       0.3078788       73.69809
2009    6       1       0.3596694       82.43951
2009    6       2       0.2980829       71.71783
2009    6       3       0.2728395       66.46407
2009    6       4       0.2327879       58.4581
2009    6       5       0.1707211       45.48273
2009    6       6       0.1121801       32.45169
2009    6       7       0.08059699      24.88982
2009    7       0       0.1034826       30.36526
2009    7       1       0.1466478       40.46453
2009    7       2       0.1484063       40.65904
2009    7       3       0.1018232       30.03562
2009    7       4       0.07719801      24.1324
2009    7       5       0.06829404      21.9357
2009    7       6       0.08831243      26.85091
2009    7       7       0.08141255      25.07719
2009    8       0       0.08875351      26.74018
2009    8       1       0.127132        35.57007
2009    8       2       0.1220979       34.48504
2009    8       3       0.1299038       35.9931
2009    8       4       0.09433818      27.86296
2009    8       5       0.0843782       25.64936
2009    8       6       0.1058665       30.60643
2009    8       7       0.1622354       42.54865
2009    9       0       0.155398        41.58854
2009    9       1       0.1674874       44.26921
2009    9       2       0.1308568       36.25155
2009    9       3       0.08640274      26.06539
2009    9       4       0.1358349       36.876
2009    9       5       0.1814537       47.38136
2009    9       6       0.1701169       45.17115
2009    9       7       0.1884437       48.89686
2009    10      0       0.2123131       53.59332
2009    10      1       0.2295986       57.12887
2009    10      2       0.1882617       48.58203
2009    10      3       0.1458698       39.36617
2009    10      4       0.142332        38.72195
2009    10      5       0.2334074       57.85422
2009    10      6       0.1794635       47.0251
2009    10      7       0.1967312       50.43672
2009    11      0       0.2477207       60.50294
2009    11      1       0.3344963       76.68016
2009    11      2       0.2308163       57.37516
2009    11      3       0.161569        43.13116
2009    11      4       0.2815374       67.19518
2009    11      5       0.3889038       87.44457
2009    11      6       0.331448        76.74591
2009    11      7       0.2386765       59.17589
2009    12      0       0.1934605       49.88457
2009    12      1       0.2568897       62.56106
2009    12      2       0.2846504       67.32799
2009    12      3       0.3815877       85.19159
2009    12      4       0.4716637       101.1941
2009    12      5       0.3581569       81.68637
2009    12      6       0.2736794       66.09443
2009    12      7       0.1854335       48.17201
2009    13      0       0.187873        48.54013
2009    13      1       0.3132243       72.20199
2009    13      2       0.2377919       58.57377
2009    13      3       0.2584649       62.83375
2009    13      4       0.2419097       59.60254
2009    13      5       0.3285298       76.07209
2009    13      6       0.4017259       88.57444
2009    13      7       0.2420739       59.30071
2009    14      0       0.1641975       43.15739
2009    14      1       0.1778377       46.02936
2009    14      2       0.1799802       46.23761
2009    14      3       0.121481        33.79646
2009    14      4       0.09275524      27.32342
2009    14      5       0.08242329      24.94198
2009    14      6       0.07650739      23.60306
2009    14      7       0.07512701      23.37772
2009    15      0       0.06479578      20.84934
2009    15      1       0.06888321      21.72289
2009    15      2       0.08081891      24.48299
2009    15      3       0.09736402      28.32236
2009    15      4       0.1161978       32.67697
2009    15      5       0.2019757       50.96034
2009    15      6       0.2746567       65.77187
2009    15      7       0.2649759       64.59818
2009    16      0       0.3523734       81.21218
2009    16      1       0.418345        91.49031
2009    16      2       0.4537059       96.45687
2009    16      3       0.382382        85.93643
2009    16      4       0.4372142       95.45085
2009    16      5       0.2732305       66.7329
2009    16      6       0.2222485       56.85203
2009    16      7       0.2129801       54.77132
2009    17      0       0.2287356       57.86278
2009    17      1       0.2912644       69.56471
2009    17      2       0.2832257       68.2918
2009    17      3       0.2545228       62.49271
2009    17      4       0.2386711       58.96931
2009    17      5       0.1989414       50.63206
2009    17      6       0.2022135       51.40479
2009    17      7       0.1726298       45.69601
2009    18      0       0.1494398       40.73035
2009    18      1       0.1650162       43.75952
2009    18      2       0.1117677       32.07307
2009    18      3       0.0705401       22.35137
2009    18      4       0.05157391      17.69585
2009    18      5       0.05226328      17.87888
2009    18      6       0.05626244      18.83117
2009    18      7       0.05644308      18.88838
2009    19      0       0.05419875      18.32405
2009    19      1       0.05856775      19.3633
2009    19      2       0.06144449      20.10078
2009    19      3       0.06580772      21.18015
2009    19      4       0.07006142      22.2278
2009    19      5       0.06675017      21.46336
2009    19      6       0.06502121      21.05334
2009    19      7       0.06478051      20.98825
2009    20      0       0.07325465      23.05678
2009    20      1       0.09997189      29.52484
2009    20      2       0.1203611       34.40023
2009    20      3       0.1667481       44.33358
2009    20      4       0.1847761       48.13559
2009    20      5       0.1612564       43.27469
2009    20      6       0.2665478       65.65725
2009    20      7       0.29201         70.71507
2009    21      0       0.2780511       68.11831
2009    21      1       0.2642719       65.45466
2009    21      2       0.2490047       62.40469
2009    21      3       0.2190067       56.38234
2009    21      4       0.203913        53.00107
2009    21      5       0.2183605       55.94088
2009    21      6       0.2861643       69.58529
2009    21      7       0.3367766       78.99216
2009    22      0       0.3646871       84.06112
2009    22      1       0.3968092       89.61174
2009    22      2       0.3793105       86.7756
2009    22      3       0.4449812       97.24796
2009    22      4       0.4867451       104.082
2009    22      5       0.3864561       88.60415
2009    22      6       0.3433668       80.89413
2009    22      7       0.3032146       73.25246
2009    23      0       0.2829111       69.32927
2009    23      1       0.3661942       84.51792
2009    23      2       0.321122        76.60891
2009    23      3       0.3369387       79.75067
2009    23      4       0.3259463       77.69773
2009    23      5       0.463082        101.7024
2009    23      6       0.5480793       114.816
2009    23      7       0.3874911       88.68547
2009    24      0       0.3181903       76.6623
2009    24      1       0.3128583       75.45437
2009    24      2       0.2365874       60.30566
2009    24      3       0.176977        47.62896
2009    24      4       0.1866847       49.37705
2009    24      5       0.2756271       68.22594
2009    24      6       0.354184        83.01137
2009    24      7       0.4348907       96.80733
2009    25      0       0.4224528       93.96439
2009    25      1       0.6504255       128.2441
2009    25      2       0.65252         128.6144
2009    25      3       0.7332625       139.05
2009    25      4       0.7743344       144.7751
2009    25      5       0.5618517       116.5834
2009    25      6       0.5529278       115.6819
2009    25      7       0.5649024       117.396
2009    26      0       0.6902114       134.3266
2009    26      1       0.732519        139.7254
2009    26      2       0.709222        136.6728
2009    26      3       0.6338068       127.62
2009    26      4       0.7633404       144.2237
2009    26      5       0.8147317       151.507
2009    26      6       0.6607123       132.6565
2009    26      7       0.5071261       109.395
2009    27      0       0.5043416       108.6951
2009    27      1       0.4737889       103.6642
2009    27      2       0.3317301       79.19541
2009    27      3       0.2616125       65.47464
2009    27      4       0.2179163       56.49359
2009    27      5       0.2116058       55.01272
2009    27      6       0.2228791       57.51903
2009    27      7       0.218931        56.08376
2009    28      0       0.2621254       65.00298
2009    28      1       0.3003034       72.43547
2009    28      2       0.2709206       66.61712
2009    28      3       0.2010416       52.67318
2009    28      4       0.1847849       49.21385
2009    28      5       0.2452654       61.76107
2009    28      6       0.3221533       76.62802
2009    28      7       0.354736        82.2415
2009    29      0       0.2992272       72.39294
2009    29      1       0.2823721       68.98775
2009    29      2       0.2394159       60.5391
2009    29      3       0.2370929       59.88508
2009    29      4       0.2652645       65.5521
2009    29      5       0.3096179       74.1868
2009    29      6       0.3694036       85.22751
2009    29      7       0.4517158       99.24434
2009    30      0       0.3614463       83.53025
2009    30      1       0.3981574       89.61001
2009    30      2       0.3304361       77.81453
2009    30      3       0.2921931       70.85801
2009    30      4       0.2892348       70.30664
2009    30      5       0.2897433       70.55735
2009    30      6       0.3985867       90.39213
2009    30      7       0.3796979       87.00919
2009    31      0       0.3284873       77.40585
2009    31      1       0.3890271       88.17307
2009    31      2       0.3102766       74.07012
2009    31      3       0.3139523       74.85998
2009    31      4       0.378692        86.5028
2009    31      5       0.5051635       107.2196
2009    31      6       0.5769653       118.1703
2009    31      7       0.5286908       110.9619
2010    1       0       0.161584        43.63185
2010    1       1       0.1666753       44.47709
2010    1       2       0.2193215       55.20222
2010    1       3       0.2669663       65.16821
2010    1       4       0.241184        60.63899
2010    1       5       0.3013154       72.21633
2010    1       6       0.375241        86.28934
2010    1       7       0.3371588       79.53991
2010    2       0       0.3359202       78.89302
2010    2       1       0.4233761       93.40014
2010    2       2       0.3985508       89.30417
2010    2       3       0.3804688       86.58331
2010    2       4       0.3995182       89.96912
2010    2       5       0.3112397       74.26073
2010    2       6       0.2838105       68.83956
2010    2       7       0.2469905       61.62255
2010    3       0       0.2741059       66.62414
2010    3       1       0.328591        76.69508
2010    3       2       0.3975595       88.63
2010    3       3       0.3354475       78.20402
2010    3       4       0.3238661       76.20659
2010    3       5       0.3620017       83.13849
2010    3       6       0.3949084       88.6019
2010    3       7       0.3083485       73.31121
2010    4       0       0.1824005       47.77806
2010    4       1       0.1600419       42.89131
2010    4       2       0.1388901       38.19671
2010    4       3       0.1453517       39.47415
2010    4       4       0.1305935       36.2755
2010    4       5       0.1379217       38.29373
2010    4       6       0.191611        50.09672
2010    4       7       0.2485775       62.09917
2010    5       0       0.2457793       61.63554
2010    5       1       0.2284017       57.81758
2010    5       2       0.237906        59.02691
2010    5       3       0.2580966       62.85773
2010    5       4       0.2350488       58.75722
2010    5       5       0.2579506       64.0414
2010    5       6       0.2720889       66.94385
2010    5       7       0.2126432       54.35051
2010    6       0       0.2582347       64.17678
2010    6       1       0.2863563       69.62222
2010    6       2       0.4136032       91.79425
2010    6       3       0.3657951       84.22099
2010    6       4       0.4481908       98.21614
2010    6       5       0.4237746       94.21326
2010    6       6       0.4878497       104.421
2010    6       7       0.4751144       101.8675
2010    7       0       0.4079521       90.86718
2010    7       1       0.4995487       105.5729
2010    7       2       0.5116836       106.9668
2010    7       3       0.4152976       92.20208
2010    7       4       0.3636674       84.05098
2010    7       5       0.371563        85.37168
2010    7       6       0.4522287       98.59331
2010    7       7       0.4750323       101.9582
2010    8       0       0.3918282       88.44826
2010    8       1       0.4535646       98.95531
2010    8       2       0.4455879       97.32213
2010    8       3       0.4684949       101.495
2010    8       4       0.4810281       103.587
2010    8       5       0.4849522       103.927
2010    8       6       0.3610816       82.80749
2010    8       7       0.198925        51.61649
2010    9       0       0.09233886      27.60879
2010    9       1       0.1511634       41.22553
2010    9       2       0.1631536       43.61563
2010    9       3       0.171918        45.32365
2010    9       4       0.244399        60.17303
2010    9       5       0.2146759       54.46594
2010    9       6       0.1764753       46.59238
2010    9       7       0.1561668       42.35506
2010    10      0       0.1429132       39.40141
2010    10      1       0.1656466       44.35984
2010    10      2       0.1697604       45.22626
2010    10      3       0.1893008       49.11591
2010    10      4       0.163694        43.74444
2010    10      5       0.1457289       39.70834
2010    10      6       0.189454        49.31039
2010    10      7       0.1693014       45.13528
2010    11      0       0.1527673       41.25327
2010    11      1       0.1873723       48.59567
2010    11      2       0.2147871       54.25453
2010    11      3       0.2113492       53.51391
2010    11      4       0.1434473       38.91008
2010    11      5       0.1015554       29.53934
2010    11      6       0.1697555       44.92251
2010    11      7       0.1695261       44.72011
2010    12      0       0.1864163       48.07442
2010    12      1       0.1680831       44.35904
2010    12      2       0.1769098       46.20548
2010    12      3       0.2005051       51.44894
2010    12      4       0.2183074       55.09119
2010    12      5       0.2201352       55.65535
2010    12      6       0.2281459       57.2281
2010    12      7       0.213944        54.36901
2010    13      0       0.1879311       48.95994
2010    13      1       0.2196951       55.21749
2010    13      2       0.2374205       58.8849
2010    13      3       0.2166037       54.785
2010    13      4       0.164566        43.96455
2010    13      5       0.1465333       40.03353
2010    13      6       0.1485119       40.48813
2010    13      7       0.1519265       41.36549
2010    14      0       0.1555697       42.16799
2010    14      1       0.1786931       47.03164
2010    14      2       0.1980747       50.80579
2010    14      3       0.1667556       44.17326
2010    14      4       0.1305744       36.18946
2010    14      5       0.1498554       40.3297
2010    14      6       0.1727257       45.30386
2010    14      7       0.1909107       49.31453
2010    15      0       0.2122989       53.63062
2010    15      1       0.2128755       53.55576
2010    15      2       0.2027279       51.5691
2010    15      3       0.2072798       52.59134
2010    15      4       0.136906        37.59241
2010    15      5       0.1509449       40.45292
2010    15      6       0.1153841       32.56981
2010    15      7       0.09191805      27.34449
2010    16      0       0.09598359      28.40106
2010    16      1       0.09511949      28.17442
2010    16      2       0.1141841       32.27555
2010    16      3       0.152394        40.60805
2010    16      4       0.1132792       32.07186
2010    16      5       0.08509486      25.77193
2010    16      6       0.08064201      24.75764
2010    16      7       0.1093544       31.42325
2010    17      0       0.1370469       37.64796
2010    17      1       0.1518828       40.95189
2010    17      2       0.1463145       39.86414
2010    17      3       0.1858769       47.91707
2010    17      4       0.2574245       62.54069
2010    17      5       0.1767408       46.56389
2010    17      6       0.1338546       37.54667
2010    17      7       0.1064926       31.31374
2010    18      0       0.09301133      28.048
2010    18      1       0.1303278       36.48887
2010    18      2       0.125298        35.45906
2010    18      3       0.1412786       38.95985
2010    18      4       0.1711766       45.13315
2010    18      5       0.1896434       48.99147
2010    18      6       0.2790934       67.86255
2010    18      7       0.2738126       67.32377
2010    19      0       0.2439009       61.12538
2010    19      1       0.2013935       52.22784
2010    19      2       0.1559654       42.39241
2010    19      3       0.1086698       31.75373
2010    19      4       0.1027728       30.32246
2010    19      5       0.2092898       54.30105
2010    19      6       0.2361404       59.95001
2010    19      7       0.239459        60.61781
2010    20      0       0.1972198       51.70476
2010    20      1       0.1778248       47.18213
2010    20      2       0.1555536       42.37042
2010    20      3       0.1466431       40.26304
2010    20      4       0.1693603       44.86247
2010    20      5       0.2126527       54.90334
2010    20      6       0.1538669       42.03614
2010    20      7       0.1473759       40.37119
2010    21      0       0.1929441       50.16572
2010    21      1       0.2667826       64.82574
2010    21      2       0.2716574       65.64725
2010    21      3       0.2903654       69.31551
2010    21      4       0.2993821       71.0688
2010    21      5       0.1554864       41.74343
2010    21      6       0.1006315       29.59455
2010    21      7       0.05262614      18.13252
2010    22      0       0.05238952      18.01187
2010    22      1       0.05512677      18.71797
2010    22      2       0.05847686      19.53799
2010    22      3       0.06782836      21.81809
2010    22      4       0.0759345       23.73484
2010    22      5       0.0838282       25.53851
2010    22      6       0.08048678      24.78194
2010    22      7       0.07122558      22.65657
2010    23      0       0.08791223      26.7966
2010    23      1       0.1318982       36.99927
2010    23      2       0.1891311       49.68729
2010    23      3       0.256261        63.07228
2010    23      4       0.2514792       62.3754
2010    23      5       0.3119397       74.2077
2010    23      6       0.4935369       106.3186
2010    23      7       0.3628601       82.93116
2010    24      0       0.4719611       101.3573
2010    24      1       0.4465528       96.91547
2010    24      2       0.4807459       102.1582
2010    24      3       0.4327491       95.0184
2010    24      4       0.3668111       83.78716
2010    24      5       0.3661908       83.7704
2010    24      6       0.3738454       84.92101
2010    24      7       0.2374636       59.24184
2010    25      0       0.1698066       44.99604
2010    25      1       0.2312089       58.00178
2010    25      2       0.2261666       56.68811
2010    25      3       0.2648862       64.45285
2010    25      4       0.3751018       84.89603
2010    25      5       0.3648249       82.86903
2010    25      6       0.1671439       43.96588
2010    25      7       0.111742        31.68096
2010    26      0       0.08892542      26.52901
2010    26      1       0.09435282      27.88496
2010    26      2       0.1068646       30.85365
2010    26      3       0.1630174       43.0257
2010    26      4       0.1974748       50.27398
2010    26      5       0.1566718       41.7525
2010    26      6       0.1476515       39.53236
2010    26      7       0.1407894       37.99876
2010    27      0       0.1617859       42.54986
2010    27      1       0.204153        51.40602
2010    27      2       0.2628887       63.29148
2010    27      3       0.2891401       68.6156
2010    27      4       0.2446397       60.42018
2010    27      5       0.2545828       62.15773
2010    27      6       0.2275008       57.06624
2010    27      7       0.2064893       53.03654
2010    28      0       0.192161        50.27042
2010    28      1       0.1701681       45.52028
2010    28      2       0.1526982       41.75149
2010    28      3       0.1717214       45.77156
2010    28      4       0.2040577       52.76265
2010    28      5       0.2823595       68.58558
2010    28      6       0.3228383       77.14891
2010    28      7       0.5713599       118.1184
2010    29      0       0.5223711       110.8455
2010    29      1       0.4351432       96.52603
2010    29      2       0.3778265       86.65618
2010    29      3       0.3563988       83.48264
2010    29      4       0.3935381       89.9286
2010    29      5       0.3660776       85.58861
2010    29      6       0.3969323       90.73549
2010    29      7       0.3872742       88.71344
2010    30      0       0.346557        81.02923
2010    30      1       0.4401361       97.21288
2010    30      2       0.3723782       85.75265
2010    30      3       0.3500655       81.77417
2010    30      4       0.3579335       83.43516
2010    30      5       0.3463813       81.81962
2010    30      6       0.3288625       78.37274
2010    30      7       0.2823162       68.93993
2010    31      0       0.3003403       71.89103
2010    31      1       0.4287422       94.30859
2010    31      2       0.3568934       82.39572
2010    31      3       0.3075847       73.39905
2010    31      4       0.2517893       62.22484
2010    31      5       0.2770958       67.32102
2010    31      6       0.3018595       71.96714
2010    31      7       0.2494181       61.51571
2011    1       0       0.2984331       70.57365
2011    1       1       0.4720678       99.90206
2011    1       2       0.4100831       89.84721
2011    1       3       0.2929229       69.57932
2011    1       4       0.3341918       77.44918
2011    1       5       0.339413        78.21033
2011    1       6       0.2289596       57.47076
2011    1       7       0.2698849       65.22304
2011    2       0       0.2408495       59.45216
2011    2       1       0.2193835       55.06604
2011    2       2       0.25203         61.49882
2011    2       3       0.27685         66.54645
2011    2       4       0.3345789       77.37456
2011    2       5       0.3648288       82.45366
2011    2       6       0.3925229       86.79794
2011    2       7       0.2469217       60.20984
2011    3       0       0.1894346       48.5552
2011    3       1       0.2165605       53.72158
2011    3       2       0.2441578       59.12203
2011    3       3       0.215521        53.57439
2011    3       4       0.1405386       38.05513
2011    3       5       0.08436498      25.28763
2011    3       6       0.0723972       22.3972
2011    3       7       0.06208486      19.95725
2011    4       0       0.05610964      18.47206
2011    4       1       0.0545395       18.21839
2011    4       2       0.05528797      18.4493
2011    4       3       0.06197114      20.11162
2011    4       4       0.06788267      21.51598
2011    4       5       0.06476319      20.74622
2011    4       6       0.05735437      18.99093
2011    4       7       0.05627886      18.73306
2011    5       0       0.05376411      18.15396
2011    5       1       0.05416832      18.27505
2011    5       2       0.06009101      19.7493
2011    5       3       0.06867416      21.81076
2011    5       4       0.08614888      25.96377
2011    5       5       0.09599222      28.29575
2011    5       6       0.09023714      26.95979
2011    5       7       0.08572937      25.91053
2011    6       0       0.08342244      25.40908
2011    6       1       0.08511898      25.8785
2011    6       2       0.09512354      28.30717
2011    6       3       0.1274783       35.52848
2011    6       4       0.1359724       37.58726
2011    6       5       0.1516808       40.98567
2011    6       6       0.1493701       40.60284
2011    6       7       0.1880671       49.45336
2011    7       0       0.2171236       55.87613
2011    7       1       0.3225257       76.17175
2011    7       2       0.3620094       83.44925
2011    7       3       0.3616423       83.79074
2011    7       4       0.3224768       76.60868
2011    7       5       0.2565299       63.84772
2011    7       6       0.2567936       63.84955
2011    7       7       0.2729535       67.01357
2011    8       0       0.3620115       83.77863
2011    8       1       0.4200326       92.87446
2011    8       2       0.2569933       63.53337
2011    8       3       0.151753        41.55927
2011    8       4       0.1334252       37.4103
2011    8       5       0.1525012       41.72592
2011    8       6       0.170591        45.52369
2011    8       7       0.1831861       48.04306
2011    9       0       0.2267996       57.01594
2011    9       1       0.2913098       69.58458
2011    9       2       0.3103582       72.95756
2011    9       3       0.2913228       69.66266
2011    9       4       0.2865604       68.5073
2011    9       5       0.2380561       59.05961
2011    9       6       0.227589        57.09113
2011    9       7       0.1932316       49.49792
2011    10      0       0.1957583       50.53502
2011    10      1       0.1814369       47.5479
2011    10      2       0.2585584       62.74771
2011    10      3       0.2855711       68.30779
2011    10      4       0.2459188       60.95062
2011    10      5       0.2237756       56.52684
2011    10      6       0.2122077       54.24821
2011    10      7       0.1964593       50.99761
2011    11      0       0.1822943       47.7525
2011    11      1       0.2586066       63.31316
2011    11      2       0.2637799       64.3469
2011    11      3       0.2964186       70.49649
2011    11      4       0.2923162       70.06931
2011    11      5       0.3042913       72.46803
2011    11      6       0.4199948       92.64455
2011    11      7       0.5186237       108.9943
2011    12      0       0.5116836       108.048
2011    12      1       0.4592485       99.75804
2011    12      2       0.3863911       87.29985
2011    12      3       0.295152        71.26694
2011    12      4       0.2816529       68.65172
2011    12      5       0.3219054       76.30528
2011    12      6       0.3008322       72.65993
2011    12      7       0.2887694       69.839
2011    13      0       0.3038001       73.16384
2011    13      1       0.3098569       74.22094
2011    13      2       0.3520447       81.76214
2011    13      3       0.345494        80.59637
2011    13      4       0.3586369       82.99487
2011    13      5       0.3927206       89.17928
2011    13      6       0.350555        82.0701
2011    13      7       0.3928692       89.80738
2011    14      0       0.4734587       102.6608
2011    14      1       0.4496362       98.60694
2011    14      2       0.3699664       85.18176
2011    14      3       0.2271841       58.12876
2011    14      4       0.2117517       54.22789
2011    14      5       0.2642573       64.79624
2011    14      6       0.3211706       75.95612
2011    14      7       0.316985        75.31713
2011    15      0       0.2911659       70.38147
2011    15      1       0.3218322       75.84154
2011    15      2       0.2971741       71.23671
2011    15      3       0.3157471       74.74526
2011    15      4       0.3570406       82.02319
2011    15      5       0.3223242       75.5664
2011    15      6       0.2542541       62.66266
2011    15      7       0.2559705       62.6605
2011    16      0       0.246377        60.6594
2011    16      1       0.2263359       56.76951
2011    16      2       0.2483205       61.15848
2011    16      3       0.2644163       64.41226
2011    16      4       0.2404573       59.54466
2011    16      5       0.2090087       52.82387
2011    16      6       0.1748884       45.65623
2011    16      7       0.1639176       43.34947
2011    17      0       0.1404476       38.23588
2011    17      1       0.1224105       34.07955
2011    17      2       0.1216038       33.75781
2011    17      3       0.1322772       36.23146
2011    17      4       0.1228356       34.37134
2011    17      5       0.1225065       34.27742
2011    17      6       0.1301513       35.81769
2011    17      7       0.1649603       43.56573
2011    18      0       0.1749433       46.05434
2011    18      1       0.2175686       54.82334
2011    18      2       0.2265113       56.64719
2011    18      3       0.2318009       57.73188
2011    18      4       0.2223232       55.97272
2011    18      5       0.2283485       57.16113
2011    18      6       0.2579271       62.80396
2011    18      7       0.2827267       67.54317
2011    19      0       0.289622        69.04927
2011    19      1       0.4414276       95.41156
2011    19      2       0.4085089       90.27088
2011    19      3       0.43781         95.33209
2011    19      4       0.4846749       103.1831
2011    19      5       0.429962        94.79476
2011    19      6       0.4652296       100.8479
2011    19      7       0.4675371       100.9205
2011    20      0       0.3902042       88.08448
2011    20      1       0.5485215       112.7476
2011    20      2       0.4611386       99.59278
2011    20      3       0.4616756       100.1322
2011    20      4       0.4429023       97.45753
2011    20      5       0.4552174       99.95191
2011    20      6       0.4278083       94.73135
2011    20      7       0.1784716       46.91124
2011    21      0       0.1928568       50.23647
2011    21      1       0.2211338       56.22898
2011    21      2       0.2071824       53.4417
2011    21      3       0.2338389       58.56482
2011    21      4       0.2652116       64.82106
2011    21      5       0.2481841       61.69436
2011    21      6       0.2236935       57.001
2011    21      7       0.2443637       61.10564
2011    22      0       0.2547438       63.13788
2011    22      1       0.3231222       76.32156
2011    22      2       0.3881684       88.03456
2011    22      3       0.333575        78.71122
2011    22      4       0.3010578       72.58459
2011    22      5       0.3596294       83.61804
2011    22      6       0.2939473       71.35039
2011    22      7       0.2541605       63.2726
2011    23      0       0.2338881       59.1308
2011    23      1       0.2852427       69.53763
2011    23      2       0.3183961       75.40735
2011    23      3       0.3135771       74.51624
2011    23      4       0.3498617       81.36194
2011    23      5       0.4763797       102.7676
2011    23      6       0.4387128       95.66863
2011    23      7       0.2804566       67.19763
2011    24      0       0.2162934       54.38363
2011    24      1       0.2188947       54.73695
2011    24      2       0.2183841       54.62896
2011    24      3       0.2186232       54.78595
2011    24      4       0.1742399       45.9319
2011    24      5       0.1265926       35.58412
2011    24      6       0.08202338      25.39827
2011    24      7       0.07403431      23.365
2011    25      0       0.06985413      22.34782
2011    25      1       0.07737535      24.18568
2011    25      2       0.09105233      27.48905
2011    25      3       0.1324013       36.65408
2011    25      4       0.2140042       53.82886
2011    25      5       0.1500986       41.07869
2011    25      6       0.1097221       31.97423
2011    25      7       0.09107514      27.5327
2011    26      0       0.08637499      26.36217
2011    26      1       0.09642644      28.66846
2011    26      2       0.1179926       33.63555
2011    26      3       0.1550767       41.81331
2011    26      4       0.1750059       46.20249
2011    26      5       0.2101462       53.28923
2011    26      6       0.2147511       54.28935
2011    26      7       0.2464082       61.26902
2011    27      0       0.2840161       68.85107
2011    27      1       0.3307311       76.82177
2011    27      2       0.2665779       65.19207
2011    27      3       0.2465087       61.41772
2011    27      4       0.2890639       69.54216
2011    27      5       0.2542822       63.40541
2011    27      6       0.2613413       64.98278
2011    27      7       0.2698314       66.72074
2011    28      0       0.2852288       69.76431
2011    28      1       0.4296383       95.33833
2011    28      2       0.5404598       112.5109
2011    28      3       0.5405459       112.6566
2011    28      4       0.436173        96.65001
2011    28      5       0.3860835       88.62117
2011    28      6       0.4881507       105.6923
2011    28      7       0.5450966       114.6871
2011    29      0       0.5692597       117.7977
2011    29      1       0.4482957       98.78517
2011    29      2       0.4482345       98.59401
2011    29      3       0.4543694       99.57894
2011    29      4       0.4535543       99.86272
2011    29      5       0.3897022       89.54924
2011    29      6       0.4874667       105.785
2011    29      7       0.4483192       99.47264
2011    30      0       0.4436118       98.6235
2011    30      1       0.4703002       102.4967
2011    30      2       0.4166174       94.26544
2011    30      3       0.4065911       92.82
2011    30      4       0.4571602       100.2747
2011    30      5       0.4824439       104.7431
2011    30      6       0.4955927       107.0653
2011    30      7       0.5749657       118.7117
2011    31      0       0.448246        98.56422
2011    31      1       0.4998366       106.734
2011    31      2       0.4258876       94.92217
2011    31      3       0.4387763       97.09881
2011    31      4       0.4556021       100.1046
2011    31      5       0.399239        90.8609
2011    31      6       0.4384535       97.6143
2011    31      7       0.3117087       74.6083
2012    1       0       0.1799624       46.59388
2012    1       1       0.2033699       51.26599
2012    1       2       0.1035976       29.86692
2012    1       3       0.05978484      19.55699
2012    1       4       0.0587842       19.23751
2012    1       5       0.06499911      20.6879
2012    1       6       0.09643038      28.20889
2012    1       7       0.1122782       31.75327
2012    2       0       0.1186994       33.08085
2012    2       1       0.1032336       29.67392
2012    2       2       0.1031523       29.62832
2012    2       3       0.08950561      26.50833
2012    2       4       0.08275821      24.92648
2012    2       5       0.09607971      27.99071
2012    2       6       0.1502366       40.10722
2012    2       7       0.168062        43.92849
2012    3       0       0.1735449       45.07383
2012    3       1       0.1780023       46.00614
2012    3       2       0.1592238       42.01772
2012    3       3       0.1329819       36.31718
2012    3       4       0.1155141       32.43347
2012    3       5       0.117319        32.7683
2012    3       6       0.1911985       48.69041
2012    3       7       0.1805158       46.52215
2012    4       0       0.2243454       55.50099
2012    4       1       0.2416334       58.96356
2012    4       2       0.1831589       47.35604
2012    4       3       0.1580668       42.05266
2012    4       4       0.1595159       42.41334
2012    4       5       0.1826841       47.48849
2012    4       6       0.2133464       53.88788
2012    4       7       0.2582815       62.86806
2012    5       0       0.2459506       60.29262
2012    5       1       0.2588923       62.73378
2012    5       2       0.2155361       54.1552
2012    5       3       0.2042526       51.78177
2012    5       4       0.2051774       52.03672
2012    5       5       0.2885484       68.4305
2012    5       6       0.3086558       72.16708
2012    5       7       0.2852712       67.92415
2012    6       0       0.2836817       67.71124
2012    6       1       0.2602217       62.77784
2012    6       2       0.2394791       58.71132
2012    6       3       0.2100732       52.97181
2012    6       4       0.224205        55.99218
2012    6       5       0.2660628       64.20021
2012    6       6       0.3333579       76.77624
2012    6       7       0.3179511       73.9635
2012    7       0       0.2377419       58.66051
2012    7       1       0.2863051       68.34474
2012    7       2       0.2722455       65.70683
2012    7       3       0.2720279       65.49895
2012    7       4       0.2620902       64.07247
2012    7       5       0.205345        52.83969
2012    7       6       0.1757075       46.60053
2012    7       7       0.1569769       42.60025
2012    8       0       0.1511093       41.25621
2012    8       1       0.1443443       39.62497
2012    8       2       0.1485359       40.48809
2012    8       3       0.1393644       38.41926
2012    8       4       0.1296572       36.28317
2012    8       5       0.130788        36.4798
2012    8       6       0.1335723       37.25926
2012    8       7       0.1769352       47.30142
2012    9       0       0.2434432       61.40067
2012    9       1       0.2233649       57.22366
2012    9       2       0.2351483       59.48916
2012    9       3       0.2719236       66.47152
2012    9       4       0.3323039       77.65084
2012    9       5       0.3765736       85.87055
2012    9       6       0.3509777       81.54572
2012    9       7       0.2768785       67.83448
2012    10      0       0.2504234       62.4689
2012    10      1       0.2347136       58.94898
2012    10      2       0.2733032       66.59093
2012    10      3       0.3037742       72.53211
2012    10      4       0.3847621       87.19332
2012    10      5       0.4870229       104.1301
2012    10      6       0.3965552       89.4883
2012    10      7       0.3290551       77.44895
2012    11      0       0.291016        70.29798
2012    11      1       0.3530485       81.09518
2012    11      2       0.4092906       90.44039
2012    11      3       0.3401718       79.18985
2012    11      4       0.2531017       63.32457
2012    11      5       0.2433891       61.38251
2012    11      6       0.2496107       62.49585
2012    11      7       0.250236        62.17293
2012    12      0       0.2579769       63.58875
2012    12      1       0.3095699       73.47825
2012    12      2       0.4010109       88.56233
2012    12      3       0.2835955       68.38246
2012    12      4       0.2778991       67.47387
2012    12      5       0.3018974       71.80025
2012    12      6       0.2633295       64.69233
2012    12      7       0.2262941       57.12337
2012    13      0       0.2272873       57.24039
2012    13      1       0.3380103       78.26531
2012    13      2       0.2504225       61.89171
2012    13      3       0.2144382       54.78449
2012    13      4       0.2023778       52.08852
2012    13      5       0.1415441       39.16033
2012    13      6       0.1509644       41.24105
2012    13      7       0.1631871       43.72757
2012    14      0       0.1567584       42.20769
2012    14      1       0.1881461       49.01821
2012    14      2       0.228743        57.54771
2012    14      3       0.2445843       60.9047
2012    14      4       0.254598        62.87018
2012    14      5       0.2426223       60.41185
2012    14      6       0.2121073       54.16136
2012    14      7       0.1766952       46.63879
2012    15      0       0.1964896       50.75065
2012    15      1       0.209956        53.52797
2012    15      2       0.1925183       50.10332
2012    15      3       0.1511906       41.28818
2012    15      4       0.1239418       35.20152
2012    15      5       0.115467        33.28659
2012    15      6       0.1166079       33.41221
2012    15      7       0.1156456       33.05725
2012    16      0       0.1253004       35.24648
2012    16      1       0.1734801       45.86161
2012    16      2       0.1902739       49.44799
2012    16      3       0.2036629       52.12691
2012    16      4       0.2064762       52.62005
2012    16      5       0.2463697       60.75519
2012    16      6       0.2868331       68.70199
2012    16      7       0.2205197       55.56624
2012    17      0       0.1805939       47.19452
2012    17      1       0.1724808       45.80664
2012    17      2       0.2043466       52.25918
2012    17      3       0.2208141       55.80652
2012    17      4       0.2180208       55.28846
2012    17      5       0.1899056       49.41933
2012    17      6       0.1451412       39.82647
2012    17      7       0.1247248       35.23025
2012    18      0       0.1062153       31.07095
2012    18      1       0.09596956      28.67911
2012    18      2       0.09379335      28.16926
2012    18      3       0.1068405       31.15902
2012    18      4       0.1174181       33.5523
2012    18      5       0.1220757       34.54293
2012    18      6       0.1804677       47.98028
2012    18      7       0.3964985       89.84455
2012    19      0       0.4636438       100.5041
2012    19      1       0.4147182       91.81855
2012    19      2       0.2552535       63.46838
2012    19      3       0.1867771       49.39179
2012    19      4       0.2261287       57.36051
2012    19      5       0.2854985       69.87873
2012    19      6       0.3009825       72.7449
2012    19      7       0.3418692       80.04472
2012    20      0       0.2615512       64.79394
2012    20      1       0.2802358       68.21781
2012    20      2       0.3187324       75.70154
2012    20      3       0.2952906       71.77437
2012    20      4       0.3211942       76.70847
2012    20      5       0.3024839       73.65769
2012    20      6       0.2402412       61.36752
2012    20      7       0.2849956       69.64822
2012    21      0       0.2520085       63.18682
2012    21      1       0.1968815       51.67683
2012    21      2       0.175939        47.45144
2012    21      3       0.1892555       50.32341
2012    21      4       0.1748306       47.26818
2012    21      5       0.1553204       43.14798
2012    21      6       0.2053869       54.21658
2012    21      7       0.1937012       51.52008
2012    22      0       0.1788851       48.24115
2012    22      1       0.1616679       44.3218
2012    22      2       0.1476714       41.27131
2012    22      3       0.1440603       40.38451
2012    22      4       0.12969         37.04776
2012    22      5       0.1416071       39.81268
2012    22      6       0.1454714       40.71643
2012    22      7       0.1269685       36.32097
2012    23      0       0.1551044       42.79474
2012    23      1       0.1649213       44.83332
2012    23      2       0.1525544       42.32349
2012    23      3       0.1293609       37.02807
2012    23      4       0.11489         33.57843
2012    23      5       0.105286        31.30777
2012    23      6       0.1303222       37.18491
2012    23      7       0.1102779       32.33823
2012    24      0       0.1142453       33.22195
2012    24      1       0.131695        37.26983
2012    24      2       0.1329834       37.72249
2012    24      3       0.1448433       40.50895
2012    24      4       0.1473365       40.77791
2012    24      5       0.1500496       40.92596
2012    24      6       0.1162924       33.17371
2012    24      7       0.09015753      27.1173
2012    25      0       0.0814517       25.01621
2012    25      1       0.08642594      26.21699
2012    25      2       0.09777298      29.07484
2012    25      3       0.1191957       34.2092
2012    25      4       0.1378473       38.49006
2012    25      5       0.1596028       43.1631
2012    25      6       0.1562447       42.45641
2012    25      7       0.2151047       55.5794
2012    26      0       0.2932229       71.81762
2012    26      1       0.3108233       74.71512
2012    26      2       0.2586162       64.79607
2012    26      3       0.2517854       63.18041
2012    26      4       0.2741325       67.2654
2012    26      5       0.3011759       72.73843
2012    26      6       0.3357178       80.10504
2012    26      7       0.3034657       74.02332
2012    27      0       0.2449868       62.26963
2012    27      1       0.2060549       53.97818
2012    27      2       0.1956986       51.80964
2012    27      3       0.2795468       68.56001
2012    27      4       0.3018562       73.12206
2012    27      5       0.3473397       82.29957
2012    27      6       0.382901        88.64589
2012    27      7       0.2775926       68.93062
2012    28      0       0.2046647       53.92385
2012    28      1       0.1945114       51.41864
2012    28      2       0.1972312       52.03358
2012    28      3       0.2612105       64.93109
2012    28      4       0.3359322       79.35057
2012    28      5       0.3953625       90.52255
2012    28      6       0.4366246       97.72605
2012    28      7       0.4213856       95.23508
2012    29      0       0.3841924       89.11756
2012    29      1       0.4268509       96.18637
2012    29      2       0.44334         98.3956
2012    29      3       0.4240833       95.02633
2012    29      4       0.3899631       89.23397
2012    29      5       0.4024696       91.96483
2012    29      6       0.3921538       90.52318
2012    29      7       0.3932324       90.66216
2012    30      0       0.3626673       85.07285
2012    30      1       0.4123388       93.62326
2012    30      2       0.4015678       91.53756
2012    30      3       0.3054741       74.31034
2012    30      4       0.2311122       59.72594
2012    30      5       0.2394921       61.25965
2012    30      6       0.2554054       64.11509
2012    30      7       0.2128094       54.82325
2012    31      0       0.201243        52.36074
2012    31      1       0.2264565       57.52895
2012    31      2       0.277007        67.65053
2012    31      3       0.30745         73.53064
2012    31      4       0.2993194       72.07867
2012    31      5       0.2673993       65.79164
2012    31      6       0.2591917       63.64718
2012    31      7       0.2536531       62.89968
2013    1       0       0.1986897       51.52792
2013    1       1       0.1944951       50.80733
2013    1       2       0.1717268       45.80635
2013    1       3       0.1777284       46.46778
2013    1       4       0.1481283       40.32114
2013    1       5       0.2470437       60.65715
2013    1       6       0.3894489       87.28412
2013    1       7       0.2319529       58.30004
2013    2       0       0.1958637       50.9569
2013    2       1       0.1875528       49.09668
2013    2       2       0.1849731       48.16434
2013    2       3       0.2146338       54.15813
2013    2       4       0.2452456       60.32485
2013    2       5       0.2651885       64.34688
2013    2       6       0.3066276       71.9795
2013    2       7       0.2944054       69.62895
2013    3       0       0.1979453       50.71657
2013    3       1       0.1563564       42.04756
2013    3       2       0.08104169      24.82236
2013    3       3       0.06871628      21.64789
2013    3       4       0.08293582      24.97716
2013    3       5       0.1420938       38.38784
2013    3       6       0.1349015       37.03134
2013    3       7       0.1223852       34.26912
2013    4       0       0.1526695       40.87587
2013    4       1       0.1585095       42.13523
2013    4       2       0.1705863       44.48546
2013    4       3       0.1875283       48.11739
2013    4       4       0.2118081       53.28808
2013    4       5       0.3240456       74.63565
2013    4       6       0.3063795       71.22288
2013    4       7       0.2835791       66.9803
2013    5       0       0.2566011       62.29265
2013    5       1       0.2446096       60.15284
2013    5       2       0.2195677       55.02985
2013    5       3       0.2554962       62.24122
2013    5       4       0.3154598       73.27121
2013    5       5       0.2715721       65.09209
2013    5       6       0.2180577       54.86784
2013    5       7       0.2524812       61.30463
2013    6       0       0.2354129       57.78247
2013    6       1       0.2449673       59.59119
2013    6       2       0.2032848       51.42526
2013    6       3       0.2309831       57.16286
2013    6       4       0.2028037       51.7559
2013    6       5       0.1617825       43.13719
2013    6       6       0.1474419       39.88359
2013    6       7       0.1528489       41.04867
2013    7       0       0.1587063       42.3043
2013    7       1       0.1652748       43.69965
2013    7       2       0.1803344       46.74461
2013    7       3       0.1856508       48.06974
2013    7       4       0.2622839       63.36254
2013    7       5       0.2019433       51.95069
2013    7       6       0.1392011       38.39079
2013    7       7       0.149967        40.47518
2013    8       0       0.1585494       42.24931
2013    8       1       0.229112        56.87873
2013    8       2       0.2563984       62.40866
2013    8       3       0.2632795       63.95454
2013    8       4       0.2380709       59.33139
2013    8       5       0.1854595       48.46207
2013    8       6       0.1671345       44.55405
2013    8       7       0.1820797       47.78196
2013    9       0       0.1504714       40.90618
2013    9       1       0.1404074       38.64842
2013    9       2       0.152548        40.87801
2013    9       3       0.1517202       40.73013
2013    9       4       0.2170854       54.04145
2013    9       5       0.2674101       64.1443
2013    9       6       0.1749928       46.20202
2013    9       7       0.1672158       44.43826
2013    10      0       0.1709733       45.11647
2013    10      1       0.1876275       48.67153
2013    10      2       0.1925022       49.46356
2013    10      3       0.2093508       52.73116
2013    10      4       0.207256        52.46622
2013    10      5       0.1553699       41.86125
2013    10      6       0.1416587       38.88501
2013    10      7       0.1262049       35.4417
2013    11      0       0.111558        32.11259
2013    11      1       0.1221909       34.50974
2013    11      2       0.1383606       37.95332
2013    11      3       0.2096993       52.65964
2013    11      4       0.2059549       52.25839
2013    11      5       0.1688886       44.77239
2013    11      6       0.1720223       45.4935
2013    11      7       0.2707619       65.15805
2013    12      0       0.3419905       78.21863
2013    12      1       0.2960879       70.07385
2013    12      2       0.2077019       53.01227
2013    12      3       0.1496945       40.62146
2013    12      4       0.08463002      25.67852
2013    12      5       0.05936875      19.58636
2013    12      6       0.07067113      22.39583
2013    12      7       0.09542389      28.37663
2013    13      0       0.1742529       46.33332
2013    13      1       0.179405        47.24525
2013    13      2       0.1905606       49.5586
2013    13      3       0.1962027       50.70292
2013    13      4       0.2020353       51.62116
2013    13      5       0.173804        45.91124
2013    13      6       0.1863383       48.49836
2013    13      7       0.2245558       56.3122
2013    14      0       0.2061554       52.56703
2013    14      1       0.1929829       49.92605
2013    14      2       0.1913911       49.73592
2013    14      3       0.1967288       50.76649
2013    14      4       0.2119369       53.9178
2013    14      5       0.2240273       56.66407
2013    14      6       0.2527077       62.74005
2013    14      7       0.2382571       59.85722
2013    15      0       0.2298673       58.1598
2013    15      1       0.2734833       66.85451
2013    15      2       0.2915806       70.26022
2013    15      3       0.2567388       63.54036
2013    15      4       0.2728504       66.5827
2013    15      5       0.3011564       72.05681
2013    15      6       0.3251995       76.66695
2013    15      7       0.2936225       70.86927
2013    16      0       0.2753586       67.36693
2013    16      1       0.291102        69.99492
2013    16      2       0.2642689       65.07929
2013    16      3       0.2266104       57.65777
2013    16      4       0.2577446       63.66981
2013    16      5       0.3302413       77.2389
2013    16      6       0.3975828       89.25216
2013    16      7       0.4258325       94.38304
2013    17      0       0.3713995       85.08562
2013    17      1       0.3409305       79.77946
2013    17      2       0.3337095       78.08213
2013    17      3       0.3967474       89.57043
2013    17      4       0.4706304       101.9158
2013    17      5       0.4519904       99.00126
2013    17      6       0.4567206       100.0228
2013    17      7       0.506994        107.6695
2013    18      0       0.4617851       100.1181
2013    18      1       0.4168154       92.7981
2013    18      2       0.4081243       91.40214
2013    18      3       0.3986825       89.50739
2013    18      4       0.2968616       71.14557
2013    18      5       0.2614778       64.05072
2013    18      6       0.2389823       59.39531
2013    18      7       0.1925487       49.86797
2013    19      0       0.1511597       41.07477
2013    19      1       0.1092374       31.74534
2013    19      2       0.1057179       30.94244
2013    19      3       0.1186695       33.99753
2013    19      4       0.127333        35.92751
2013    19      5       0.1207666       34.4354
2013    19      6       0.1209881       34.45853
2013    19      7       0.1163531       33.36369
2013    20      0       0.1043757       30.6529
2013    20      1       0.1087407       31.70608
2013    20      2       0.1361956       37.94102
2013    20      3       0.1947346       50.45976
2013    20      4       0.2292884       57.61385
2013    20      5       0.2241714       56.52892
2013    20      6       0.3171261       74.64608
2013    20      7       0.3363434       78.70493
2013    21      0       0.2375557       60.10392
2013    21      1       0.2002031       52.18651
2013    21      2       0.2117865       54.48043
2013    21      3       0.2250868       57.09848
2013    21      4       0.2445758       60.92658
2013    21      5       0.2452024       61.19486
2013    21      6       0.3116143       73.82527
2013    21      7       0.4351936       96.15658
2013    22      0       0.3562543       83.31998
2013    22      1       0.3640377       83.84124
2013    22      2       0.353879        82.11106
2013    22      3       0.3754368       86.21672
2013    22      4       0.3640647       84.19463
2013    22      5       0.3847845       87.44169
2013    22      6       0.2652218       65.74332
2013    22      7       0.2294237       58.62404
2013    23      0       0.1773345       47.46872
2013    23      1       0.18197         48.46449
2013    23      2       0.2137674       55.07933
2013    23      3       0.2804501       68.43602
2013    23      4       0.329091        77.80452
2013    23      5       0.3376166       79.51365
2013    23      6       0.4569103       99.76697
2013    23      7       0.4419541       97.24321
2013    24      0       0.2987476       71.71908
2013    24      1       0.25531         63.03789
2013    24      2       0.1704972       45.77628
2013    24      3       0.1670082       44.86517
2013    24      4       0.123908        35.37471
2013    24      5       0.09278136      28.22493
2013    24      6       0.0792663       24.87019
2013    24      7       0.07189902      22.99887
2013    25      0       0.07646812      23.94121
2013    25      1       0.09891933      29.28007
2013    25      2       0.1160241       33.46655
2013    25      3       0.1529968       41.67811
2013    25      4       0.2103862       53.65353
2013    25      5       0.2257311       56.89632
2013    25      6       0.1621747       43.79756
2013    25      7       0.1756285       47.04463
2013    26      0       0.188639        50.03909
2013    26      1       0.2041763       53.41628
2013    26      2       0.2238314       57.56307
2013    26      3       0.2712265       67.03423
2013    26      4       0.3015785       72.94237
2013    26      5       0.2726698       67.4102
2013    26      6       0.3378308       79.90282
2013    26      7       0.3557686       83.27836
2013    27      0       0.3187659       76.48387
2013    27      1       0.364607        84.62253
2013    27      2       0.4332659       96.63354
2013    27      3       0.4337485       96.83631
2013    27      4       0.3654594       85.59666
2013    27      5       0.3806918       88.3987
2013    27      6       0.3965424       91.2267
2013    27      7       0.3794057       87.96336
2013    28      0       0.3538021       83.03374
2013    28      1       0.4405993       97.91445
2013    28      2       0.4991212       107.2907
2013    28      3       0.5523631       115.7206
2013    28      4       0.557894        117.075
2013    28      5       0.5960532       122.6379
2013    28      6       0.5102082       110.1716
2013    28      7       0.5827163       121.0802
2013    29      0       0.4895143       106.2969
2013    29      1       0.4937345       106.4269
2013    29      2       0.5596696       116.3443
2013    29      3       0.5795052       120.3495
2013    29      4       0.5430807       115.0195
2013    29      5       0.5061163       108.8049
2013    29      6       0.5883452       121.4922
2013    29      7       0.5813465       120.2349
2013    30      0       0.6422661       128.6155
2013    30      1       0.6915587       134.6354
2013    30      2       0.7033047       135.828
2013    30      3       0.7202549       138.05
2013    30      4       0.7088467       136.8423
2013    30      5       0.679011        134.2339
2013    30      6       0.6445851       129.9478
2013    30      7       0.7338952       141.3788
2013    31      0       0.7019009       137.0859
2013    31      1       0.6505646       129.713
2013    31      2       0.6087477       124.0997
2013    31      3       0.5527862       116.3838
2013    31      4       0.629639        127.3004
2013    31      5       0.5967251       122.8398
2013    31      6       0.6334484       127.9399
2013    31      7       0.6353637       127.745
2014    1       0       0.1905786       49.73067
2014    1       1       0.1967085       50.76233
2014    1       2       0.266207        64.40353
2014    1       3       0.2713106       65.71214
2014    1       4       0.2954406       70.46729
2014    1       5       0.4060529       89.93884
2014    1       6       0.3092215       73.36944
2014    1       7       0.3603918       81.90403
2014    2       0       0.278565        67.47383
2014    2       1       0.3192883       75.06457
2014    2       2       0.2941664       70.47849
2014    2       3       0.296704        70.56367
2014    2       4       0.3286955       76.50824
2014    2       5       0.4046722       90.24317
2014    2       6       0.3668188       83.78937
2014    2       7       0.3806355       85.82404
2014    3       0       0.3274906       76.2468
2014    3       1       0.3630253       82.93964
2014    3       2       0.2958203       70.36979
2014    3       3       0.2661032       64.66084
2014    3       4       0.1947206       50.41614
2014    3       5       0.1764537       46.8306
2014    3       6       0.1946226       50.31015
2014    3       7       0.2012868       51.71282
2014    4       0       0.2078336       53.10945
2014    4       1       0.2790319       67.6062
2014    4       2       0.278733        67.46945
2014    4       3       0.2206106       55.7045
2014    4       4       0.158258        42.85671
2014    4       5       0.1577139       42.63946
2014    4       6       0.1546597       41.97803
2014    4       7       0.1670374       44.65205
2014    5       0       0.199926        51.97665
2014    5       1       0.2691284       65.42686
2014    5       2       0.313333        73.56643
2014    5       3       0.2913729       69.62306
2014    5       4       0.2375596       59.59312
2014    5       5       0.2633009       64.45734
2014    5       6       0.2705778       66.20515
2014    5       7       0.2939038       71.06345
2014    6       0       0.3299772       77.85619
2014    6       1       0.3690211       84.32856
2014    6       2       0.3042901       72.79631
2014    6       3       0.3076468       72.84973
2014    6       4       0.3251498       76.27733
2014    6       5       0.3194816       75.46755
2014    6       6       0.328353        77.14114
2014    6       7       0.3927047       88.56448
2014    7       0       0.3332225       78.0891
2014    7       1       0.4290302       94.37623
2014    7       2       0.382355        86.69597
2014    7       3       0.4368537       96.0667
2014    7       4       0.4571663       99.47923
2014    7       5       0.4669607       101.0194
2014    7       6       0.3809507       86.81068
2014    7       7       0.343705        79.8228
2014    8       0       0.3692136       84.26063
2014    8       1       0.3947075       88.91925
2014    8       2       0.327404        77.0338
2014    8       3       0.4054379       90.82793
2014    8       4       0.4719657       101.8692
2014    8       5       0.4609801       99.92304
2014    8       6       0.3520948       81.52318
2014    8       7       0.3522878       81.4409
2014    9       0       0.2731326       66.63592
2014    9       1       0.4060428       90.0754
2014    9       2       0.3411653       79.04363
2014    9       3       0.3971102       88.9178
2014    9       4       0.4395137       95.92635
2014    9       5       0.3915003       87.70015
2014    9       6       0.3842204       86.17544
2014    9       7       0.4024628       89.55648
2014    10      0       0.4124551       91.61222
2014    10      1       0.3372811       78.30059
2014    10      2       0.318582        74.51562
2014    10      3       0.3486604       80.17262
2014    10      4       0.3069827       72.93566
2014    10      5       0.2623346       64.36592
2014    10      6       0.2464946       61.07354
2014    10      7       0.1667157       44.6008
2014    11      0       0.1617824       43.49439
2014    11      1       0.1714541       45.86179
2014    11      2       0.1616987       43.401
2014    11      3       0.1571269       42.42863
2014    11      4       0.1657141       44.2594
2014    11      5       0.1923339       49.90365
2014    11      6       0.2178761       55.50887
2014    11      7       0.2154609       54.69598
2014    12      0       0.1844885       48.25502
2014    12      1       0.2799579       67.53794
2014    12      2       0.2414604       60.24431
2014    12      3       0.1847577       48.68065
2014    12      4       0.1576655       42.74739
2014    12      5       0.1749851       46.4236
2014    12      6       0.1796663       47.40709
2014    12      7       0.143584        39.47547
2014    13      0       0.165906        44.82831
2014    13      1       0.1502281       41.27604
2014    13      2       0.1500606       41.03612
2014    13      3       0.1462143       40.29366
2014    13      4       0.1323861       37.18451
2014    13      5       0.1587382       43.15273
2014    13      6       0.1864701       49.08689
2014    13      7       0.2263971       57.19852
2014    14      0       0.1954768       50.55866
2014    14      1       0.2289495       57.42438
2014    14      2       0.2218979       56.07109
2014    14      3       0.2329866       58.38557
2014    14      4       0.1790666       47.21948
2014    14      5       0.1446569       39.61939
2014    14      6       0.1621765       43.64573
2014    14      7       0.1891058       49.34283
2014    15      0       0.1912843       49.24553
2014    15      1       0.2392848       58.95761
2014    15      2       0.2377932       58.79176
2014    15      3       0.2075017       52.95093
2014    15      4       0.1728366       45.70241
2014    15      5       0.2155169       54.31603
2014    15      6       0.1868152       48.73731
2014    15      7       0.1388282       38.51483
2014    16      0       0.1538759       41.67812
2014    16      1       0.1785077       46.88174
2014    16      2       0.2657029       64.5092
2014    16      3       0.2263243       57.06453
2014    16      4       0.1621616       43.73655
2014    16      5       0.1634198       43.68683
2014    16      6       0.189892        49.8315
2014    16      7       0.1148905       33.06148
2014    17      0       0.1309908       36.87477
2014    17      1       0.1389224       38.43953
2014    17      2       0.1371414       38.0841
2014    17      3       0.1629312       43.53353
2014    17      4       0.1873669       48.65912
2014    17      5       0.1710221       45.39979
2014    17      6       0.1708315       45.60818
2014    17      7       0.1945851       50.98677
2014    18      0       0.1977781       51.51418
2014    18      1       0.2030795       52.65962
2014    18      2       0.22159         56.38015
2014    18      3       0.248034        61.40815
2014    18      4       0.2886363       69.47877
2014    18      5       0.2645486       65.0755
2014    18      6       0.2688091       65.87858
2014    18      7       0.277588        67.55269
2014    19      0       0.2592842       64.11526
2014    19      1       0.3413273       79.22085
2014    19      2       0.2295623       58.25425
2014    19      3       0.1412256       39.0185
2014    19      4       0.09498589      28.45028
2014    19      5       0.09641283      28.82214
2014    19      6       0.1941276       51.38952
2014    19      7       0.1937291       51.14204
2014    20      0       0.1664773       44.9978
2014    20      1       0.1312807       37.011
2014    20      2       0.1115305       32.44621
2014    20      3       0.1151041       33.39742
2014    20      4       0.1201583       34.53616
2014    20      5       0.1137271       33.04406
2014    20      6       0.1710126       46.28599
2014    20      7       0.1525209       42.05512
2014    21      0       0.1861529       49.49794
2014    21      1       0.1760627       47.33633
2014    21      2       0.1544573       42.69471
2014    21      3       0.1410391       39.72772
2014    21      4       0.125133        35.96666
2014    21      5       0.1727439       46.95819
2014    21      6       0.1295323       36.83184
2014    21      7       0.130301        36.98263
2014    22      0       0.1467301       40.61289
2014    22      1       0.1515367       41.64907
2014    22      2       0.1244192       35.49959
2014    22      3       0.1063721       31.34326
2014    22      4       0.09034474      27.41693
2014    22      5       0.1028082       30.18449
2014    22      6       0.1907314       50.12753
2014    22      7       0.208777        53.97119
2014    23      0       0.2137609       55.13627
2014    23      1       0.2106261       54.40664
2014    23      2       0.1976465       51.76713
2014    23      3       0.1787638       47.40518
2014    23      4       0.1571799       42.53126
2014    23      5       0.1271609       35.9237
2014    23      6       0.1629185       44.4169
2014    23      7       0.2262791       58.30869
2014    24      0       0.2309235       59.0844
2014    24      1       0.2605929       64.71346
2014    24      2       0.2933982       71.1437
2014    24      3       0.309161        74.35473
2014    24      4       0.309539        74.31156
2014    24      5       0.2847252       69.77153
2014    24      6       0.2699164       67.11167
2014    24      7       0.2535284       63.83658
2014    25      0       0.2423731       61.30671
2014    25      1       0.269078        65.73956
2014    25      2       0.2979552       70.7915
2014    25      3       0.2964316       70.59042
2014    25      4       0.2745367       66.81583
2014    25      5       0.2838265       69.12004
2014    25      6       0.3351119       79.03914
2014    25      7       0.3650291       84.46335
2014    26      0       0.4021095       90.56222
2014    26      1       0.4778675       103.0596
2014    26      2       0.5458336       113.3142
2014    26      3       0.590589        119.7277
2014    26      4       0.7003943       135.3776
2014    26      5       0.5770094       119.6728
2014    26      6       0.5777977       119.6116
2014    26      7       0.6306762       126.9853
2014    27      0       0.6151604       124.9345
2014    27      1       0.5865226       120.3191
2014    27      2       0.5833156       119.8715
2014    27      3       0.6872179       134.2249
2014    27      4       0.7311447       139.9196
2014    27      5       0.6480688       129.9418
2014    27      6       0.5590751       117.2083
2014    27      7       0.6297022       126.7238
2014    28      0       0.6949081       135.6991
2014    28      1       0.6218079       125.4512
2014    28      2       0.6995065       135.1028
2014    28      3       0.7119556       136.938
2014    28      4       0.6043617       123.1769
2014    28      5       0.4604455       102.1458
2014    28      6       0.4003515       91.77009
2014    28      7       0.33071         78.13122
2014    29      0       0.4386202       97.25193
2014    29      1       0.3523185       82.58882
2014    29      2       0.2326808       59.60634
2014    29      3       0.1358941       38.35517
2014    29      4       0.123364        35.38797
2014    29      5       0.1511079       41.72275
2014    29      6       0.1969895       51.39397
2014    29      7       0.2801693       68.09539
2014    30      0       0.2985296       71.4956
2014    30      1       0.3162395       74.42386
2014    30      2       0.3232594       75.67558
2014    30      3       0.2176188       55.58337
2014    30      4       0.1553045       42.34381
2014    30      5       0.1231956       35.14927
2014    30      6       0.09713985      29.16323
2014    30      7       0.08510716      26.286
2014    31      0       0.0878877       26.87386
2014    31      1       0.0914223       27.72455
2014    31      2       0.09701424      29.16154
2014    31      3       0.108532        31.88077
2014    31      4       0.1149023       33.30315
2014    31      5       0.1213139       34.81502
2014    31      6       0.2025924       53.42402
2014    31      7       0.385591        88.9738
2015    1       0       0.3396024       77.73195
2015    1       1       0.3249331       74.93738
2015    1       2       0.3741793       83.39949
2015    1       3       0.3170289       74.17214
2015    1       4       0.2773579       67.20173
2015    1       5       0.1527075       41.63321
2015    1       6       0.1868787       48.68549
2015    1       7       0.1558837       42.10053
2015    2       0       0.1544711       41.26143
2015    2       1       0.1605933       42.82691
2015    2       2       0.2024463       51.8426
2015    2       3       0.1922452       49.77024
2015    2       4       0.15641         42.02956
2015    2       5       0.1605195       43.3007
2015    2       6       0.1282142       36.17894
2015    2       7       0.1204382       34.02209
2015    3       0       0.1351826       37.55062
2015    3       1       0.1292095       35.90282
2015    3       2       0.1526935       41.07605
2015    3       3       0.1286526       35.95696
2015    3       4       0.1113649       31.9314
2015    3       5       0.1544693       41.72284
2015    3       6       0.1454262       39.56066
2015    3       7       0.1281261       35.93578
2015    4       0       0.121741        34.50543
2015    4       1       0.1113991       32.04192
2015    4       2       0.1042368       30.39093
2015    4       3       0.09725432      28.69888
2015    4       4       0.1042939       30.18235
2015    4       5       0.1847989       47.77687
2015    4       6       0.1629921       42.92747
2015    4       7       0.07890854      23.96831
2015    5       0       0.05917119      19.41913
2015    5       1       0.06158837      20.01289
2015    5       2       0.07917563      24.18817
2015    5       3       0.1011948       29.26181
2015    5       4       0.1217005       33.93094
2015    5       5       0.1302099       35.89536
2015    5       6       0.1366387       37.29301
2015    5       7       0.1542759       41.52029
2015    6       0       0.1462578       40.03732
2015    6       1       0.1408807       38.72079
2015    6       2       0.1539674       41.38317
2015    6       3       0.2003359       51.21842
2015    6       4       0.2804094       67.49492
2015    6       5       0.2203363       55.86256
2015    6       6       0.2014198       51.66405
2015    6       7       0.1872225       48.93815
2015    7       0       0.1716902       45.51171
2015    7       1       0.1581126       42.23943
2015    7       2       0.1733039       45.31872
2015    7       3       0.1324826       36.57889
2015    7       4       0.09089609      27.18928
2015    7       5       0.07020837      22.34469
2015    7       6       0.0767472       23.79541
2015    7       7       0.07451833      23.26919
2015    8       0       0.06614318      21.26626
2015    8       1       0.0758555       23.48838
2015    8       2       0.09440034      27.94462
2015    8       3       0.1143331       32.48922
2015    8       4       0.1501809       40.48703
2015    8       5       0.1530957       41.41898
2015    8       6       0.2095161       53.20471
2015    8       7       0.1208118       34.54936
2015    9       0       0.09063327      27.52938
2015    9       1       0.07706314      24.089
2015    9       2       0.06714953      21.63064
2015    9       3       0.07260208      22.94819
2015    9       4       0.07988789      24.56611
2015    9       5       0.08438614      25.58172
2015    9       6       0.1072069       31.29559
2015    9       7       0.2887852       70.36515
2015    10      0       0.3787119       86.09646
2015    10      1       0.3634414       82.78041
2015    10      2       0.3572801       82.22285
2015    10      3       0.440258        96.50323
2015    10      4       0.3958558       89.54418
2015    10      5       0.3635465       83.47764
2015    10      6       0.2833847       68.06547
2015    10      7       0.2523744       62.0178
2015    11      0       0.2802894       67.47047
2015    11      1       0.3360944       77.60289
2015    11      2       0.4179887       91.78216
2015    11      3       0.4441078       96.24378
2015    11      4       0.4106643       91.31911
2015    11      5       0.4079025       90.98551
2015    11      6       0.3618842       83.15939
2015    11      7       0.3456196       80.31454
2015    12      0       0.3366214       78.71312
2015    12      1       0.3959228       88.71474
2015    12      2       0.3313196       77.59189
2015    12      3       0.2998752       71.99616
2015    12      4       0.2663308       65.62426
2015    12      5       0.2316101       58.87093
2015    12      6       0.2450744       61.48854
2015    12      7       0.2336299       59.26387
2015    13      0       0.1797425       48.15642
2015    13      1       0.1713948       46.20696
2015    13      2       0.1889097       50.02463
2015    13      3       0.250474        62.4656
2015    13      4       0.2446508       61.55027
2015    13      5       0.365744        84.70704
2015    13      6       0.4404944       96.99204
2015    13      7       0.3082466       74.15624
2015    14      0       0.268076        66.53747
2015    14      1       0.2664975       65.74401
2015    14      2       0.2734162       67.04211
2015    14      3       0.2851463       68.92653
2015    14      4       0.2230428       56.47443
2015    14      5       0.1736142       46.063
2015    14      6       0.1731191       46.16144
2015    14      7       0.197022        51.44441
2015    15      0       0.2275182       57.55509
2015    15      1       0.2534811       62.75496
2015    15      2       0.2439223       60.97534
2015    15      3       0.1823777       48.22401
2015    15      4       0.2091979       53.86617
2015    15      5       0.3547232       82.57307
2015    15      6       0.3205125       76.15962
2015    15      7       0.2792207       68.18272
2015    16      0       0.2924159       70.10526
2015    16      1       0.3744848       84.76431
2015    16      2       0.4288016       93.99884
2015    16      3       0.376896        85.32025
2015    16      4       0.3140388       74.394
2015    16      5       0.3553423       82.18584
2015    16      6       0.3229021       76.2281
2015    16      7       0.219858        55.58023
2015    17      0       0.2336627       58.75214
2015    17      1       0.3856367       86.43495
2015    17      2       0.3370552       78.17793
2015    17      3       0.3193625       75.33299
2015    17      4       0.2737547       66.88556
2015    17      5       0.2643589       65.09902
2015    17      6       0.2115234       54.37195
2015    17      7       0.171479        45.69174
2015    18      0       0.1433255       39.47259
2015    18      1       0.1393368       38.50392
2015    18      2       0.149244        40.74415
2015    18      3       0.1696021       45.09333
2015    18      4       0.1465214       40.28836
2015    18      5       0.1379734       38.52482
2015    18      6       0.1751681       46.81034
2015    18      7       0.2171385       56.00949
2015    19      0       0.2312959       58.97299
2015    19      1       0.2386011       60.05268
2015    19      2       0.2537035       63.34501
2015    19      3       0.270863        66.63195
2015    19      4       0.2045957       52.93229
2015    19      5       0.2218803       56.0481
2015    19      6       0.2141237       54.5198
2015    19      7       0.1311112       36.79202
2015    20      0       0.1241596       35.31829
2015    20      1       0.1422858       39.56754
2015    20      2       0.1688844       45.59586
2015    20      3       0.1705614       46.04428
2015    20      4       0.1619472       43.82105
2015    20      5       0.2076218       54.42151
2015    20      6       0.3542792       83.74567
2015    20      7       0.3237586       77.42553
2015    21      0       0.2746414       67.35965
2015    21      1       0.3053828       73.18732
2015    21      2       0.2409109       60.67441
2015    21      3       0.2560821       63.52257
2015    21      4       0.2659086       65.2563
2015    21      5       0.2836008       68.508
2015    21      6       0.3002774       72.49629
2015    21      7       0.3196467       76.00796
2015    22      0       0.2850653       69.10828
2015    22      1       0.3190839       74.99964
2015    22      2       0.2570233       63.59326
2015    22      3       0.2528808       62.74323
2015    22      4       0.2794695       68.06373
2015    22      5       0.3434132       80.0899
2015    22      6       0.2946887       71.38084
2015    22      7       0.3363008       78.80639
2015    23      0       0.2784692       67.92632
2015    23      1       0.2841208       68.82988
2015    23      2       0.2668564       65.47262
2015    23      3       0.2575141       63.60973
2015    23      4       0.2258627       57.12365
2015    23      5       0.2328699       59.02389
2015    23      6       0.2961761       71.1618
2015    23      7       0.2766952       67.14482
2015    24      0       0.2540707       62.73607
2015    24      1       0.2519039       62.33233
2015    24      2       0.2235886       56.74867
2015    24      3       0.2029744       52.15093
2015    24      4       0.1730096       46.0357
2015    24      5       0.1756357       46.4872
2015    24      6       0.1693977       45.47093
2015    24      7       0.2563617       63.37464
2015    25      0       0.2159789       55.20128
2015    25      1       0.1965224       51.13727
2015    25      2       0.1947815       50.70506
2015    25      3       0.1874884       48.99686
2015    25      4       0.2031787       52.31758
2015    25      5       0.1697712       45.49307
2015    25      6       0.1994923       51.5757
2015    25      7       0.2237304       56.35998
2015    26      0       0.2296035       57.64477
2015    26      1       0.3212972       75.60031
2015    26      2       0.3165822       75.02082
2015    26      3       0.2425343       60.60303
2015    26      4       0.2306791       58.18381
2015    26      5       0.2137579       54.80922
2015    26      6       0.1523828       41.86434
2015    26      7       0.1927458       50.02583
2015    27      0       0.2078026       53.28873
2015    27      1       0.2072428       53.26725
2015    27      2       0.1753122       46.71125
2015    27      3       0.1394553       38.91657
2015    27      4       0.1503045       41.01182
2015    27      5       0.1484327       40.55079
2015    27      6       0.1555044       42.31641
2015    27      7       0.1975289       50.78445
2015    28      0       0.1578836       42.51005
2015    28      1       0.1363127       37.91222
2015    28      2       0.130985        36.73075
2015    28      3       0.1521913       41.22126
2015    28      4       0.1556471       42.08524
2015    28      5       0.16517         44.33904
2015    28      6       0.1596209       43.13209
2015    28      7       0.1620826       43.57062
2015    29      0       0.1674626       44.82782
2015    29      1       0.1704171       45.53995
2015    29      2       0.1715576       45.96122
2015    29      3       0.2072523       53.29718
2015    29      4       0.2226754       56.38766
2015    29      5       0.2487406       61.67395
2015    29      6       0.1952354       51.15213
2015    29      7       0.2561544       63.66619
2015    30      0       0.2751939       67.88291
2015    30      1       0.298382        72.46806
2015    30      2       0.2034874       53.49092
2015    30      3       0.1467822       40.88156
2015    30      4       0.1248347       35.79097
2015    30      5       0.1113381       32.55288
2015    30      6       0.1997323       52.80662
2015    30      7       0.1985167       52.48048
2015    31      0       0.1594336       43.83943
2015    31      1       0.1546673       42.60229
2015    31      2       0.1393267       39.11496
2015    31      3       0.1123559       32.85578
2015    31      4       0.09462988      28.64138
2015    31      5       0.1291289       36.89843
2015    31      6       0.2130567       55.62505
2015    31      7       0.1347002       37.8485
2016    1       0       0.1941678       49.66599
2016    1       1       0.1485217       39.77732
2016    1       2       0.1076768       30.65399
2016    1       3       0.08147375      24.6587
2016    1       4       0.06752228      21.36507
2016    1       5       0.07403864      22.91314
2016    1       6       0.1188681       33.54317
2016    1       7       0.09428782      27.90696
2016    2       0       0.07665377      23.72376
2016    2       1       0.08136328      24.76285
2016    2       2       0.07303245      22.78058
2016    2       3       0.07438952      23.00569
2016    2       4       0.08307498      25.00432
2016    2       5       0.1223195       33.99646
2016    2       6       0.1479351       39.99361
2016    2       7       0.1771878       46.43073
2016    3       0       0.1385283       38.25427
2016    3       1       0.1338871       37.09957
2016    3       2       0.1385307       37.97627
2016    3       3       0.1161641       32.96811
2016    3       4       0.1060236       30.68393
2016    3       5       0.1609125       42.73966
2016    3       6       0.1900186       49.54085
2016    3       7       0.2171764       55.52225
2016    4       0       0.2226822       56.73536
2016    4       1       0.2247375       56.80921
2016    4       2       0.2837085       68.02525
2016    4       3       0.2384447       59.31051
2016    4       4       0.2161441       54.96322
2016    4       5       0.2072313       53.48789
2016    4       6       0.2469983       61.80789
2016    4       7       0.36021         83.10103
2016    5       0       0.3302338       77.67471
2016    5       1       0.370721        84.57192
2016    5       2       0.2248545       56.52409
2016    5       3       0.2223981       55.78437
2016    5       4       0.3025342       71.86154
2016    5       5       0.31828         75.55981
2016    5       6       0.3447201       79.49234
2016    5       7       0.3573502       80.98604
2016    6       0       0.2767813       66.36921
2016    6       1       0.3431676       78.65997
2016    6       2       0.2713335       65.54046
2016    6       3       0.2705847       65.3199
2016    6       4       0.2781626       67.09809
2016    6       5       0.3920502       87.96028
2016    6       6       0.3555943       81.98862
2016    6       7       0.2836538       68.22297
2016    7       0       0.2864484       69.38394
2016    7       1       0.3399723       78.60885
2016    7       2       0.3633799       82.69111
2016    7       3       0.3543637       81.44918
2016    7       4       0.4448758       96.97588
2016    7       5       0.466023        100.7574
2016    7       6       0.3574709       82.74391
2016    7       7       0.453246        98.73756
2016    8       0       0.4303463       94.27592
2016    8       1       0.3208813       74.67975
2016    8       2       0.2068686       52.6139
2016    8       3       0.1538273       41.42761
2016    8       4       0.1300501       36.34707
2016    8       5       0.133277        37.13776
2016    8       6       0.1577442       42.26808
2016    8       7       0.1236527       34.78448
2016    9       0       0.09777996      28.87213
2016    9       1       0.08707966      26.41954
2016    9       2       0.09202546      27.59395
2016    9       3       0.09783049      28.96571
2016    9       4       0.08798356      26.66247
2016    9       5       0.08614617      26.25625
2016    9       6       0.1035462       30.32753
2016    9       7       0.0931711       27.9048
2016    10      0       0.07916805      24.51279
2016    10      1       0.07618743      23.84737
2016    10      2       0.07999748      24.74108
2016    10      3       0.08356248      25.52455
2016    10      4       0.07820835      24.22398
2016    10      5       0.0676872       21.77813
2016    10      6       0.2452999       61.72116
2016    10      7       0.3290412       77.40771
2016    11      0       0.2699261       66.1832
2016    11      1       0.1955237       50.96809
2016    11      2       0.1758713       46.73492
2016    11      3       0.1585466       42.99118
2016    11      4       0.1308502       36.78037
2016    11      5       0.1243612       35.27342
2016    11      6       0.1969754       51.81871
2016    11      7       0.2192268       56.61109
2016    12      0       0.2701199       66.86954
2016    12      1       0.4510421       98.1478
2016    12      2       0.4327009       95.40818
2016    12      3       0.4318697       95.44749
2016    12      4       0.4430915       97.33057
2016    12      5       0.3592525       83.3371
2016    12      6       0.5396605       112.5739
2016    12      7       0.5352874       112.1763
2016    13      0       0.4549351       99.19303
2016    13      1       0.5322479       110.487
2016    13      2       0.4597901       99.60519
2016    13      3       0.3673238       84.68006
2016    13      4       0.3641899       84.32643
2016    13      5       0.5431029       113.7359
2016    13      6       0.5092204       108.1426
2016    13      7       0.3819672       86.78521
2016    14      0       0.3020697       72.22574
2016    14      1       0.3066938       72.98961
2016    14      2       0.3211763       75.67527
2016    14      3       0.397516        89.39741
2016    14      4       0.3742565       85.4031
2016    14      5       0.2937702       70.37459
2016    14      6       0.2632772       64.07234
2016    14      7       0.2080117       53.2947
2016    15      0       0.1937922       50.46985
2016    15      1       0.2295377       57.78718
2016    15      2       0.3194941       74.84609
2016    15      3       0.3507239       81.15143
2016    15      4       0.4521451       99.18423
2016    15      5       0.4831389       104.2943
2016    15      6       0.3567449       82.31056
2016    15      7       0.2399485       60.33563
2016    16      0       0.189921        49.85817
2016    16      1       0.1752634       46.63499
2016    16      2       0.2420025       60.05431
2016    16      3       0.322773        75.61529
2016    16      4       0.3700605       84.12097
2016    16      5       0.3037871       71.67253
2016    16      6       0.2113596       53.23391
2016    16      7       0.1949057       49.75053
2016    17      0       0.222763        55.94083
2016    17      1       0.3153439       74.60144
2016    17      2       0.3267956       76.66604
2016    17      3       0.2482367       61.53395
2016    17      4       0.2009908       51.5935
2016    17      5       0.2204652       55.77833
2016    17      6       0.2348623       59.11948
2016    17      7       0.2401448       59.86763
2016    18      0       0.2330225       58.36388
2016    18      1       0.2521096       62.10429
2016    18      2       0.191241        49.6952
2016    18      3       0.1278165       35.9156
2016    18      4       0.09377566      28.12788
2016    18      5       0.07706935      24.19663
2016    18      6       0.07047526      22.54396
2016    18      7       0.07509964      23.54135
2016    19      0       0.0684482       22.02995
2016    19      1       0.06954794      22.33282
2016    19      2       0.09261054      27.93354
2016    19      3       0.1499928       40.77524
2016    19      4       0.2740112       66.56129
2016    19      5       0.4214813       94.26988
2016    19      6       0.4195926       93.34179
2016    19      7       0.3133631       74.63152
2016    20      0       0.2528594       62.94905
2016    20      1       0.3742354       84.80677
2016    20      2       0.4303455       94.17354
2016    20      3       0.4369448       96.10454
2016    20      4       0.4460494       97.63312
2016    20      5       0.3845455       87.07784
2016    20      6       0.2623088       63.71223
2016    20      7       0.2439341       60.41851
2016    21      0       0.2440517       60.89078
2016    21      1       0.3093109       73.04374
2016    21      2       0.4474816       96.68324
2016    21      3       0.3596628       82.91055
2016    21      4       0.3439663       80.50509
2016    21      5       0.401893        90.87572
2016    21      6       0.572731        118.1511
2016    21      7       0.4022911       89.94656
2016    22      0       0.2417274       59.41838
2016    22      1       0.1599568       42.3257
2016    22      2       0.1065829       30.39303
2016    22      3       0.1046409       30.07691
2016    22      4       0.09646087      28.31375
2016    22      5       0.08325705      25.29574
2016    22      6       0.07149993      22.46897
2016    22      7       0.06958713      21.86451
2016    23      0       0.0643347       20.6591
2016    23      1       0.06501068      20.99197
2016    23      2       0.07844788      24.43224
2016    23      3       0.1032141       30.27387
2016    23      4       0.1123894       32.47276
2016    23      5       0.1092931       31.83446
2016    23      6       0.1212104       34.47698
2016    23      7       0.2244119       57.44811
2016    24      0       0.2889688       70.53407
2016    24      1       0.3421847       80.17804
2016    24      2       0.3481442       81.05186
2016    24      3       0.3710946       85.35954
2016    24      4       0.480767        104.0664
2016    24      5       0.3337116       79.44887
2016    24      6       0.4358432       96.83587
2016    24      7       0.4054991       90.92834
2016    25      0       0.4944893       105.7007
2016    25      1       0.4675849       101.5737
2016    25      2       0.3861287       87.80843
2016    25      3       0.3546268       82.63591
2016    25      4       0.4056146       91.56854
2016    25      5       0.458948        100.6565
2016    25      6       0.5307698       111.4042
2016    25      7       0.3857284       87.2543
2016    26      0       0.2414212       60.10045
2016    26      1       0.2792483       67.58915
2016    26      2       0.2969072       71.29701
2016    26      3       0.330372        77.91261
2016    26      4       0.3836828       87.61913
2016    26      5       0.2984671       72.14831
2016    26      6       0.2909269       70.44644
2016    26      7       0.2689656       65.97907
2016    27      0       0.2948276       70.90503
2016    27      1       0.3704455       84.69619
2016    27      2       0.3749492       85.27464
2016    27      3       0.3698057       84.89473
2016    27      4       0.449837        98.47189
2016    27      5       0.4702132       101.4912
2016    27      6       0.4017083       89.70057
2016    27      7       0.3161702       74.06036
2016    28      0       0.254228        62.66435
2016    28      1       0.3678466       83.56291
2016    28      2       0.4114293       91.13683
2016    28      3       0.4724092       101.5405
2016    28      4       0.5374211       112.4896
2016    28      5       0.5644614       116.6434
2016    28      6       0.5403332       113.1669
2016    28      7       0.5179075       109.8322
2016    29      0       0.3690062       85.20473
2016    29      1       0.3944706       89.57872
2016    29      2       0.295089        71.2742
2016    29      3       0.1904158       50.14421
2016    29      4       0.2012654       52.50146
2016    29      5       0.280638        68.96051
2016    29      6       0.4790905       103.4014
2016    29      7       0.4385673       96.4754
2016    30      0       0.2360442       59.51445
2016    30      1       0.2564584       63.61194
2016    30      2       0.1975675       51.53034
2016    30      3       0.2420073       60.44006
2016    30      4       0.2972233       71.25188
2016    30      5       0.3196912       75.983
2016    30      6       0.3338775       78.73518
2016    30      7       0.4388061       96.35013
2016    31      0       0.4630446       100.294
2016    31      1       0.4101683       91.59755
2016    31      2       0.3371953       78.93682
2016    31      3       0.3642277       83.89535
2016    31      4       0.3189617       75.41817
2016    31      5       0.2825484       68.58279
2016    31      6       0.3235352       75.91236
2016    31      7       0.3427502       78.9808
2017    1       0       0.1687713       44.48579
2017    1       1       0.1373834       37.84391
2017    1       2       0.1210098       34.0965
2017    1       3       0.111668        31.81871
2017    1       4       0.1255677       35.03227
2017    1       5       0.1851226       48.27102
2017    1       6       0.168906        44.63791
2017    1       7       0.1451202       39.52124
2017    2       0       0.121577        34.21991
2017    2       1       0.1447122       38.94834
2017    2       2       0.1319908       35.97997
2017    2       3       0.1377303       37.32568
2017    2       4       0.09285739      27.32054
2017    2       5       0.07572454      23.38699
2017    2       6       0.07065695      22.2096
2017    2       7       0.06556701      20.9997
2017    3       0       0.07985692      24.28984
2017    3       1       0.08956425      26.66635
2017    3       2       0.1059606       30.46911
2017    3       3       0.1445515       38.99828
2017    3       4       0.2648341       63.61642
2017    3       5       0.3196727       74.06268
2017    3       6       0.3748641       84.2259
2017    3       7       0.4304134       93.7862
2017    4       0       0.3249911       75.67122
2017    4       1       0.2768044       66.63374
2017    4       2       0.2279348       57.00824
2017    4       3       0.2162816       54.54745
2017    4       4       0.1788979       46.7271
2017    4       5       0.1783946       47.08828
2017    4       6       0.2017759       51.5249
2017    4       7       0.194544        49.81666
2017    5       0       0.2039709       51.63716
2017    5       1       0.2354919       58.17569
2017    5       2       0.202328        51.57663
2017    5       3       0.2072236       52.54836
2017    5       4       0.3276809       75.56258
2017    5       5       0.2345529       58.18257
2017    5       6       0.1695905       44.86809
2017    5       7       0.1888585       48.93762
2017    6       0       0.2140149       54.19521
2017    6       1       0.2528036       61.79384
2017    6       2       0.1948205       49.985
2017    6       3       0.2549256       61.93233
2017    6       4       0.07828769      23.81354
2017    6       5       0.06038694      19.6982
2017    6       6       0.06141734      19.93782
2017    6       7       0.0648907       20.76267
2017    7       0       0.07869234      24.00181
2017    7       1       0.1108246       31.57301
2017    7       2       0.09554576      28.14886
2017    7       3       0.06647594      21.33178
2017    7       4       0.06650873      21.31932
2017    7       5       0.07772972      23.84242
2017    7       6       0.07122398      22.39494
2017    7       7       0.05922693      19.56911
2017    8       0       0.05197321      17.78949
2017    8       1       0.06400208      20.60611
2017    8       2       0.07160004      22.42898
2017    8       3       0.07929296      24.25029
2017    8       4       0.1029795       29.52295
2017    8       5       0.1385489       37.33209
2017    8       6       0.1742493       45.10576
2017    8       7       0.2018353       51.89397
2017    9       0       0.1575839       42.66444
2017    9       1       0.1511981       41.10744
2017    9       2       0.1374339       37.92951
2017    9       3       0.1111174       32.05458
2017    9       4       0.1175238       33.52954
2017    9       5       0.16499         44.28824
2017    9       6       0.1876386       49.39307
2017    9       7       0.2481974       61.49469
2017    10      0       0.3626261       82.58864
2017    10      1       0.3990257       89.18269
2017    10      2       0.3589796       82.34946
2017    10      3       0.3751516       85.35977
2017    10      4       0.4129365       91.82347
2017    10      5       0.3018735       72.14767
2017    10      6       0.3691772       84.45323
2017    10      7       0.2631507       64.46263
2017    11      0       0.2229873       56.24113
2017    11      1       0.2023322       51.94617
2017    11      2       0.2040537       52.28551
2017    11      3       0.2350492       58.3033
2017    11      4       0.2091376       53.15818
2017    11      5       0.1563004       42.27237
2017    11      6       0.1604539       43.02759
2017    11      7       0.151468        41.18993
2017    12      0       0.111151        32.30313
2017    12      1       0.09167827      27.68718
2017    12      2       0.1083072       31.50334
2017    12      3       0.1400914       38.68677
2017    12      4       0.1390518       38.50884
2017    12      5       0.1812221       47.74393
2017    12      6       0.3157689       74.82817
2017    12      7       0.3196054       75.67988
2017    13      0       0.3299345       77.43848
2017    13      1       0.4258106       94.11935
2017    13      2       0.4400675       96.25044
2017    13      3       0.3884994       87.28061
2017    13      4       0.3227332       75.37301
2017    13      5       0.2421135       60.15213
2017    13      6       0.2651588       64.26231
2017    13      7       0.2536806       61.94446
2017    14      0       0.2305031       57.2156
2017    14      1       0.1964404       50.28582
2017    14      2       0.2189323       54.89584
2017    14      3       0.2280107       56.95944
2017    14      4       0.2462633       60.4626
2017    14      5       0.2318167       57.30468
2017    14      6       0.240123        58.67239
2017    14      7       0.1893518       48.47112
2017    15      0       0.1987531       50.34338
2017    15      1       0.2009571       50.9085
2017    15      2       0.2162299       54.11527
2017    15      3       0.2406698       59.07277
2017    15      4       0.2131228       53.8409
2017    15      5       0.166221        44.44779
2017    15      6       0.2193564       56.04831
2017    15      7       0.2631327       64.69536
2017    16      0       0.2208738       56.00059
2017    16      1       0.2373995       59.16564
2017    16      2       0.2364422       58.98326
2017    16      3       0.2278451       57.36363
2017    16      4       0.204948        53.01174
2017    16      5       0.2314582       58.60018
2017    16      6       0.2958867       71.30602
2017    16      7       0.3297727       77.82285
2017    17      0       0.35523         82.66306
2017    17      1       0.5040047       106.8071
2017    17      2       0.3959835       89.87402
2017    17      3       0.4103065       92.6271
2017    17      4       0.5054203       108.0343
2017    17      5       0.4813087       104.296
2017    17      6       0.5346582       112.4998
2017    17      7       0.5260444       111.3619
2017    18      0       0.3521199       82.72313
2017    18      1       0.5111849       107.8825
2017    18      2       0.5134682       108.3259
2017    18      3       0.4670784       102.015
2017    18      4       0.4187685       94.71265
2017    18      5       0.3456716       81.94202
2017    18      6       0.2863847       70.69256
2017    18      7       0.2512231       63.40941
2017    19      0       0.2218713       56.95852
2017    19      1       0.2042104       53.21243
2017    19      2       0.2330404       59.23214
2017    19      3       0.2384115       60.293
2017    19      4       0.2179214       55.88081
2017    19      5       0.239784        60.15645
2017    19      6       0.2794929       68.39815
2017    19      7       0.2517847       62.99561
2017    20      0       0.243123        61.10465
2017    20      1       0.2992558       71.59048
2017    20      2       0.2888873       69.72099
2017    20      3       0.2756115       67.45845
2017    20      4       0.2939893       70.8805
2017    20      5       0.2734564       67.0403
2017    20      6       0.2580159       64.43763
2017    20      7       0.4332619       95.88465
2017    21      0       0.3102721       74.4028
2017    21      1       0.3037035       73.10126
2017    21      2       0.230795        58.64721
2017    21      3       0.2339415       59.11222
2017    21      4       0.2991065       71.90623
2017    21      5       0.4333739       95.83304
2017    21      6       0.5201527       109.5961
2017    21      7       0.3619242       83.82546
2017    22      0       0.3596218       82.69479
2017    22      1       0.3678686       84.22883
2017    22      2       0.4318878       95.09432
2017    22      3       0.434958        96.20507
2017    22      4       0.4784302       103.991
2017    22      5       0.4944457       107.0134
2017    22      6       0.5224939       111.5761
2017    22      7       0.4352619       97.51063
2017    23      0       0.3690666       85.85861
2017    23      1       0.4129847       93.07129
2017    23      2       0.3311361       78.74957
2017    23      3       0.2789          68.85475
2017    23      4       0.263505        65.71511
2017    23      5       0.2297704       58.77075
2017    23      6       0.2184104       56.31548
2017    23      7       0.2815231       68.92907
2017    24      0       0.2711155       66.99411
2017    24      1       0.2991664       72.12241
2017    24      2       0.276227        67.71444
2017    24      3       0.2696607       66.41445
2017    24      4       0.3380208       79.5
2017    24      5       0.3597271       83.99688
2017    24      6       0.3149852       75.52151
2017    24      7       0.2471336       61.9738
2017    25      0       0.1881804       49.52154
2017    25      1       0.1920558       50.30495
2017    25      2       0.2440355       61.04471
2017    25      3       0.2498012       62.54031
2017    25      4       0.303666        72.73375
2017    25      5       0.4465426       98.04363
2017    25      6       0.5437004       113.5061
2017    25      7       0.5215444       109.7224
2017    26      0       0.3988532       90.34842
2017    26      1       0.512843        108.4596
2017    26      2       0.5599379       115.174
2017    26      3       0.43298         96.62797
2017    26      4       0.433304        97.01165
2017    26      5       0.4998655       107.7979
2017    26      6       0.4725918       103.4434
2017    26      7       0.4008756       91.54415
2017    27      0       0.3931553       89.86779
2017    27      1       0.5662681       116.9242
2017    27      2       0.5430121       113.4348
2017    27      3       0.4659114       102.5595
2017    27      4       0.5192842       111.1878
2017    27      5       0.5436947       114.1939
2017    27      6       0.4626996       101.6842
2017    27      7       0.4790864       104.1892
2017    28      0       0.5325688       111.8625
2017    28      1       0.4570609       100.2063
2017    28      2       0.3866693       88.32999
2017    28      3       0.3367488       79.8206
2017    28      4       0.3617449       84.21455
2017    28      5       0.4186207       94.11085
2017    28      6       0.3945023       90.21995
2017    28      7       0.3981525       90.78983
2017    29      0       0.3294741       78.42787
2017    29      1       0.3429387       80.67756
2017    29      2       0.2883476       70.52997
2017    29      3       0.2970389       72.14839
2017    29      4       0.4321773       96.73989
2017    29      5       0.5347054       113.4488
2017    29      6       0.5412014       114.503
2017    29      7       0.6211993       125.4356
2017    30      0       0.722526        139.2046
2017    30      1       0.6583889       129.5319
2017    30      2       0.6543887       129.3194
2017    30      3       0.7179333       137.8886
2017    30      4       0.7705922       145.1702
2017    30      5       0.78586         147.6871
2017    30      6       0.7354921       141.1943
2017    30      7       0.6800485       133.4175
2017    31      0       0.5747643       118.5126
2017    31      1       0.5069724       109.148
2017    31      2       0.3536152       83.6231
2017    31      3       0.2206555       57.57151
2017    31      4       0.2161247       56.33519
2017    31      5       0.2445562       62.19217
2017    31      6       0.2820363       69.67893
2017    31      7       0.2895152       71.09261
2018    1       0       0.1677689       43.64957
2018    1       1       0.2038114       51.20226
2018    1       2       0.2585224       62.10991
2018    1       3       0.2436302       59.35305
2018    1       4       0.2576713       61.99949
2018    1       5       0.2019495       51.20829
2018    1       6       0.189201        48.62631
2018    1       7       0.1926146       49.408
2018    2       0       0.1889309       48.61092
2018    2       1       0.2599146       62.45819
2018    2       2       0.2471917       60.23478
2018    2       3       0.2955741       68.99252
2018    2       4       0.2264118       56.02836
2018    2       5       0.2072679       52.21654
2018    2       6       0.1822721       47.25176
2018    2       7       0.1698257       44.67194
2018    3       0       0.1630453       43.222
2018    3       1       0.1511636       40.73086
2018    3       2       0.1672673       44.18317
2018    3       3       0.1583034       42.46933
2018    3       4       0.1619975       43.40488
2018    3       5       0.1926957       49.86443
2018    3       6       0.4310653       94.22883
2018    3       7       0.4464347       96.75032
2018    4       0       0.3939055       87.62752
2018    4       1       0.3609868       81.51806
2018    4       2       0.310067        72.43859
2018    4       3       0.2546088       61.98334
2018    4       4       0.2491699       60.99829
2018    4       5       0.2796073       67.1352
2018    4       6       0.1516706       41.17896
2018    4       7       0.1520893       41.16474
2018    5       0       0.1641737       43.59026
2018    5       1       0.22705         56.56989
2018    5       2       0.2180361       54.83029
2018    5       3       0.1964115       50.41683
2018    5       4       0.2185458       54.40696
2018    5       5       0.1918356       48.73989
2018    5       6       0.1238929       34.49398
2018    5       7       0.1122399       31.90007
2018    6       0       0.1055616       30.46626
2018    6       1       0.1219507       34.20293
2018    6       2       0.138707        38.06675
2018    6       3       0.2121996       53.37674
2018    6       4       0.2312959       57.71001
2018    6       5       0.1869647       48.69451
2018    6       6       0.3407439       77.98199
2018    6       7       0.2675309       65.07377
2018    7       0       0.2046584       52.7263
2018    7       1       0.2442681       60.28682
2018    7       2       0.2358063       58.52542
2018    7       3       0.2405894       59.19081
2018    7       4       0.2309864       57.24612
2018    7       5       0.2359131       58.12419
2018    7       6       0.1841848       48.05675
2018    7       7       0.1555362       41.98174
2018    8       0       0.1462123       39.77313
2018    8       1       0.18366         47.6797
2018    8       2       0.2217127       55.68066
2018    8       3       0.2241583       56.25739
2018    8       4       0.2444137       60.24762
2018    8       5       0.2153806       54.41312
2018    8       6       0.2245083       56.85758
2018    8       7       0.1615109       43.50116
2018    9       0       0.1328111       37.08583
2018    9       1       0.1073199       31.21414
2018    9       2       0.1330178       36.74936
2018    9       3       0.154783        41.56964
2018    9       4       0.1247655       34.97039
2018    9       5       0.1611761       43.01882
2018    9       6       0.1715303       45.46761
2018    9       7       0.1408035       38.86471
2018    10      0       0.1570655       42.23102
2018    10      1       0.1883334       48.54694
2018    10      2       0.159685        42.516
2018    10      3       0.1299364       35.94994
2018    10      4       0.1328805       36.47021
2018    10      5       0.1726589       45.26824
2018    10      6       0.2159889       54.55765
2018    10      7       0.243169        59.68036
2018    11      0       0.2273165       56.37901
2018    11      1       0.1438556       38.70374
2018    11      2       0.10723         30.57801
2018    11      3       0.07715862      23.72535
2018    11      4       0.08959082      26.59875
2018    11      5       0.09799055      28.52559
2018    11      6       0.1072431       30.79243
2018    11      7       0.1319216       36.3196
2018    12      0       0.1335089       36.66293
2018    12      1       0.1211791       33.91866
2018    12      2       0.1047809       30.16461
2018    12      3       0.09665237      28.34203
2018    12      4       0.1045499       30.1546
2018    12      5       0.1238518       34.46599
2018    12      6       0.1026358       29.80296
2018    12      7       0.08492544      25.73353
2018    13      0       0.08139803      24.93345
2018    13      1       0.07880716      24.40691
2018    13      2       0.08498288      25.98767
2018    13      3       0.09110654      27.50937
2018    13      4       0.08602853      26.31177
2018    13      5       0.07121872      22.89432
2018    13      6       0.06451097      21.14096
2018    13      7       0.08244161      25.50735
2018    14      0       0.1679077       45.40374
2018    14      1       0.2918148       70.7499
2018    14      2       0.282279        68.3175
2018    14      3       0.1928715       50.55414
2018    14      4       0.2411436       60.46556
2018    14      5       0.2390196       60.1779
2018    14      6       0.2462366       61.77206
2018    14      7       0.3439973       80.08756
2018    15      0       0.4321041       95.19499
2018    15      1       0.3940369       88.63566
2018    15      2       0.2639561       64.83979
2018    15      3       0.2441432       60.65667
2018    15      4       0.3116511       73.83023
2018    15      5       0.389225        87.87914
2018    15      6       0.417333        92.67185
2018    15      7       0.3445279       80.33386
2018    16      0       0.3041089       72.99244
2018    16      1       0.4151128       91.00553
2018    16      2       0.359614        81.76433
2018    16      3       0.2550963       63.1999
2018    16      4       0.2444975       61.17382
2018    16      5       0.2426349       60.82525
2018    16      6       0.2777287       68.25274
2018    16      7       0.32386         77.01542
2018    17      0       0.3617127       83.84016
2018    17      1       0.3951233       89.6437
2018    17      2       0.3928396       89.4661
2018    17      3       0.3764933       86.55204
2018    17      4       0.3385586       79.71623
2018    17      5       0.3767942       86.65876
2018    17      6       0.476678        103.7844
2018    17      7       0.5168327       109.5718
2018    18      0       0.4104407       92.25881
2018    18      1       0.283266        68.84706
2018    18      2       0.2764771       67.59674
2018    18      3       0.2888307       70.37997
2018    18      4       0.3453055       81.2053
2018    18      5       0.4611121       101.3174
2018    18      6       0.4266548       96.01095
2018    18      7       0.3462422       81.68662
2018    19      0       0.3097047       74.7514
2018    19      1       0.3380253       79.88095
2018    19      2       0.3893822       89.0102
2018    19      3       0.3763074       86.94369
2018    19      4       0.3847602       88.09611
2018    19      5       0.4216045       94.88229
2018    19      6       0.3585284       84.08008
2018    19      7       0.3411241       80.86642
2018    20      0       0.3144906       75.916
2018    20      1       0.3406346       80.73508
2018    20      2       0.3331688       79.47483
2018    20      3       0.3024914       73.98101
2018    20      4       0.2832525       70.09989
2018    20      5       0.3439349       81.58868
2018    20      6       0.505317        109.3347
2018    20      7       0.378527        88.51342
2018    21      0       0.3191116       77.4037
2018    21      1       0.2852169       70.237
2018    21      2       0.2891075       70.9897
2018    21      3       0.3027934       73.50774
2018    21      4       0.2985242       72.34398
2018    21      5       0.1656065       44.59918
2018    21      6       0.1213948       34.82596
2018    21      7       0.1626633       44.6745
2018    22      0       0.2194468       57.19885
2018    22      1       0.2644504       66.38462
2018    22      2       0.3237881       78.06801
2018    22      3       0.3671892       85.81608
2018    22      4       0.45897         101.4286
2018    22      5       0.5773564       119.9493
2018    22      6       0.6040813       124.1579
2018    22      7       0.5054996       109.3648
2018    23      0       0.4515506       100.8979
2018    23      1       0.4179009       93.85741
2018    23      2       0.3887718       88.65409
2018    23      3       0.4035529       92.2261
2018    23      4       0.4582358       101.4162
2018    23      5       0.3619131       85.44702
2018    23      6       0.3952011       91.11266
2018    23      7       0.2374884       61.00853
2018    24      0       0.1894498       50.39872
2018    24      1       0.1808463       48.20853
2018    24      2       0.197423        52.18446
2018    24      3       0.2288259       58.62601
2018    24      4       0.2216393       57.43293
2018    24      5       0.2951294       72.77703
2018    24      6       0.3179166       77.04673
2018    24      7       0.2397925       61.42347
2018    25      0       0.2068018       54.19358
2018    25      1       0.2123406       55.03335
2018    25      2       0.2734805       67.2995
2018    25      3       0.3552782       83.04947
2018    25      4       0.3993805       91.06386
2018    25      5       0.347265        82.09126
2018    25      6       0.4873045       105.2741
2018    25      7       0.3597358       83.99432
2018    26      0       0.3637408       84.94541
2018    26      1       0.3533218       82.9545
2018    26      2       0.3493651       81.93551
2018    26      3       0.2750195       67.84056
2018    26      4       0.2697104       66.54657
2018    26      5       0.2394747       61.05953
2018    26      6       0.2612364       65.36655
2018    26      7       0.3090017       74.41849
2018    27      0       0.2813335       68.99307
2018    27      1       0.3162152       75.42298
2018    27      2       0.2397667       60.71053
2018    27      3       0.2134252       54.9685
2018    27      4       0.2532945       62.76776
2018    27      5       0.3436223       80.54822
2018    27      6       0.4930447       105.4153
2018    27      7       0.3760272       85.92073
2018    28      0       0.4269474       93.81632
2018    28      1       0.415275        91.56489
2018    28      2       0.3839093       86.54816
2018    28      3       0.3252563       76.59299
2018    28      4       0.386078        87.25115
2018    28      5       0.4084863       91.02996
2018    28      6       0.3065488       72.53649
2018    28      7       0.2911368       69.33881
2018    29      0       0.3001441       71.04487
2018    29      1       0.3189855       74.24798
2018    29      2       0.3770058       84.73712
2018    29      3       0.4126286       91.04942
2018    29      4       0.3832038       86.37013
2018    29      5       0.3507021       81.00873
2018    29      6       0.3496263       81.0177
2018    29      7       0.3784366       86.36628
2018    30      0       0.3845007       87.63948
2018    30      1       0.4671234       100.8658
2018    30      2       0.4301436       95.19491
2018    30      3       0.364864        84.44795
2018    30      4       0.2970185       71.99082
2018    30      5       0.4489348       98.43027
2018    30      6       0.597026        121.023
2018    30      7       0.5061148       107.8497
2018    31      0       0.3442914       80.55495
2018    31      1       0.3366327       78.74104
2018    31      2       0.3374567       78.91479
2018    31      3       0.3606625       83.37244
2018    31      4       0.3256299       77.37753
2018    31      5       0.2584526       64.34247
2018    31      6       0.2688636       65.97281
2018    31      7       0.3051368       72.79273
