####################################################################################################
# Month: 08Aug                                                                                     #
# Station: BRZ                                                                                     #
# Frequency: 230 GHz                                                                               #
# Columns are: year    day     tau     Tb (K)                                                      #
####################################################################################################
2009    1       0.10133632      30.63934125
2009    2       0.11327842      33.482525
2009    3       0.1730614       47.44757625
2009    4       0.36922209      87.7825275
2009    5       0.2386567       62.60123
2009    6       0.13091348      38.228455
2009    7       0.15231681      43.209795
2009    8       0.05019364      17.8732175
2009    9       0.04433608      16.21161375
2009    10      0.06883273      22.4612425
2009    11      0.22512635      58.51728375
2009    12      0.29331591      72.83921625
2009    13      0.06891904      22.5565075
2009    14      0.09043503      28.0606625
2009    15      0.10295508      31.32584875
2009    16      0.16331986      45.4701
2009    17      0.13104433      38.02716375
2009    18      0.14912508      41.37479
2009    19      0.4487435       100.82726375
2009    20      0.56325566      118.16368875
2009    21      0.73369635      142.962075
2009    22      0.16499013      45.54291625
2009    23      0.45389638      101.18670125
2009    24      0.67896084      134.63245
2009    25      0.97411985      169.24615
2009    26      0.80042736      149.7135375
2009    27      0.89406716      156.672125
2009    28      0.69651311      136.306625
2009    29      0.21768409      56.24690625
2009    30      0.0941532       29.08667
2009    31      0.1425211       39.36764625
2010    1       0.05039453      17.83967
2010    2       0.04716613      16.97843625
2010    3       0.04906061      17.38049375
2010    4       0.07820026      24.74906625
2010    5       0.09834344      29.82923375
2010    6       0.17079778      47.1254525
2010    7       0.09438802      28.8316525
2010    8       0.06093354      20.34580875
2010    9       0.0755841       24.19885875
2010    10      0.14472881      40.92761
2010    11      0.12992621      37.79335
2010    12      0.0776556       24.86384
2010    13      0.08106219      25.738445
2010    14      0.17232646      46.68216875
2010    15      0.49003676      107.38969375
2010    16      0.4298773       90.3217675
2010    17      0.05767721      19.4158525
2010    18      0.05182303      18.148485
2010    19      0.05526037      18.89152875
2010    20      0.07039659      22.64535375
2010    21      0.07082429      22.78123625
2010    22      0.0519264       18.2074125
2010    23      0.06253874      20.71775125
2010    24      0.03725277      14.31127125
2010    25      0.03656678      14.15395
2010    26      0.04050313      15.2443975
2010    27      0.04597647      16.66821875
2010    28      0.04973888      17.7023925
2010    29      0.05282344      18.54772125
2010    30      0.04715879      17.00515625
2010    31      0.05341942      18.5783775
2011    1       0.25759342      65.81572375
2011    2       0.34724108      81.69659625
2011    3       0.6447931       132.8650625
2011    4       0.60592591      124.90180625
2011    5       0.21749308      57.71265125
2011    6       0.33151494      80.5114475
2011    7       0.34794756      83.7095075
2011    8       0.23937791      62.18369875
2011    9       0.22996746      60.0897075
2011    10      0.54821934      116.6555425
2011    11      0.17976921      48.49981875
2011    12      0.06061716      20.5600275
2011    13      0.06967997      23.00443625
2011    14      0.06972754      22.939965
2011    15      0.07932598      25.08156375
2011    16      0.08573885      26.65901875
2011    17      0.05876236      19.81003125
2011    18      0.05793881      19.577515
2011    19      0.05551061      18.833475
2011    20      0.20843064      52.4977575
2011    21      0.28156069      70.32131125
2011    22      0.2628599       67.75737125
2011    23      0.12711476      36.64858625
2011    24      0.20647962      53.95459625
2011    25      0.30605596      75.86101875
2011    26      0.45167598      100.90748875
2011    27      0.43688202      99.41439625
2011    28      0.08093309      25.7373075
2011    29      0.07668235      24.58791375
2011    30      0.07135764      23.26314
2011    31      0.18229271      49.0313425
2012    1       0.13996763      39.26588125
2012    2       0.21865534      57.5593625
2012    3       0.16079623      44.395055
2012    4       0.13634851      38.6859925
2012    5       0.12902647      36.3584325
2012    6       0.34399916      82.18314375
2012    7       0.12264624      35.83944375
2012    8       0.06853335      22.2473475
2012    9       0.09023974      27.75768125
2012    10      0.0735219       23.47966375
2012    11      0.05053692      17.73985
2012    12      0.06720707      21.9744175
2012    13      0.19368342      50.33197875
2012    14      0.30123767      72.83286
2012    15      0.24762732      60.91215875
2012    16      0.19048895      50.45188375
2012    17      0.23441555      59.70675375
2012    18      0.16860399      45.043605
2012    19      0.12929877      37.13464625
2012    20      0.03362107      13.25832625
2012    21      0.14664367      40.49397875
2012    22      0.05738412      19.47342
2012    23      0.07241315      23.1768075
2012    24      0.06485806      21.423535
2012    25      0.17876276      44.87348375
2012    26      0.58083451      116.600605
2012    27      0.72669498      139.036405
2012    28      0.40927771      91.83143625
2012    29      0.55661354      117.10762375
2012    30      0.25956451      65.07794375
2012    31      0.09034245      27.9691825
2013    1       0.11297971      33.7456175
2013    2       0.08180087      25.999395
2013    3       0.05827376      19.95462
2013    4       0.04864507      17.40110875
2013    5       0.11368644      33.47087125
2013    6       0.14653496      41.53725375
2013    7       0.14996404      42.2402775
2013    8       0.10218564      30.80255875
2013    9       0.08628058      26.88393125
2013    10      0.11141491      33.15439
2013    11      0.27496945      70.1201475
2013    12      0.40729728      94.714385
2013    13      0.27446734      69.6717175
2013    14      0.45456484      103.38756875
2013    15      0.85149495      157.676375
2013    16      0.4005156       93.42138375
2013    17      0.36449142      82.8686675
2013    18      0.6831974       135.5953125
2013    19      0.37498865      86.82678875
2013    20      0.51174405      110.33161125
2013    21      0.41567606      94.95604375
2013    22      0.41406071      96.2002075
2013    23      0.20679102      55.58706125
2013    24      0.05260758      18.2520625
2013    25      0.09461063      28.5988325
2013    26      0.16859344      46.62386625
2013    27      0.4424528       96.95851625
2013    28      0.54016894      111.005015
2013    29      0.0598935       20.23428
2013    30      0.05155252      17.95418625
2013    31      0.05807834      19.46179125
2014    1       0.20069954      53.0621125
2014    2       0.14547903      40.50335625
2014    3       0.31671624      77.56673375
2014    4       0.18728745      50.9416775
2014    5       0.21610898      56.223765
2014    6       0.1265714       36.68619375
2014    7       0.06748928      22.44374125
2014    8       0.04779944      17.2629625
2014    9       0.04667352      16.860345
2014    10      0.05051561      17.74558125
2014    11      0.07017951      22.60450125
2014    12      0.07336579      23.44201
2014    13      0.09068647      27.44785375
2014    14      0.24269184      63.07238
2014    15      0.39007056      91.20401375
2014    16      0.41241612      93.6307425
2014    17      0.58884992      121.3597925
2014    18      0.83002142      152.8341125
2014    19      0.5597849       116.25366
2014    20      0.13702983      39.3460175
2014    21      0.06601887      21.90936375
2014    22      0.04925031      17.6201575
2014    23      0.0419699       15.64060625
2014    24      0.03637343      14.15928875
2014    25      0.05193139      18.22302625
2014    26      0.14987695      41.68734875
2014    27      0.37916381      88.26784375
2014    28      0.65876672      131.5350375
2014    29      0.73245405      138.297725
2014    30      0.43775162      100.02188375
2014    31      0.16375636      45.15298125
2015    1       0.06167184      20.87793625
2015    2       0.05633045      19.49903125
2015    3       0.05105653      18.143835
2015    4       0.07231761      23.59646
2015    5       0.05083926      18.00985125
2015    6       0.0878303       27.40406125
2015    7       0.1865224       50.34335125
2015    8       0.17268225      47.5996475
2015    9       0.22123056      58.16198125
2015    10      0.084258        26.48269
2015    11      0.04695359      16.91957625
2015    12      0.05922579      20.24790125
2015    13      0.07267565      23.6561925
2015    14      0.09678134      29.72717375
2015    15      0.06148605      20.83416375
2015    16      0.05433588      18.8872175
2015    17      0.08178297      25.74548625
2015    18      0.10175074      30.4749425
2015    19      0.15065722      41.51176625
2015    20      0.36727055      86.5704525
2015    21      0.2608895       66.037985
2015    22      0.33427189      79.09231875
2015    23      0.10033266      29.93655875
2015    24      0.19883281      50.2370275
2015    25      0.31395542      75.4212575
2015    26      0.47893335      106.1453025
2015    27      0.27742952      68.95372625
2015    28      0.75515774      143.3618625
2015    29      0.47876419      103.93696625
2015    30      0.1227709       36.10028625
2015    31      0.07000557      22.87402625
2016    1       0.07171592      23.3133575
2016    2       0.09630155      29.47872875
2016    3       0.2061867       54.12485375
2016    4       0.34068252      81.86797
2016    5       0.21985918      58.09543875
2016    6       0.11858199      35.2398775
2016    7       0.15103174      43.00913
2016    8       0.23233142      61.239705
2016    9       0.13801483      39.75320625
2016    10      0.3468953       82.60973625
2016    11      0.70746272      139.733475
2016    12      0.2803264       70.35925375
2016    13      0.14012258      38.98138875
2016    14      0.36993329      87.42193125
2016    15      0.36964589      87.86369875
2016    16      0.5720665       120.3219625
2016    17      0.56299656      119.464775
2016    18      0.45429787      99.95724375
2016    19      0.42612605      98.07438
2016    20      0.37707414      89.8657275
2016    21      0.61474795      123.23124625
2016    22      0.65808504      134.277175
2016    23      0.20420026      54.741905
2016    24      0.10040742      30.660935
2016    25      0.06246506      20.89862
2016    26      0.05475258      18.77605
2016    27      0.07207881      22.98503125
2016    28      0.05853402      19.56720375
2016    29      0.07862163      24.60838625
2016    30      0.09910785      29.8295875
2016    31      0.34591359      76.92139875
2017    1       0.04476157      16.31387625
2017    2       0.06337308      21.1348725
2017    3       0.13665867      39.20596375
2017    4       0.32077968      78.18691875
2017    5       0.12960157      37.60210375
2017    6       0.12272949      35.97932625
2017    7       0.04155793      15.4591275
2017    8       0.03603712      13.88055875
2017    9       0.10759445      32.26921875
2017    10      0.17990368      49.49737875
2017    11      0.0815277       25.904465
2017    12      0.0908644       27.69081625
2017    13      0.10570484      31.2555625
2017    14      0.15915735      43.42184
2017    15      0.45713228      103.3481975
2017    16      0.39604555      92.04258875
2017    17      0.62970715      129.8408625
2017    18      0.72343682      141.8951125
2017    19      0.67735596      136.9407875
2017    20      0.58630544      123.38499125
2017    21      0.44965852      100.5572725
2017    22      0.45001696      101.7068025
2017    23      0.45262794      101.0596175
2017    24      0.27297516      68.45236625
2017    25      0.13168729      37.319205
2017    26      0.08565244      26.38810375
2017    27      0.06787333      22.05567625
2017    28      0.0638779       21.36018625
2017    29      0.05927914      20.12486125
2017    30      0.06571889      21.68627
2017    31      0.09566184      29.31786375
2018    1       0.66712231      131.06331375
2018    2       0.86806879      156.9796875
2018    3       0.76370696      146.908625
2018    4       0.82720125      154.429525
2018    5       0.60521051      124.70851625
2018    6       0.57677238      121.7475125
2018    7       0.91400661      160.9202
2018    8       0.47176902      105.98938125
2018    9       0.52757272      111.65230375
2018    10      0.48296162      106.8527225
2018    11      0.1499641       41.79604625
2018    12      0.07265939      23.57367875
2018    13      0.07966053      25.41840875
2018    14      0.08487959      26.73625125
2018    15      0.08737326      27.38190875
2018    16      0.27109026      66.4004275
2018    17      0.70796022      135.6302125
2018    18      0.70087291      137.56505
2018    19      0.44383946      98.77929
2018    20      0.13493632      38.37805
2018    21      0.08416987      26.1984575
2018    22      0.15138092      41.8876375
2018    23      0.25968179      65.8915725
2018    24      0.17241198      47.57248625
2018    25      0.40066076      90.94240125
2018    26      0.63245055      128.792425
2018    27      0.57439606      116.9389825
2018    28      0.14493042      39.4874025
2018    29      0.21049614      54.1861725
2018    30      0.09747885      29.48805
2018    31      0.07209335      23.45335875
