####################################################################################################
# Month: 04Apr                                                                                     #
# Station: LLA                                                                                     #
# Frequency: 345 GHz                                                                               #
# Columns are: year    day     tau     Tb (K)                                                      #
####################################################################################################
2009    1       0.49006166      103.61726375
2009    2       0.24841441      61.453235
2009    3       0.13305635      37.86788875
2009    4       0.18593122      46.31544
2009    5       0.2451644       60.63193125
2009    6       0.1787172       47.39694375
2009    7       0.33546799      77.76658
2009    8       0.85199455      149.38120375
2009    9       0.43598528      95.5680225
2009    10      0.3200069       76.26682375
2009    11      0.2993738       72.3034
2009    12      0.41122184      91.60049375
2009    13      0.6699554       129.7660625
2009    14      0.25202611      62.3801075
2009    15      0.09472673      29.50599125
2009    16      0.14206476      40.57824375
2009    17      0.24484585      62.38394375
2009    18      0.31971114      76.36899125
2009    19      0.33579431      79.1277075
2009    20      0.22892322      58.9923475
2009    21      0.1645527       44.81372875
2009    22      0.13443975      38.6890325
2009    23      0.19041534      50.37414
2009    24      0.57378074      115.2133625
2009    25      0.15812545      43.04736875
2009    26      0.1981205       51.29462125
2009    27      0.20244167      50.7602675
2009    28      0.12777594      36.70994625
2009    29      0.18477864      48.62465
2009    30      0.36937529      82.82447375
2010    1       0.11235972      33.50792375
2010    2       0.25792923      64.787335
2010    3       0.2630268       64.32630125
2010    4       0.22568116      58.496945
2010    5       0.11303686      33.75466
2010    6       0.15374072      42.44548125
2010    7       0.30543806      73.92767375
2010    8       0.1712283       46.50694
2010    9       0.14155426      40.4920625
2010    10      0.19823505      52.3889025
2010    11      0.25819324      64.31073625
2010    12      0.23149984      57.789625
2010    13      0.16750215      44.78131125
2010    14      0.27849311      66.77407375
2010    15      0.1428013       39.8273575
2010    16      0.14401925      39.81093625
2010    17      0.34745101      77.7545775
2010    18      0.4279008       89.632285
2010    19      0.11571114      34.350015
2010    20      0.22860846      58.11803
2010    21      0.19490005      51.3317
2010    22      0.2368604       60.16575875
2010    23      0.11644212      33.85663125
2010    24      0.08569925      26.64766375
2010    25      0.15516948      42.45024
2010    26      0.09873621      29.89219625
2010    27      0.21981208      56.55916875
2010    28      0.18813432      49.73102625
2010    29      0.26571391      65.1434325
2010    30      0.58126934      115.76434625
2011    1       0.18695517      49.7982475
2011    2       0.20903544      54.78992125
2011    3       0.12202169      35.4492675
2011    4       0.1794379       48.1249325
2011    5       0.20385144      53.03105125
2011    6       0.32809116      73.76399125
2011    7       0.50884858      107.7310125
2011    8       0.49662426      105.88797
2011    9       0.47654092      102.890935
2011    10      0.73290202      138.2281
2011    11      0.17612019      45.55373
2011    12      0.18163875      48.08495625
2011    13      0.125566        36.21734125
2011    14      0.14215889      40.18276125
2011    15      0.18759502      49.96339375
2011    16      0.11963837      35.10565875
2011    17      0.15323674      42.34002375
2011    18      0.25849917      63.563045
2011    19      0.13070772      37.46944125
2011    20      0.11148777      33.09354875
2011    21      0.12733842      36.72499375
2011    22      0.12391829      35.7335525
2011    23      0.14867238      41.30881125
2011    24      0.07587535      24.867395
2011    25      0.14907638      41.43811375
2011    26      0.12900116      36.8325075
2011    27      0.1871995       49.10855375
2011    28      0.17743072      47.33415375
2011    29      0.1255793       36.25290875
2011    30      0.07987733      25.7078825
2012    1       0.18746666      49.44791875
2012    2       0.36717905      83.0278525
2012    3       0.59811699      114.56312125
2012    4       0.23339101      58.501895
2012    5       0.28613238      68.82677375
2012    6       0.1899235       49.5730325
2012    7       0.20445161      53.60088125
2012    8       0.25598622      63.16208625
2012    9       0.41697274      91.98189
2012    10      0.27060838      66.08514
2012    11      0.59009471      116.83692875
2012    12      0.91649325      158.5825
2012    13      0.45185142      92.28012375
2012    14      0.10811013      32.1010875
2012    15      0.09430426      29.53619125
2012    16      0.07987213      25.9636775
2012    17      0.08931948      28.172445
2012    18      0.27986919      67.09938625
2012    19      0.27089306      66.015785
2012    20      0.44087408      89.07078125
2012    21      0.12890295      37.106775
2012    22      0.11782518      34.89916625
2012    23      0.23641775      59.32023125
2012    24      0.22069396      55.7610725
2012    25      0.21948876      54.79700875
2012    26      0.08405884      26.83567125
2012    27      0.09873922      30.1618
2012    28      0.16058035      43.05186625
2012    29      0.22881339      57.7920875
2012    30      0.09389923      28.80157625
2013    1       0.07082161      23.54034
2013    2       0.08148161      26.20498125
2013    3       0.11265361      33.50391
2013    4       0.07512502      24.71708125
2013    5       0.05983038      20.99744375
2013    6       0.20718343      52.53678
2013    7       0.12737633      36.7663125
2013    8       0.10528516      31.94974125
2013    9       0.11253258      33.5227325
2013    10      0.13835138      39.18703125
2013    11      0.2535884       62.50799
2013    12      0.21372888      53.6581475
2013    13      0.09675104      29.60843
2013    14      0.15271829      42.47952375
2013    15      0.1819611       48.68829875
2013    16      0.09222608      28.59774875
2013    17      0.06760958      22.875735
2013    18      0.07487708      24.5324425
2013    19      0.1595744       44.080945
2013    20      0.22875345      58.45210125
2013    21      0.12015401      35.0461875
2013    22      0.06945241      23.11522375
2013    23      0.08293814      26.01964375
2013    24      0.08253535      26.07452
2013    25      0.10769315      32.3639875
2013    26      0.11676816      34.47792125
2013    27      0.10135033      31.009565
2013    28      0.10483413      31.869535
2013    29      0.07607727      24.9880175
2013    30      0.11716689      34.37710125
2014    1       0.44394199      94.7714
2014    2       0.81659727      147.8242875
2014    3       0.38737032      87.1235825
2014    4       0.73257221      137.6973
2014    5       0.86474184      154.06385
2014    6       0.81547615      146.6570875
2014    7       0.5002288       102.124055
2014    8       0.09316115      28.591615
2014    9       0.0974773       29.71761875
2014    10      0.17568612      46.20961875
2014    11      0.25297979      60.92245875
2014    12      0.07762675      25.46341375
2014    13      0.07379772      24.52543375
2014    14      0.09120345      28.58453125
2014    15      0.11516215      34.25718875
2014    16      0.12317498      35.6673475
2014    17      0.09568081      29.6206025
2014    18      0.0868316       27.65483
2014    19      0.09632512      29.786305
2014    20      0.08104675      26.22926875
2014    21      0.10062497      30.58313125
2014    22      0.24032248      60.36080375
2014    23      0.20005602      52.17351875
2014    24      0.27287729      66.0646175
2014    25      0.22992414      57.71879875
2014    26      0.12152247      35.35560625
2014    27      0.14500351      40.2393125
2014    28      0.13670342      38.44588
2014    29      0.13366196      37.46200125
2014    30      0.15707827      42.646845
2015    1       0.13722943      38.765995
2015    2       0.2769049       67.4823025
2015    3       0.17419014      46.58785375
2015    4       0.15768464      43.45281625
2015    5       0.15781541      43.7650925
2015    6       0.23765672      59.10422875
2015    7       0.42444362      90.70968625
2015    8       0.12733535      36.888425
2015    9       0.16207         44.230155
2015    10      0.17314715      46.033905
2015    11      0.44954276      92.2904275
2015    12      0.82964671      147.693525
2015    13      0.24488064      58.783
2015    14      0.20732199      53.83518125
2015    15      0.24511446      61.15824375
2015    16      0.15379794      42.34632375
2015    17      0.29088826      68.99907
2015    18      0.71767384      135.2497625
2015    19      0.14055825      38.41916875
2015    20      0.1124426       32.643865
2015    21      0.10864752      32.27485875
2015    22      0.12306088      35.94417125
2015    23      0.21444701      54.30616625
2015    24      0.53674919      110.88132
2015    25      0.51116132      108.683245
2015    26      0.2311259       58.80499875
2015    27      0.2111417       55.16431125
2015    28      0.34163278      79.717265
2015    29      0.16011931      43.2177375
2015    30      0.11706217      34.23366125
2016    1       0.28094939      69.109195
2016    2       0.23110974      59.22171125
2016    3       0.27005254      65.58224625
2016    4       0.57629896      115.90793625
2016    5       0.72322301      135.871355
2016    6       0.40574045      86.33171
2016    7       0.18781304      50.0479625
2016    8       0.23623141      59.5259375
2016    9       0.17293679      46.36039
2016    10      0.28644723      66.69995375
2016    11      0.18973512      49.4239725
2016    12      0.29936652      71.42170875
2016    13      0.13936935      39.28167875
2016    14      0.17515055      47.7518725
2016    15      0.12917234      37.60728875
2016    16      0.18274484      49.30443375
2016    17      0.51671276      106.9857375
2016    18      0.83982516      151.7962125
2016    19      0.65694023      126.9649475
2016    20      0.55803768      108.6961725
2016    21      0.13970422      40.180215
2016    22      0.09910243      30.17510875
2016    23      0.14956858      41.155775
2016    24      0.45210649      97.40722875
2016    25      0.2177943       55.16368375
2016    26      0.14244765      38.8946625
2016    27      0.14535054      39.27404
2016    28      0.46809935      100.66514625
2016    29      0.37385655      85.22403375
2016    30      0.18491921      49.05141125
2017    1       0.8637187       154.589925
2017    2       0.50828559      102.25377125
2017    3       0.28177826      69.62745875
2017    4       0.07175396      24.056245
2017    5       0.11655002      34.29037875
2017    6       0.12288864      35.8018725
2017    7       0.09763024      29.59198625
2017    8       0.14168176      39.39210875
2017    9       0.16034369      43.9115725
2017    10      0.0852004       27.32440375
2017    11      0.25969456      61.798605
2017    12      0.5213886       108.976925
2017    13      0.18155834      48.0854375
2017    14      0.31568281      75.3583025
2017    15      0.34129892      79.893955
2017    16      0.24015602      60.64539875
2017    17      0.13703256      38.646765
2017    18      0.25234239      61.724305
2017    19      0.36016682      81.3562575
2017    20      0.30191034      71.73589125
2017    21      0.22120939      57.22414125
2017    22      0.08992459      28.338555
2017    23      0.08790817      27.7296775
2017    24      0.12040718      35.13595
2017    25      0.09605793      29.73244625
2017    26      0.08209926      26.54922625
2017    27      0.08767915      27.73694625
2017    28      0.09911014      30.28612375
2017    29      0.14895179      41.22684125
2017    30      0.25637656      63.444455
2018    1       0.38042984      84.995255
2018    2       0.36238491      82.62409875
2018    3       0.12904419      37.12075875
2018    4       0.13812271      39.1056925
2018    5       0.13691846      38.73823125
2018    6       0.15789477      43.512655
2018    7       0.1560785       42.980495
2018    8       0.27748409      65.99533625
2018    9       0.55886728      115.4747725
2018    10      0.67682156      131.55488
2018    11      0.49684522      103.10421625
2018    12      0.50586581      108.07409
2018    13      0.6550535       127.38795625
2018    14      0.49680796      106.3654075
2018    15      0.39123222      88.968085
2018    16      0.16837719      45.7288875
2018    17      0.09882344      30.1376425
2018    18      0.10827087      32.30197875
2018    19      0.18168718      47.639815
2018    20      0.28897317      70.62581375
2018    21      0.42168851      91.98952
2018    22      0.48743771      102.099515
2018    23      0.69767655      132.3092625
2018    24      0.61020997      121.947425
2018    25      0.61068421      120.9449875
2018    26      0.8355045       150.318525
2018    27      0.26811832      65.27033375
2018    28      0.28369955      69.66584625
2018    29      0.36466748      84.54182
2018    30      0.25166429      62.9671725
