####################################################################################################
# Month: 12Dec                                                                                     #
# Station: ATCA                                                                                    #
# Frequency: 345 GHz                                                                               #
# Columns are: year    day     segment         tau     Tb (K)                                      #
####################################################################################################
2009    1       0       4.092104        281.0552
2009    1       1       4.169134        282.0198
2009    1       2       4.108312        281.7887
2009    1       3       4.153393        280.9514
2009    1       4       4.919762        281.8088
2009    1       5       4.939244        280.449
2009    1       6       4.39452         277.8449
2009    1       7       4.142776        276.8448
2009    2       0       3.424117        274.554
2009    2       1       2.484894        261.465
2009    2       2       2.076152        250.1619
2009    2       3       2.268619        256.4075
2009    2       4       3.338196        275.332
2009    2       5       5.169963        282.7179
2009    2       6       5.34408         282.203
2009    2       7       5.187805        281.9499
2009    3       0       4.250784        282.0883
2009    3       1       3.354245        278.4853
2009    3       2       2.988064        275.3602
2009    3       3       2.930658        274.2794
2009    3       4       2.963477        274.7041
2009    3       5       3.047607        275.7844
2009    3       6       3.422315        279.7176
2009    3       7       5.546068        286.5358
2009    4       0       5.640762        288.8439
2009    4       1       4.499713        288.7331
2009    4       2       4.208398        288.3533
2009    4       3       4.321102        288.4025
2009    4       4       4.36336         288.5556
2009    4       5       4.823483        289.6869
2009    4       6       4.699794        287.7362
2009    4       7       4.500498        285.7395
2009    5       0       4.195053        286.2958
2009    5       1       2.783448        273.2445
2009    5       2       2.112762        255.9579
2009    5       3       1.755313        239.8194
2009    5       4       1.457993        221.2941
2009    5       5       1.670121        233.5366
2009    5       6       2.09406         252.3194
2009    5       7       2.405039        262.1409
2009    6       0       2.307286        260.2536
2009    6       1       2.207706        258.1994
2009    6       2       2.195822        258.2151
2009    6       3       2.099044        254.5813
2009    6       4       1.939023        247.8789
2009    6       5       1.986238        249.2186
2009    6       6       3.788129        283.9726
2009    6       7       5.363798        289.5619
2009    7       0       4.607773        290.1853
2009    7       1       3.464842        285.1787
2009    7       2       2.89281         277.1973
2009    7       3       2.783238        274.1762
2009    7       4       2.891722        275.3607
2009    7       5       3.436724        280.7282
2009    7       6       4.231689        287.0472
2009    7       7       5.704943        291.5203
2009    8       0       4.279983        289.7702
2009    8       1       3.838616        289.4617
2009    8       2       4.63877         295.0752
2009    8       3       4.670999        293.2632
2009    8       4       3.495812        283.7236
2009    8       5       4.584783        287.2293
2009    8       6       5.24929         287.7351
2009    8       7       5.521404        287.9445
2009    9       0       4.671217        289.6393
2009    9       1       4.500133        291.0168
2009    9       2       4.223511        291.0584
2009    9       3       4.299468        290.0845
2009    9       4       3.982227        286.9116
2009    9       5       4.073086        287.0137
2009    9       6       4.034752        286.5074
2009    9       7       5.032108        291.3727
2009    10      0       6.712138        295.3081
2009    10      1       7.907891        297.7163
2009    10      2       7.119945        295.8574
2009    10      3       6.264007        294.5146
2009    10      4       5.555083        290.939
2009    10      5       6.281811        291.2648
2009    10      6       5.939447        287.8097
2009    10      7       6.270065        286.8267
2009    11      0       4.995391        286.4567
2009    11      1       3.009731        274.3776
2009    11      2       1.358835        213.1525
2009    11      3       1.373805        213.894
2009    11      4       1.562294        226.0723
2009    11      5       1.599372        227.7289
2009    11      6       1.609754        228.4191
2009    11      7       1.673731        232.0481
2009    12      0       1.532363        224.7315
2009    12      1       1.395764        216.4803
2009    12      2       1.543183        226.4914
2009    12      3       1.730092        237.7834
2009    12      4       1.966706        248.3309
2009    12      5       2.226766        257.1172
2009    12      6       2.428316        262.7033
2009    12      7       2.605101        266.6352
2009    13      0       2.464083        265.0027
2009    13      1       2.300372        261.9494
2009    13      2       2.12714         256.6391
2009    13      3       2.03076         252.776
2009    13      4       2.11668         255.248
2009    13      5       2.478686        265.2349
2009    13      6       3.555639        282.5419
2009    13      7       6.088148        290.5232
2009    14      0       5.516555        292.1192
2009    14      1       5.111458        293.342
2009    14      2       4.71694         292.5883
2009    14      3       4.693951        291.983
2009    14      4       6.812717        293.6923
2009    14      5       7.85391         291.4836
2009    14      6       7.927463        290.3411
2009    14      7       8.191674        289.3193
2009    15      0       7.337271        292.055
2009    15      1       6.322341        293.9462
2009    15      2       6.253174        294.7284
2009    15      3       6.809899        294.6034
2009    15      4       7.732305        293.2584
2009    15      5       8.503698        291.3261
2009    15      6       8.307374        290.0161
2009    15      7       7.853907        289.0433
2009    16      0       7.303107        292.0004
2009    16      1       6.790295        294.6179
2009    16      2       6.113953        295.3134
2009    16      3       5.769603        294.4556
2009    16      4       5.911615        293.6005
2009    16      5       6.389304        291.8587
2009    16      6       6.727996        289.9615
2009    16      7       7.410199        288.5157
2009    17      0       6.586851        291.0961
2009    17      1       5.784922        293.7175
2009    17      2       5.244277        294.5501
2009    17      3       5.014243        293.7868
2009    17      4       4.904025        292.2576
2009    17      5       4.85254         290.303
2009    17      6       5.181601        289.9447
2009    17      7       5.881073        288.748
2009    18      0       6.68863         290.0373
2009    18      1       7.078717        292.0685
2009    18      2       6.973282        292.6001
2009    18      3       7.935932        290.969
2009    18      4       8.567241        289.3447
2009    18      5       8.308318        288.3098
2009    18      6       7.217183        287.6419
2009    18      7       7.266978        286.929
2009    19      0       6.173974        288.4613
2009    19      1       4.67222         287.7984
2009    19      2       3.796116        284.4639
2009    19      3       3.510291        281.0258
2009    19      4       2.718498        267.857
2009    19      5       2.283059        256.9628
2009    19      6       3.791649        281.9394
2009    19      7       6.392657        287.5886
2009    20      0       6.542141        288.9215
2009    20      1       6.365971        290.6173
2009    20      2       6.827174        291.2589
2009    20      3       7.548889        290.1563
2009    20      4       6.93224         288.6306
2009    20      5       6.273064        287.2325
2009    20      6       5.921301        285.8869
2009    20      7       5.893237        285.227
2009    21      0       5.988418        287.8268
2009    21      1       5.944551        291.0182
2009    21      2       6.027028        291.9124
2009    21      3       6.007836        291.489
2009    21      4       5.9049          290.9343
2009    21      5       7.124414        290.0245
2009    21      6       7.701101        288.8659
2009    21      7       9.115898        288.1113
2009    22      0       8.47463         288.2992
2009    22      1       6.762278        290.084
2009    22      2       6.132386        291.4127
2009    22      3       5.777244        290.9662
2009    22      4       5.438464        290.1377
2009    22      5       5.046394        289.0731
2009    22      6       5.037352        288.5811
2009    22      7       5.160721        288.433
2009    23      0       4.571202        287.9474
2009    23      1       4.082901        287.834
2009    23      2       3.749177        286.4137
2009    23      3       3.903585        287.2164
2009    23      4       6.529024        291.3773
2009    23      5       5.730212        289.4509
2009    23      6       4.865303        287.2702
2009    23      7       4.624785        286.0186
2009    24      0       5.403867        290.3382
2009    24      1       5.168124        292.7249
2009    24      2       4.943322        293.8818
2009    24      3       4.999751        293.9343
2009    24      4       4.899746        293.5025
2009    24      5       8.33543         292.6783
2009    24      6       8.834394        290.937
2009    24      7       9.375976        289.8229
2009    25      0       9.745501        293.0458
2009    25      1       9.566764        294.664
2009    25      2       10.27019        294.4932
2009    25      3       11.10835        293.5614
2009    25      4       10.42342        293.6372
2009    25      5       11.83043        291.0352
2009    25      6       11.98418        289.763
2009    25      7       11.94111        289.6185
2009    26      0       11.94914        291.0183
2009    26      1       11.29005        292.2282
2009    26      2       11.25969        292.8762
2009    26      3       11.57656        292.0473
2009    26      4       12.62876        291.7663
2009    26      5       11.88409        290.8197
2009    26      6       11.07103        290.7096
2009    26      7       11.15679        290.7039
2009    27      0       10.10193        292.8947
2009    27      1       10.03849        295.1465
2009    27      2       10.52241        295.7253
2009    27      3       10.99884        295.1861
2009    27      4       12.05626        293.2628
2009    27      5       12.44643        291.347
2009    27      6       12.53124        290.2865
2009    27      7       12.28193        290.3262
2009    28      0       11.67537        290.7276
2009    28      1       10.5855         291.6716
2009    28      2       10.33439        292.1493
2009    28      3       10.33374        291.8292
2009    28      4       9.681512        291.9075
2009    28      5       10.27071        292.1735
2009    28      6       12.02737        291.0121
2009    28      7       12.46462        290.6787
2009    29      0       12.62261        290.4239
2009    29      1       12.60811        291.0414
2009    29      2       12.75464        290.8295
2009    29      3       12.16012        290.4861
2009    29      4       10.42169        290.7599
2009    29      5       9.460447        290.6192
2009    29      6       10.18781        289.8119
2009    29      7       10.0117         289.9611
2009    30      0       10.39849        290.2144
2009    30      1       10.68739        290.3902
2009    30      2       10.5807         290.563
2009    30      3       10.20487        290.8244
2009    30      4       10.17356        289.8046
2009    30      5       9.130649        288.5285
2009    30      6       9.357006        287.9
2009    30      7       9.958378        287.7756
2009    31      0       9.406976        288.871
2009    31      1       8.153418        290.551
2009    31      2       8.406268        291.1931
2009    31      3       8.647023        290.4875
2009    31      4       9.709014        290.464
2009    31      5       9.602253        289.1029
2009    31      6       10.46866        288.0908
2009    31      7       11.42234        288.0841
2010    1       0       7.822139        285.954
2010    1       1       7.101375        288.7234
2010    1       2       7.633532        290.163
2010    1       3       8.27476         290.4759
2010    1       4       8.615098        289.1221
2010    1       5       7.517542        287.0437
2010    1       6       7.727353        286.6774
2010    1       7       8.069026        286.7873
2010    2       0       8.056734        287.1129
2010    2       1       7.778447        289.0803
2010    2       2       7.980781        290.2417
2010    2       3       7.987089        290.221
2010    2       4       8.406254        290.3626
2010    2       5       8.694708        288.2527
2010    2       6       8.561693        287.6051
2010    2       7       8.82168         287.6348
2010    3       0       9.393171        287.6294
2010    3       1       9.708601        288.6489
2010    3       2       9.89265         288.5882
2010    3       3       10.20858        287.5076
2010    3       4       9.574537        287.2293
2010    3       5       8.824863        286.6925
2010    3       6       8.987549        286.1512
2010    3       7       8.815485        286.1318
2010    4       0       8.458683        286.1203
2010    4       1       8.155882        287.9736
2010    4       2       8.004201        288.3296
2010    4       3       7.764794        287.9305
2010    4       4       7.781799        286.9135
2010    4       5       7.851265        286.0815
2010    4       6       7.864466        285.8617
2010    4       7       8.210232        286.0726
2010    5       0       8.628532        287.7311
2010    5       1       8.505147        290.3033
2010    5       2       9.073776        291.125
2010    5       3       9.697612        290.488
2010    5       4       10.02133        289.7121
2010    5       5       9.466457        287.8895
2010    5       6       8.827581        288.0268
2010    5       7       8.87464         288.3407
2010    6       0       9.262952        290.3261
2010    6       1       9.241243        291.8604
2010    6       2       10.27045        291.8239
2010    6       3       10.92           291.1227
2010    6       4       10.81949        289.6582
2010    6       5       8.459052        288.2575
2010    6       6       7.648362        288.5455
2010    6       7       7.093334        287.9752
2010    7       0       7.814865        290.6815
2010    7       1       7.961432        293.2247
2010    7       2       7.820542        294.5128
2010    7       3       8.111426        293.97
2010    7       4       9.305096        291.4975
2010    7       5       8.803988        289.5749
2010    7       6       9.620181        290.6803
2010    7       7       9.638974        290.4828
2010    8       0       9.44217         292.3002
2010    8       1       8.802648        294.8301
2010    8       2       9.358917        295.5421
2010    8       3       10.09192        295.1755
2010    8       4       10.72943        294.0286
2010    8       5       11.13483        290.9008
2010    8       6       11.3988         290.0059
2010    8       7       11.55575        289.6112
2010    9       0       11.26295        291.7673
2010    9       1       10.75816        294.7601
2010    9       2       11.22103        295.8055
2010    9       3       11.82931        295.3984
2010    9       4       11.44356        294.7657
2010    9       5       10.86411        294.4411
2010    9       6       11.87698        291.8602
2010    9       7       13.19724        290.7132
2010    10      0       13.15768        291.486
2010    10      1       12.20144        292.9294
2010    10      2       11.45172        292.4709
2010    10      3       9.85714         291.4932
2010    10      4       9.688129        291.2866
2010    10      5       9.862375        290.3545
2010    10      6       8.42207         289.6395
2010    10      7       6.724157        288.9017
2010    11      0       7.245063        289.206
2010    11      1       7.286068        290.549
2010    11      2       6.044607        290.3885
2010    11      3       4.653673        287.1055
2010    11      4       3.882769        282.9885
2010    11      5       3.696969        281.1786
2010    11      6       3.315525        277.0966
2010    11      7       3.759359        280.0464
2010    12      0       4.892649        286.7821
2010    12      1       4.533011        287.4921
2010    12      2       4.592549        288.1099
2010    12      3       4.799619        288.5511
2010    12      4       4.591632        287.6069
2010    12      5       4.566041        287.0133
2010    12      6       4.610182        286.4857
2010    12      7       4.727413        286.4586
2010    13      0       4.734623        287.5431
2010    13      1       4.697981        288.5853
2010    13      2       5.139746        290.2425
2010    13      3       5.318122        290.3038
2010    13      4       5.257456        289.576
2010    13      5       5.73286         289.894
2010    13      6       7.088472        289.4161
2010    13      7       7.345807        288.09
2010    14      0       7.004415        289.3374
2010    14      1       6.310266        290.068
2010    14      2       5.701946        290.325
2010    14      3       5.216751        289.7613
2010    14      4       5.332309        289.6178
2010    14      5       6.218501        289.3253
2010    14      6       6.354167        288.6304
2010    14      7       6.568614        288.9515
2010    15      0       6.993839        291.2525
2010    15      1       6.834644        292.8871
2010    15      2       6.984288        293.5426
2010    15      3       6.806336        293.2968
2010    15      4       6.726273        293.2945
2010    15      5       6.782456        292.9274
2010    15      6       7.502904        292.5862
2010    15      7       8.955358        292.5448
2010    16      0       10.26251        290.6055
2010    16      1       7.535909        291.3738
2010    16      2       7.331079        293.5366
2010    16      3       7.359253        294.4434
2010    16      4       7.424133        294.0136
2010    16      5       6.760667        291.9019
2010    16      6       5.731231        289.8069
2010    16      7       5.299651        286.2212
2010    17      0       5.907278        286.2866
2010    17      1       6.641283        287.5453
2010    17      2       6.555252        285.8227
2010    17      3       7.246041        284.526
2010    17      4       7.195852        285.1332
2010    17      5       7.892869        284.9012
2010    17      6       8.117323        284.5086
2010    17      7       8.264022        284.3436
2010    18      0       8.849586        284.4009
2010    18      1       8.732           285.4904
2010    18      2       8.136911        285.5686
2010    18      3       7.451736        284.9304
2010    18      4       6.729482        285.0349
2010    18      5       6.814384        284.8475
2010    18      6       7.114148        284.6761
2010    18      7       7.686752        283.9061
2010    19      0       8.088331        283.8962
2010    19      1       8.317114        284.7449
2010    19      2       7.888758        285.3453
2010    19      3       6.60265         285.0388
2010    19      4       6.392327        285.3431
2010    19      5       4.635242        281.6866
2010    19      6       3.270528        270.5713
2010    19      7       2.629661        259.4494
2010    20      0       2.507816        257.2573
2010    20      1       2.687624        262.4724
2010    20      2       2.818976        265.8237
2010    20      3       2.973262        268.1849
2010    20      4       2.884614        266.515
2010    20      5       2.610012        261.3293
2010    20      6       2.423068        257.4093
2010    20      7       2.429462        258.0824
2010    21      0       2.613076        263.3126
2010    21      1       2.634087        265.476
2010    21      2       2.926342        271.8101
2010    21      3       3.307586        276.6657
2010    21      4       3.532876        278.5107
2010    21      5       3.674361        279.2248
2010    21      6       3.802731        280.1912
2010    21      7       3.734378        279.9022
2010    22      0       4.317738        283.8712
2010    22      1       4.738114        286.5193
2010    22      2       5.168159        288.1933
2010    22      3       5.406194        288.6727
2010    22      4       5.442609        287.8479
2010    22      5       5.380549        286.6472
2010    22      6       5.712816        286.6578
2010    22      7       6.045478        286.9694
2010    23      0       6.841689        287.7156
2010    23      1       7.760445        289.5625
2010    23      2       7.972478        290.3856
2010    23      3       7.963577        290.2506
2010    23      4       8.132329        290.2181
2010    23      5       8.334559        290.0959
2010    23      6       7.872467        289.5919
2010    23      7       6.643999        288.5018
2010    24      0       7.925559        291.0734
2010    24      1       8.735512        293.2519
2010    24      2       9.331218        293.1963
2010    24      3       9.920229        291.249
2010    24      4       9.105324        289.9501
2010    24      5       8.688583        289.1407
2010    24      6       8.386745        289.5133
2010    24      7       8.938707        289.9592
2010    25      0       9.779874        290.6567
2010    25      1       10.23348        292.9086
2010    25      2       10.65083        293.9167
2010    25      3       11.65963        292.7723
2010    25      4       11.86339        291.1791
2010    25      5       11.60542        290.151
2010    25      6       9.375347        289.182
2010    25      7       9.750952        288.6827
2010    26      0       10.38072        290.6748
2010    26      1       10.33219        293.3286
2010    26      2       10.87311        293.4348
2010    26      3       11.61156        291.6429
2010    26      4       11.34446        290.6544
2010    26      5       11.06998        290.1437
2010    26      6       10.71371        289.9391
2010    26      7       9.903949        289.4435
2010    27      0       8.173764        291.0409
2010    27      1       7.175543        292.6098
2010    27      2       7.842215        293.5987
2010    27      3       7.284468        291.8448
2010    27      4       5.545374        288.4105
2010    27      5       7.074602        289.3669
2010    27      6       5.900509        287.1039
2010    27      7       5.718236        287.124
2010    28      0       6.01685         290.5597
2010    28      1       5.629518        292.1714
2010    28      2       5.523903        292.7924
2010    28      3       5.712013        292.5794
2010    28      4       6.026625        288.0532
2010    28      5       5.14357         285.989
2010    28      6       4.38677         283.8616
2010    28      7       3.973095        282.1041
2010    29      0       5.340065        289.0296
2010    29      1       5.579983        292.1952
2010    29      2       5.740929        293.8316
2010    29      3       5.698877        293.7103
2010    29      4       5.70654         293.3815
2010    29      5       6.217093        292.0443
2010    29      6       6.575665        290.5023
2010    29      7       6.701954        289.7685
2010    30      0       6.244714        292.1381
2010    30      1       6.098383        294.4043
2010    30      2       6.147512        295.6962
2010    30      3       6.515807        295.5141
2010    30      4       6.893077        295.0431
2010    30      5       7.834416        292.7755
2010    30      6       8.193943        291.4471
2010    30      7       8.160376        291.2818
2010    31      0       7.59074         294.0298
2010    31      1       6.625001        295.9732
2010    31      2       6.192541        296.8574
2010    31      3       5.612462        295.9474
2010    31      4       6.494351        293.9774
2010    31      5       6.427286        291.1378
2010    31      6       5.67073         288.1974
2010    31      7       4.9973          286.4652
2011    1       0       7.422687        286.005
2011    1       1       7.291153        286.9281
2011    1       2       6.018664        285.2592
2011    1       3       4.953889        282.6298
2011    1       4       3.786471        275.4556
2011    1       5       3.055005        268.0969
2011    1       6       2.751266        262.8059
2011    1       7       2.552538        258.6074
2011    2       0       3.326177        271.7349
2011    2       1       3.282924        273.5767
2011    2       2       3.375413        275.5286
2011    2       3       3.523542        276.7387
2011    2       4       3.828975        278.3125
2011    2       5       4.329537        278.9349
2011    2       6       4.522739        279.0991
2011    2       7       4.423529        279.2454
2011    3       0       4.444508        280.7774
2011    3       1       4.41848         282.3398
2011    3       2       4.664891        284.2311
2011    3       3       5.085128        285.2228
2011    3       4       4.720274        284.1461
2011    3       5       4.289674        282.4909
2011    3       6       4.430491        282.5841
2011    3       7       5.085606        283.3818
2011    4       0       5.696978        285.1195
2011    4       1       5.312751        285.9645
2011    4       2       5.066273        286.6369
2011    4       3       4.964381        286.3837
2011    4       4       5.169375        286.0525
2011    4       5       5.352216        285.396
2011    4       6       5.370315        284.3731
2011    4       7       5.206132        282.7154
2011    5       0       5.70872         284.7516
2011    5       1       6.020341        286.5736
2011    5       2       6.354683        286.5845
2011    5       3       6.211265        285.855
2011    5       4       6.690595        284.3918
2011    5       5       6.1924          280.8603
2011    5       6       5.929505        279.7733
2011    5       7       5.940188        280.1284
2011    6       0       6.652317        281.1509
2011    6       1       7.198059        282.9403
2011    6       2       7.227187        283.8304
2011    6       3       7.408179        283.8428
2011    6       4       6.53874         282.3711
2011    6       5       5.952811        280.2777
2011    6       6       6.121558        279.6341
2011    6       7       5.89576         280.5199
2011    7       0       6.675895        280.7258
2011    7       1       6.924592        282.0519
2011    7       2       7.257704        283.6681
2011    7       3       6.929884        283.5132
2011    7       4       6.453644        283.4706
2011    7       5       6.481033        283.2562
2011    7       6       6.516004        282.5063
2011    7       7       5.778718        281.9935
2011    8       0       6.233332        283.9653
2011    8       1       6.388557        286.1113
2011    8       2       6.871275        286.924
2011    8       3       7.360392        286.4314
2011    8       4       6.591405        285.7082
2011    8       5       5.882778        284.1042
2011    8       6       5.364782        282.9752
2011    8       7       5.155159        282.2874
2011    9       0       5.916197        283.9663
2011    9       1       6.288932        286.4219
2011    9       2       6.623823        287.832
2011    9       3       7.284671        287.3817
2011    9       4       8.253781        286.2674
2011    9       5       9.218894        285.591
2011    9       6       8.966533        285.6725
2011    9       7       8.59632         285.4465
2011    10      0       9.393319        286.4747
2011    10      1       7.883935        288.3887
2011    10      2       8.00524         289.2881
2011    10      3       7.998534        289.1563
2011    10      4       7.402022        289.0098
2011    10      5       7.033029        288.8555
2011    10      6       7.151417        288.8192
2011    10      7       7.016598        288.7642
2011    11      0       8.411218        289.4946
2011    11      1       9.917006        289.2325
2011    11      2       9.833951        289.3287
2011    11      3       10.35412        288.1369
2011    11      4       9.334836        287.4356
2011    11      5       8.103715        287.202
2011    11      6       7.427249        286.138
2011    11      7       7.483018        286.1076
2011    12      0       7.184742        286.8091
2011    12      1       7.226954        287.7723
2011    12      2       6.878951        288.1278
2011    12      3       6.233756        287.1828
2011    12      4       6.000718        286.1593
2011    12      5       5.777122        285.8815
2011    12      6       5.522749        285.4134
2011    12      7       5.313452        284.7109
2011    13      0       4.566642        283.8167
2011    13      1       4.232456        283.7796
2011    13      2       3.332826        277.6266
2011    13      3       2.983107        272.5677
2011    13      4       2.820293        269.486
2011    13      5       2.777499        268.3437
2011    13      6       2.970842        270.983
2011    13      7       3.036397        271.626
2011    14      0       3.467577        276.682
2011    14      1       3.566059        278.7545
2011    14      2       3.84022         281.3637
2011    14      3       4.204936        282.9618
2011    14      4       4.437432        283.4081
2011    14      5       4.865328        284.375
2011    14      6       5.708611        284.8028
2011    14      7       6.81621         284.9626
2011    15      0       7.118079        284.9932
2011    15      1       7.541793        286.0397
2011    15      2       7.506868        286.9824
2011    15      3       6.978007        287.0589
2011    15      4       7.020442        286.8438
2011    15      5       7.663756        285.6336
2011    15      6       7.551238        284.2699
2011    15      7       7.007763        283.997
2011    16      0       7.47312         285.5036
2011    16      1       7.567802        286.7911
2011    16      2       6.760744        287.4588
2011    16      3       5.958869        286.9906
2011    16      4       5.483068        286.3815
2011    16      5       6.54502         286.0393
2011    16      6       6.461302        284.3675
2011    16      7       6.131033        283.5983
2011    17      0       6.16236         284.8454
2011    17      1       5.772305        286.3174
2011    17      2       5.387569        286.7833
2011    17      3       5.037353        286.0391
2011    17      4       5.164839        286.1888
2011    17      5       6.509537        284.5912
2011    17      6       6.611036        283.4102
2011    17      7       6.506183        283.3024
2011    18      0       7.078817        284.456
2011    18      1       7.046795        286.8412
2011    18      2       7.299086        288.4216
2011    18      3       7.58553         288.6995
2011    18      4       6.927346        288.6479
2011    18      5       6.75399         286.8405
2011    18      6       7.439308        285.7522
2011    18      7       7.574167        284.9992
2011    19      0       7.306188        285.0595
2011    19      1       8.254069        287.7089
2011    19      2       9.153407        288.0254
2011    19      3       9.300686        288.5114
2011    19      4       9.241553        288.8287
2011    19      5       8.416575        288.3472
2011    19      6       8.76305         287.6948
2011    19      7       9.136883        287.3747
2011    20      0       8.05922         288.491
2011    20      1       7.27106         289.7174
2011    20      2       6.882669        290.6186
2011    20      3       6.376906        290.8419
2011    20      4       5.779001        290.6624
2011    20      5       6.488119        290.6308
2011    20      6       7.603036        289.3053
2011    20      7       7.88098         288.495
2011    21      0       8.906189        289.3098
2011    21      1       8.672526        290.176
2011    21      2       8.782157        290.7396
2011    21      3       8.668164        290.6521
2011    21      4       8.720857        289.8293
2011    21      5       8.141943        287.2733
2011    21      6       7.810206        286.7936
2011    21      7       7.940566        285.9482
2011    22      0       8.151617        287.1162
2011    22      1       8.378054        288.5945
2011    22      2       9.052218        288.8288
2011    22      3       9.16531         288.8066
2011    22      4       9.380413        288.3845
2011    22      5       8.336017        286.2503
2011    22      6       6.458061        284.9388
2011    22      7       5.754786        284.7624
2011    23      0       6.926208        286.9824
2011    23      1       7.594274        289.3164
2011    23      2       8.084483        290.2904
2011    23      3       8.277994        290.1262
2011    23      4       8.297331        289.1448
2011    23      5       7.482385        287.7906
2011    23      6       6.8885          287.1671
2011    23      7       6.94926         286.9556
2011    24      0       7.549231        288.3072
2011    24      1       7.510892        290.3192
2011    24      2       7.15486         291.1592
2011    24      3       7.228067        290.8641
2011    24      4       7.3914          288.3687
2011    24      5       6.005196        286.6506
2011    24      6       5.72175         286.2837
2011    24      7       5.77433         286.094
2011    25      0       6.095778        287.8847
2011    25      1       6.054159        290.0533
2011    25      2       5.939538        290.8699
2011    25      3       5.730116        290.5904
2011    25      4       5.808996        290.2996
2011    25      5       6.104441        289.9255
2011    25      6       6.183165        289.7268
2011    25      7       6.938671        289.435
2011    26      0       7.688942        289.6847
2011    26      1       7.634619        292.0629
2011    26      2       7.995544        293.2408
2011    26      3       8.933314        291.3826
2011    26      4       6.897171        290.6798
2011    26      5       6.80598         288.9889
2011    26      6       7.542629        287.7327
2011    26      7       6.854908        287.3971
2011    27      0       6.250609        288.2943
2011    27      1       6.072742        289.2229
2011    27      2       5.869219        289.4259
2011    27      3       5.115037        287.6318
2011    27      4       4.92462         285.7301
2011    27      5       4.273393        282.5647
2011    27      6       4.384976        282.2909
2011    27      7       4.754027        282.9783
2011    28      0       5.026951        285.3956
2011    28      1       4.932398        287.4547
2011    28      2       4.651685        287.3959
2011    28      3       3.917769        283.3578
2011    28      4       4.165605        284.2339
2011    28      5       4.965087        286.2694
2011    28      6       5.290754        285.4989
2011    28      7       6.33893         286.0488
2011    29      0       6.844997        287.6238
2011    29      1       6.218815        288.9037
2011    29      2       5.558228        288.9208
2011    29      3       4.77232         286.9853
2011    29      4       5.056023        286.616
2011    29      5       5.411831        286.1982
2011    29      6       5.823214        284.8857
2011    29      7       6.447267        284.5762
2011    30      0       6.506013        286.0203
2011    30      1       6.091653        288.279
2011    30      2       5.779831        288.8334
2011    30      3       5.271251        287.853
2011    30      4       5.31598         286.7768
2011    30      5       5.702298        286.2228
2011    30      6       5.619089        284.4185
2011    30      7       5.25077         283.2689
2011    31      0       5.651563        285.7892
2011    31      1       5.403741        287.455
2011    31      2       4.83944         287.5453
2011    31      3       4.314277        285.8025
2011    31      4       4.08605         284.4181
2011    31      5       4.253704        284.7089
2011    31      6       4.995437        285.4797
2011    31      7       5.513344        284.8082
2012    1       0       5.522481        294.2777
2012    1       1       4.775336        295.5805
2012    1       2       5.279774        297.6079
2012    1       3       17.52528        303.7437
2012    1       4       7.136454        298.9101
2012    1       5       6.611806        297.5503
2012    1       6       6.597654        296.3502
2012    1       7       7.03981         293.57
2012    2       0       6.676431        295.4529
2012    2       1       7.104968        298.9627
2012    2       2       8.330844        299.9392
2012    2       3       8.938494        298.4366
2012    2       4       8.829229        296.3474
2012    2       5       9.113085        295.0399
2012    2       6       9.377326        293.9
2012    2       7       9.912104        291.1311
2012    3       0       10.9665         290.5857
2012    3       1       10.30128        292.9941
2012    3       2       8.604506        295.3655
2012    3       3       6.710763        294.5432
2012    3       4       4.890699        291.5996
2012    3       5       2.940099        275.0629
2012    3       6       2.774108        269.7692
2012    3       7       2.973248        271.4305
2012    4       0       2.409903        260.6872
2012    4       1       2.012786        249.812
2012    4       2       1.868242        243.8131
2012    4       3       2.017158        248.9242
2012    4       4       2.048072        248.3383
2012    4       5       2.1551          250.1433
2012    4       6       1.907843        240.0384
2012    4       7       1.882454        238.7621
2012    5       0       1.791461        235.9364
2012    5       1       1.714682        233.9656
2012    5       2       1.728542        235.6091
2012    5       3       1.979898        246.1372
2012    5       4       2.431944        258.777
2012    5       5       2.686006        263.6042
2012    5       6       2.833613        265.8148
2012    5       7       2.914585        266.8409
2012    6       0       2.60989         263.3242
2012    6       1       2.486405        262.7356
2012    6       2       2.51529         264.5877
2012    6       3       2.576309        266.0502
2012    6       4       2.647654        267.3145
2012    6       5       2.669655        267.4342
2012    6       6       2.954442        271.9848
2012    6       7       5.269642        286.0999
2012    7       0       5.348186        288.1314
2012    7       1       4.457367        287.4349
2012    7       2       4.356958        286.9513
2012    7       3       4.868734        287.1696
2012    7       4       4.946271        287.0528
2012    7       5       7.221715        289.2221
2012    7       6       8.744247        288.0322
2012    7       7       8.544076        287.3579
2012    8       0       7.456664        289.674
2012    8       1       6.032883        291.4509
2012    8       2       5.452748        291.8831
2012    8       3       5.572207        292.1952
2012    8       4       6.088798        292.6592
2012    8       5       6.196251        291.7215
2012    8       6       6.313481        289.8212
2012    8       7       6.885021        288.8475
2012    9       0       6.543634        290.8878
2012    9       1       6.087021        292.928
2012    9       2       5.907187        293.9461
2012    9       3       6.326391        294.1997
2012    9       4       6.768846        293.1502
2012    9       5       6.564716        291.9184
2012    9       6       7.619505        290.9573
2012    9       7       8.832856        289.046
2012    10      0       7.50621         290.0536
2012    10      1       6.662122        291.6875
2012    10      2       6.05709         292.2262
2012    10      3       5.474493        290.744
2012    10      4       6.826731        289.2604
2012    10      5       7.0896          286.9377
2012    10      6       6.416493        285.9078
2012    10      7       5.896937        284.826
2012    11      0       4.795101        285.6531
2012    11      1       4.396846        286.3979
2012    11      2       4.834724        288.2442
2012    11      3       5.606181        288.6871
2012    11      4       6.385874        286.7204
2012    11      5       5.764667        284.0945
2012    11      6       4.580598        280.9309
2012    11      7       5.132666        281.4577
2012    12      0       3.81893         279.4337
2012    12      1       2.883517        271.8638
2012    12      2       2.979902        274.1848
2012    12      3       3.735679        282.0925
2012    12      4       4.686644        283.2342
2012    12      5       4.405278        281.1164
2012    12      6       3.955571        278.7304
2012    12      7       4.503711        280.5713
2012    13      0       3.483143        277.6771
2012    13      1       2.511657        265.2158
2012    13      2       2.187249        256.9367
2012    13      3       2.117463        254.4529
2012    13      4       2.609566        267.6527
2012    13      5       4.397428        283.8114
2012    13      6       4.738904        284.3278
2012    13      7       5.038599        284.3875
2012    14      0       3.93383         283.9632
2012    14      1       3.320165        281.4445
2012    14      2       3.476903        283.1442
2012    14      3       3.747796        284.8386
2012    14      4       4.061496        286.26
2012    14      5       5.296124        287.1803
2012    14      6       5.809643        287.3376
2012    14      7       5.982884        287.254
2012    15      0       6.231123        290.2053
2012    15      1       6.090298        292.7495
2012    15      2       6.037822        294.0259
2012    15      3       6.807177        293.6185
2012    15      4       6.414185        292.1907
2012    15      5       5.684702        291.469
2012    15      6       5.564273        291.0867
2012    15      7       5.423062        290.6637
2012    16      0       5.135564        291.2659
2012    16      1       5.074204        293.3074
2012    16      2       5.349193        295.1894
2012    16      3       5.761145        296.3369
2012    16      4       5.526438        295.4667
2012    16      5       4.89975         292.5335
2012    16      6       5.274895        291.407
2012    16      7       6.018374        291.86
2012    17      0       5.379052        293.0401
2012    17      1       4.833746        294.4704
2012    17      2       4.094749        291.9427
2012    17      3       3.210202        282.8595
2012    17      4       2.871472        276.5188
2012    17      5       3.295057        280.9026
2012    17      6       3.97347         285.6461
2012    17      7       5.295435        289.7632
2012    18      0       4.227063        288.6919
2012    18      1       3.345982        283.0047
2012    18      2       3.126761        280.6523
2012    18      3       3.189753        280.7729
2012    18      4       3.318948        281.7385
2012    18      5       3.323849        281.7691
2012    18      6       7.621478        293.1586
2012    18      7       9.739985        292.9741
2012    19      0       7.87176         295.6545
2012    19      1       5.989713        296.9602
2012    19      2       5.226441        295.8252
2012    19      3       5.823921        296.3069
2012    19      4       9.51713         294.3299
2012    19      5       11.28404        291.1051
2012    19      6       11.88299        291.2041
2012    19      7       11.23836        291.0246
2012    20      0       9.127372        293.1937
2012    20      1       7.414634        295.005
2012    20      2       6.49162         295.0955
2012    20      3       6.503913        295.0671
2012    20      4       6.869998        294.7567
2012    20      5       7.385404        293.2754
2012    20      6       7.903176        291.9802
2012    20      7       8.554932        291.7161
2012    21      0       8.594992        294.2805
2012    21      1       8.594145        295.9733
2012    21      2       8.308251        296.1896
2012    21      3       7.848285        295.5845
2012    21      4       9.56787         293.533
2012    21      5       11.18759        291.0472
2012    21      6       8.783742        289.1395
2012    21      7       9.128284        289.4874
2012    22      0       8.886194        291.2328
2012    22      1       8.648428        292.6369
2012    22      2       8.358688        293.2276
2012    22      3       8.189985        293.0756
2012    22      4       8.547268        292.5765
2012    22      5       8.547337        291.3339
2012    22      6       9.009486        290.3036
2012    22      7       9.125423        289.8282
2012    23      0       8.572356        292.1216
2012    23      1       7.908785        293.9184
2012    23      2       7.526619        294.7016
2012    23      3       7.325312        294.5933
2012    23      4       7.237838        293.9475
2012    23      5       9.009552        291.5886
2012    23      6       9.033897        290.5749
2012    23      7       9.160473        290.1974
2012    24      0       8.781366        292.4497
2012    24      1       8.452171        294.5212
2012    24      2       7.75524         295.7688
2012    24      3       7.381936        295.5968
2012    24      4       7.897702        295.0888
2012    24      5       8.31117         294.0941
2012    24      6       8.800014        293.2441
2012    24      7       8.763401        292.8107
2012    25      0       8.528257        294.6544
2012    25      1       8.553353        296.5727
2012    25      2       9.227368        296.7777
2012    25      3       9.619016        295.8174
2012    25      4       11.30758        292.357
2012    25      5       10.96711        290.6018
2012    25      6       9.836889        289.9848
2012    25      7       9.190192        289.1816
2012    26      0       8.162972        290.9014
2012    26      1       6.747083        292.615
2012    26      2       6.019516        292.893
2012    26      3       6.195225        291.2255
2012    26      4       6.330826        288.3689
2012    26      5       6.18566         286.2315
2012    26      6       5.785456        286.0304
2012    26      7       6.08954         286.4849
2012    27      0       6.732217        290.1035
2012    27      1       6.30233         292.436
2012    27      2       6.286852        293.3449
2012    27      3       6.367813        293.2624
2012    27      4       6.463898        293.1588
2012    27      5       6.89189         292.8622
2012    27      6       8.898466        289.2861
2012    27      7       9.109469        288.6064
2012    28      0       9.728932        290.3596
2012    28      1       8.848054        292.5081
2012    28      2       7.677467        293.7811
2012    28      3       7.127331        293.3845
2012    28      4       6.756814        292.655
2012    28      5       6.371009        291.6545
2012    28      6       6.812939        290.3257
2012    28      7       7.116308        289.7376
2012    29      0       6.281792        291.3301
2012    29      1       4.546691        290.2182
2012    29      2       3.503721        284.2896
2012    29      3       3.286893        281.2865
2012    29      4       3.27215         280.5206
2012    29      5       3.071589        277.8397
2012    29      6       5.399495        289.9051
2012    29      7       8.199925        289.0299
2012    30      0       7.057959        291.1873
2012    30      1       5.901958        292.8102
2012    30      2       5.417523        293.2509
2012    30      3       5.381291        292.776
2012    30      4       5.878847        291.6577
2012    30      5       6.092505        288.7682
2012    30      6       6.001742        287.7948
2012    30      7       5.834587        287.0069
2012    31      0       5.885109        289.929
2012    31      1       5.152262        291.7295
2012    31      2       4.854081        291.9541
2012    31      3       4.851713        291.3842
2012    31      4       4.216196        287.9439
2012    31      5       4.770734        288.4646
2012    31      6       5.915332        288.6516
2012    31      7       6.244709        288.4207
2013    1       0       3.116313        272.0183
2013    1       1       2.461366        262.2299
2013    1       2       2.335586        260.0433
2013    1       3       2.53048         265.0683
2013    1       4       3.30619         277.0463
2013    1       5       3.953111        280.73
2013    1       6       4.816568        282.3892
2013    1       7       5.110393        282.3511
2013    2       0       4.326442        282.2792
2013    2       1       3.781129        281.5901
2013    2       2       3.288685        278.6237
2013    2       3       2.467712        264.1911
2013    2       4       1.985442        247.9962
2013    2       5       2.246554        256.9864
2013    2       6       2.963493        272.3061
2013    2       7       3.801395        279.6447
2013    3       0       3.354188        277.4717
2013    3       1       2.397905        263.5761
2013    3       2       1.967657        250.47
2013    3       3       1.727087        239.1011
2013    3       4       1.530078        227.5085
2013    3       5       1.824751        243.0782
2013    3       6       3.179132        277.4878
2013    3       7       4.271282        284.8845
2013    4       0       4.76883         287.6617
2013    4       1       4.867814        289.9
2013    4       2       6.09819         293.543
2013    4       3       8.464044        295.2099
2013    4       4       8.885363        295.0759
2013    4       5       11.29516        292.6243
2013    4       6       10.58361        290.523
2013    4       7       8.484466        286.3302
2013    5       0       5.168527        283.7077
2013    5       1       3.683108        279.7329
2013    5       2       2.581014        262.5028
2013    5       3       2.122769        247.6342
2013    5       4       2.585835        258.7816
2013    5       5       2.44996         255.8073
2013    5       6       2.389714        254.9366
2013    5       7       2.660019        260.1349
2013    6       0       2.152175        249.2077
2013    6       1       1.800747        237.7928
2013    6       2       1.774534        237.641
2013    6       3       1.793137        238.2179
2013    6       4       1.752715        235.599
2013    6       5       1.676516        231.0439
2013    6       6       1.713414        232.2429
2013    6       7       1.976951        243.6906
2013    7       0       2.421399        258.6931
2013    7       1       2.338768        258.1308
2013    7       2       2.177405        254.3704
2013    7       3       2.153532        253.6216
2013    7       4       2.091363        251.0016
2013    7       5       2.006576        247.3708
2013    7       6       2.088514        249.9047
2013    7       7       2.153548        252.3536
2013    8       0       2.786198        269.54
2013    8       1       2.745964        270.7207
2013    8       2       2.591419        268.7161
2013    8       3       2.631161        269.138
2013    8       4       2.941828        274.0896
2013    8       5       3.248141        278.0896
2013    8       6       4.072308        285.4405
2013    8       7       6.256045        288.4564
2013    9       0       7.130004        290.5753
2013    9       1       6.171988        293.161
2013    9       2       5.322012        293.3557
2013    9       3       6.100819        294.1947
2013    9       4       6.131561        293.5817
2013    9       5       6.942111        292.7478
2013    9       6       7.593529        291.5725
2013    9       7       7.322423        289.3774
2013    10      0       7.563782        290.1177
2013    10      1       6.772031        293.3581
2013    10      2       6.788251        294.6484
2013    10      3       5.359078        291.298
2013    10      4       2.492412        264.9726
2013    10      5       2.310971        258.8751
2013    10      6       2.786309        268.5767
2013    10      7       3.166157        273.6059
2013    11      0       3.707577        280.335
2013    11      1       17.02666        296.2689
2013    11      2       2.894067        273.568
2013    11      3       2.247424        258.0662
2013    11      4       2.527159        265.2338
2013    11      5       3.283276        276.3205
2013    11      6       3.434483        277.4506
2013    11      7       3.581461        278.8267
2013    12      0       3.331182        277.5255
2013    12      1       2.692729        269.3837
2013    12      2       2.47509         265.2567
2013    12      3       2.457493        263.8563
2013    12      4       2.256331        258.0991
2013    12      5       2.019083        249.4481
2013    12      6       2.198514        255.6992
2013    12      7       2.647645        267.4958
2013    13      0       2.541632        266.3353
2013    13      1       2.302009        260.99
2013    13      2       2.288572        260.2435
2013    13      3       2.18645         256.4893
2013    13      4       2.055482        251.3621
2013    13      5       1.990946        247.9487
2013    13      6       1.989782        247.0476
2013    13      7       2.356866        258.4691
2013    14      0       2.96445         273.2383
2013    14      1       2.604679        268.4363
2013    14      2       2.386255        263.1139
2013    14      3       2.649642        269.4412
2013    14      4       3.040282        275.8821
2013    14      5       4.045574        284.9563
2013    14      6       4.145203        285.3096
2013    14      7       5.734392        288.4166
2013    15      0       5.808276        290.1366
2013    15      1       4.454214        289.1017
2013    15      2       4.002319        287.3273
2013    15      3       3.813929        285.7479
2013    15      4       3.867569        285.324
2013    15      5       5.221766        289.2904
2013    15      6       7.022926        288.3194
2013    15      7       7.214773        287.3318
2013    16      0       6.70287         289.9867
2013    16      1       6.081233        291.4652
2013    16      2       5.881019        291.5861
2013    16      3       5.876286        291.1871
2013    16      4       6.298755        290.4521
2013    16      5       7.106256        288.4188
2013    16      6       7.207762        285.9592
2013    16      7       6.548416        285.274
2013    17      0       6.020066        287.6306
2013    17      1       4.882814        288.601
2013    17      2       4.408238        288.3506
2013    17      3       4.002949        286.2321
2013    17      4       3.988445        285.7009
2013    17      5       5.617377        287.1185
2013    17      6       5.779013        286.0016
2013    17      7       5.908637        285.3571
2013    18      0       4.956657        287.1535
2013    18      1       3.941832        286.1137
2013    18      2       2.96571         276.7113
2013    18      3       2.684375        271.3058
2013    18      4       4.193913        286.2716
2013    18      5       5.051649        287.0772
2013    18      6       4.947027        285.265
2013    18      7       4.360971        282.604
2013    19      0       3.957171        283.5751
2013    19      1       2.914034        276.1921
2013    19      2       2.465018        267.3971
2013    19      3       2.508348        268.0987
2013    19      4       2.717876        271.8421
2013    19      5       3.671642        282.6724
2013    19      6       5.262601        286.8934
2013    19      7       5.682667        286.3183
2013    20      0       5.389886        288.2209
2013    20      1       4.619274        290.7087
2013    20      2       4.201034        291.0078
2013    20      3       4.437089        291.5966
2013    20      4       4.536056        290.831
2013    20      5       4.383685        288.6842
2013    20      6       4.11676         286.0843
2013    20      7       4.111351        285.7216
2013    21      0       4.93631         290.0518
2013    21      1       4.824911        292.6485
2013    21      2       5.057594        294.4571
2013    21      3       6.076763        295.4427
2013    21      4       6.497593        295.2671
2013    21      5       5.878972        293.2279
2013    21      6       5.300637        290.148
2013    21      7       5.030262        288.8801
2013    22      0       5.346716        290.9666
2013    22      1       4.704467        292.5295
2013    22      2       4.249006        292.1121
2013    22      3       3.894004        289.8526
2013    22      4       3.764117        287.8926
2013    22      5       3.857128        288.0211
2013    22      6       4.056952        287.2879
2013    22      7       5.220449        288.9221
2013    23      0       5.562342        291.4706
2013    23      1       5.107285        294.1526
2013    23      2       5.052622        295.7233
2013    23      3       6.117052        296.7297
2013    23      4       7.271602        293.7346
2013    23      5       7.402367        291.8939
2013    23      6       7.577968        291.6922
2013    23      7       7.697119        291.4697
2013    24      0       7.70635         293.6144
2013    24      1       8.804043        295.559
2013    24      2       10.2034         293.4225
2013    24      3       10.97493        291.7033
2013    24      4       10.33694        291.7193
2013    24      5       10.85748        291.0651
2013    24      6       11.83109        289.7318
2013    24      7       11.15727        288.5732
2013    25      0       10.65628        289.1374
2013    25      1       10.56984        290.5355
2013    25      2       10.09393        292.1982
2013    25      3       9.582012        292.2385
2013    25      4       9.197026        291.6067
2013    25      5       9.810294        290.3983
2013    25      6       10.22824        288.9482
2013    25      7       10.48814        288.1722
2013    26      0       8.791508        289.4843
2013    26      1       7.205268        292.9499
2013    26      2       6.346173        294.0544
2013    26      3       5.791266        293.4155
2013    26      4       4.74617         289.5825
2013    26      5       4.134253        285.8806
2013    26      6       4.376389        286.0975
2013    26      7       4.452557        285.8751
2013    27      0       3.814098        284.3364
2013    27      1       3.719212        285.2554
2013    27      2       4.180513        288.341
2013    27      3       4.388654        289.0635
2013    27      4       4.145963        287.9275
2013    27      5       4.021814        286.6244
2013    27      6       7.465607        289.7769
2013    27      7       8.36358         289.6167
2013    28      0       6.994922        293.1288
2013    28      1       5.253365        294.6187
2013    28      2       4.011023        290.7915
2013    28      3       3.353028        284.3351
2013    28      4       3.126966        281.5664
2013    28      5       3.911087        287.7806
2013    28      6       4.140762        288.5489
2013    28      7       4.118816        288.3283
2013    29      0       4.016281        290.1118
2013    29      1       3.279781        284.6101
2013    29      2       3.459052        287.2352
2013    29      3       4.836746        296.0347
2013    29      4       3.763284        286.8917
2013    29      5       4.653153        290.4938
2013    29      6       6.889634        290.6462
2013    29      7       6.595284        289.7787
2013    30      0       5.847714        293.1766
2013    30      1       4.209759        292.3106
2013    30      2       3.113316        283.5352
2013    30      3       2.917731        278.9137
2013    30      4       3.356641        283.0963
2013    30      5       3.491202        284.0173
2013    30      6       4.820033        289.3731
2013    30      7       7.144758        289.4868
2013    31      0       5.527732        291.4041
2013    31      1       4.376339        290.5173
2013    31      2       2.748482        275.0267
2013    31      3       1.67256         236.472
2013    31      4       1.387125        217.405
2013    31      5       1.884157        246.2717
2013    31      6       6.465654        290.6987
2013    31      7       8.938026        289.965
2014    1       0       7.102623        288.9011
2014    1       1       7.23692         290.9592
2014    1       2       8.050819        291.8309
2014    1       3       8.17155         291.8966
2014    1       4       7.830469        291.5213
2014    1       5       7.669156        290.9924
2014    1       6       7.653351        289.9434
2014    1       7       7.469241        287.8492
2014    2       0       6.890869        290.5297
2014    2       1       6.394018        292.5728
2014    2       2       6.363816        293.5049
2014    2       3       6.443122        293.6051
2014    2       4       6.308301        292.8839
2014    2       5       5.663564        291.3119
2014    2       6       5.749548        289.5963
2014    2       7       5.721436        287.6948
2014    3       0       6.001115        290.5161
2014    3       1       6.201443        293.7467
2014    3       2       6.838073        295.0599
2014    3       3       6.766662        294.4561
2014    3       4       6.627341        293.5788
2014    3       5       6.620292        292.2624
2014    3       6       7.993283        291.2353
2014    3       7       8.375587        289.9362
2014    4       0       8.451419        290.623
2014    4       1       9.016241        291.1091
2014    4       2       9.167492        291.9685
2014    4       3       9.231876        292.1275
2014    4       4       9.178025        291.1791
2014    4       5       8.917474        290.1258
2014    4       6       8.852896        289.6623
2014    4       7       9.199282        289.6119
2014    5       0       8.875607        290.9798
2014    5       1       8.61719         291.6766
2014    5       2       8.446545        292.6973
2014    5       3       7.858459        293.4426
2014    5       4       8.654325        290.7189
2014    5       5       8.058526        290.4365
2014    5       6       8.08694         288.5101
2014    5       7       7.590809        287.5468
2014    6       0       8.55925         288.7125
2014    6       1       8.180139        290.5591
2014    6       2       7.902352        291.6033
2014    6       3       8.080179        291.6494
2014    6       4       8.012566        290.3709
2014    6       5       7.155082        288.6487
2014    6       6       7.898139        288.3609
2014    6       7       8.275144        288.0344
2014    7       0       9.033215        290.1922
2014    7       1       7.730795        292.6492
2014    7       2       6.563392        293.6859
2014    7       3       7.049585        294.3141
2014    7       4       8.167142        293.3037
2014    7       5       8.356651        292.7556
2014    7       6       7.822031        291.1199
2014    7       7       6.369861        290.084
2014    8       0       6.368774        290.3047
2014    8       1       6.06265         291.5738
2014    8       2       6.551526        292.8408
2014    8       3       5.677734        292.3431
2014    8       4       5.546895        291.429
2014    8       5       5.694603        290.5461
2014    8       6       6.067477        290.181
2014    8       7       6.130757        289.9591
2014    9       0       6.624741        291.4408
2014    9       1       6.341989        293.4645
2014    9       2       5.92778         293.7145
2014    9       3       5.89129         293.4183
2014    9       4       6.021021        292.9569
2014    9       5       7.906369        291.603
2014    9       6       8.499886        290.6696
2014    9       7       8.431006        289.9885
2014    10      0       7.913085        292.358
2014    10      1       6.769347        294.8478
2014    10      2       6.575905        295.6707
2014    10      3       6.457482        295.3853
2014    10      4       6.387559        294.943
2014    10      5       7.326519        293.2074
2014    10      6       8.791742        292.4404
2014    10      7       10.18976        292.7394
2014    11      0       10.63766        293.7726
2014    11      1       9.215349        295.3899
2014    11      2       7.207096        293.6172
2014    11      3       6.380889        291.9981
2014    11      4       6.67213         289.4028
2014    11      5       5.72987         285.0215
2014    11      6       5.326699        283.6296
2014    11      7       5.12406         282.2519
2014    12      0       4.554936        282.9165
2014    12      1       3.938798        281.9076
2014    12      2       4.23158         284.4597
2014    12      3       4.580487        284.0245
2014    12      4       4.423401        280.2259
2014    12      5       4.474352        279.4397
2014    12      6       4.44419         279.3975
2014    12      7       4.260523        278.609
2014    13      0       3.893914        279.5447
2014    13      1       3.656681        279.7947
2014    13      2       3.878097        282.1951
2014    13      3       4.623029        285.3314
2014    13      4       4.655506        282.6705
2014    13      5       4.148785        279.4266
2014    13      6       4.096658        279.2214
2014    13      7       4.227845        279.9304
2014    14      0       3.593665        278.7635
2014    14      1       3.21664         277.2866
2014    14      2       2.892872        274.0048
2014    14      3       2.7891          271.953
2014    14      4       2.924325        273.2161
2014    14      5       3.204733        275.9701
2014    14      6       3.292387        276.5172
2014    14      7       3.507835        278.1591
2014    15      0       3.60331         280.7784
2014    15      1       2.868031        273.9673
2014    15      2       3.126984        278.2568
2014    15      3       3.600767        283.412
2014    15      4       3.986752        285.8312
2014    15      5       4.61243         287.9666
2014    15      6       4.562299        287.5013
2014    15      7       4.317897        286.3331
2014    16      0       5.244114        290.1817
2014    16      1       5.424381        293.3223
2014    16      2       6.882999        295.7605
2014    16      3       6.904403        293.2439
2014    16      4       6.318774        293.6817
2014    16      5       5.438805        292.3306
2014    16      6       4.836761        290.066
2014    16      7       4.941364        288.7681
2014    17      0       5.602039        292.1817
2014    17      1       4.670114        292.7233
2014    17      2       4.364368        292.3158
2014    17      3       4.524722        292.6914
2014    17      4       4.87449         292.4668
2014    17      5       8.208733        293.6885
2014    17      6       8.691877        292.9103
2014    17      7       9.767977        292.1443
2014    18      0       8.880771        294.3145
2014    18      1       7.888836        295.7094
2014    18      2       5.227033        289.8892
2014    18      3       4.950711        286.1698
2014    18      4       4.125013        282.2381
2014    18      5       3.654781        279.7988
2014    18      6       3.518585        278.2923
2014    18      7       3.073947        272.3315
2014    19      0       2.992711        273.2106
2014    19      1       2.854207        272.9396
2014    19      2       2.799929        272.6282
2014    19      3       2.410497        263.1074
2014    19      4       1.971531        247.5919
2014    19      5       1.766012        237.7966
2014    19      6       2.391453        260.6955
2014    19      7       4.63113         284.7878
2014    20      0       3.978322        283.7412
2014    20      1       3.122641        277.5822
2014    20      2       2.473362        266.2613
2014    20      3       2.275647        260.4972
2014    20      4       2.342015        262.0096
2014    20      5       2.881365        273.2408
2014    20      6       7.797394        288.0624
2014    20      7       7.946066        287.4364
2014    21      0       7.670732        290.2841
2014    21      1       6.519333        293.1266
2014    21      2       5.876844        293.9369
2014    21      3       5.921084        293.5356
2014    21      4       6.362751        292.9592
2014    21      5       7.972441        289.3832
2014    21      6       8.071321        288.2328
2014    21      7       8.240884        287.6658
2014    22      0       7.048902        291.1147
2014    22      1       5.950231        293.5583
2014    22      2       5.557639        294.0808
2014    22      3       5.666857        293.7468
2014    22      4       5.932773        293.4363
2014    22      5       7.649554        289.4257
2014    22      6       8.383007        288.081
2014    22      7       8.343106        287.5281
2014    23      0       8.182215        289.7635
2014    23      1       7.600819        293.232
2014    23      2       8.148101        293.9858
2014    23      3       8.397207        293.729
2014    23      4       10.20134        291.0538
2014    23      5       8.83326         291.1917
2014    23      6       8.388756        290.1121
2014    23      7       7.419367        289.5903
2014    24      0       7.523481        291.4523
2014    24      1       7.803818        294.3534
2014    24      2       8.35804         295.3164
2014    24      3       8.60785         295.1666
2014    24      4       8.088158        294.6408
2014    24      5       7.866302        293.7857
2014    24      6       8.940993        292.0232
2014    24      7       9.773248        291.1063
2014    25      0       10.39925        292.5162
2014    25      1       10.1564         293.2362
2014    25      2       10.66391        292.3831
2014    25      3       11.8463         290.495
2014    25      4       11.74725        289.8543
2014    25      5       10.39173        289.7289
2014    25      6       10.29308        289.7285
2014    25      7       10.30509        289.8729
2014    26      0       8.304913        291.1928
2014    26      1       6.693631        293.03
2014    26      2       5.551903        293.3561
2014    26      3       4.610907        289.8332
2014    26      4       4.555336        287.7532
2014    26      5       7.209205        291.0984
2014    26      6       8.435995        290.17
2014    26      7       8.909177        289.2253
2014    27      0       8.989817        289.6507
2014    27      1       8.565987        290.715
2014    27      2       9.361343        289.5796
2014    27      3       9.88793         287.7823
2014    27      4       9.580502        286.9007
2014    27      5       8.926227        285.8092
2014    27      6       8.591542        285.627
2014    27      7       8.350151        286.3415
2014    28      0       8.530621        287.5615
2014    28      1       8.477335        290.2746
2014    28      2       8.525161        291.8317
2014    28      3       8.579506        290.7078
2014    28      4       8.091069        289.7185
2014    28      5       7.759122        289.2843
2014    28      6       7.753049        288.9065
2014    28      7       7.550485        288.4659
2014    29      0       6.715679        289.499
2014    29      1       6.171919        291.5375
2014    29      2       5.244261        292.2206
2014    29      3       4.748405        290.863
2014    29      4       4.493709        289.7282
2014    29      5       4.477475        289.5354
2014    29      6       4.727298        290.3084
2014    29      7       5.484864        290.5092
2014    30      0       5.418717        291.4477
2014    30      1       3.633632        285.4776
2014    30      2       3.308691        282.5122
2014    30      3       2.563188        268.723
2014    30      4       2.047498        252.2371
2014    30      5       2.37236         261.9184
2014    30      6       2.624399        267.5996
2014    30      7       2.621465        267.6009
2014    31      0       2.512012        266.5503
2014    31      1       2.410906        265.9675
2014    31      2       2.519168        269.7604
2014    31      3       2.640875        272.3819
2014    31      4       2.742098        273.9538
2014    31      5       4.748807        289.4187
2014    31      6       8.58721         291.3478
2014    31      7       8.423411        291.7254
2015    1       0       9.706898        292.6228
2015    1       1       9.663668        293.8825
2015    1       2       8.853909        294.7135
2015    1       3       9.753637        292.8666
2015    1       4       8.879581        293.1382
2015    1       5       10.56416        292.6216
2015    1       6       10.23066        290.8728
2015    1       7       10.60584        290.1655
2015    2       0       11.42079        289.6188
2015    2       1       9.411544        288.8932
2015    2       2       6.04075         290.3858
2015    2       3       3.332429        279.6786
2015    2       4       1.843765        240.7584
2015    2       5       2.46342         261.7518
2015    2       6       3.057028        273.7076
2015    2       7       4.218216        283.4985
2015    3       0       5.20506         287.5709
2015    3       1       4.773781        288.4211
2015    3       2       4.582887        288.7412
2015    3       3       4.778201        289.2862
2015    3       4       5.32814         289.0724
2015    3       5       5.624866        284.4719
2015    3       6       4.96933         282.999
2015    3       7       4.670337        282.2536
2015    4       0       4.77464         285.5976
2015    4       1       4.129032        285.7259
2015    4       2       3.385465        281.1256
2015    4       3       2.856392        273.3861
2015    4       4       3.060834        275.7521
2015    4       5       4.693771        284.0559
2015    4       6       4.868992        283.6509
2015    4       7       5.058219        283.0265
2015    5       0       4.14703         282.8415
2015    5       1       3.241269        278.3151
2015    5       2       2.749278        272.236
2015    5       3       2.44904         265.4249
2015    5       4       2.533709        266.8752
2015    5       5       3.413415        280.1039
2015    5       6       4.826532        286.0596
2015    5       7       5.607416        286.2437
2015    6       0       4.219599        285.598
2015    6       1       3.487152        283.2615
2015    6       2       3.214268        280.8924
2015    6       3       3.385892        282.0877
2015    6       4       4.016521        285.0331
2015    6       5       4.518436        286.0136
2015    6       6       4.447786        284.8253
2015    6       7       4.308402        283.0131
2015    7       0       4.545261        285.8407
2015    7       1       4.218495        287.0053
2015    7       2       4.293747        288.3216
2015    7       3       4.449825        288.2509
2015    7       4       4.350106        287.5443
2015    7       5       5.672778        289.6782
2015    7       6       6.146535        289.3465
2015    7       7       8.053213        288.8803
2015    8       0       7.558074        291.0255
2015    8       1       6.364339        293.4773
2015    8       2       5.555113        294.0991
2015    8       3       5.42622         293.4681
2015    8       4       7.123794        293.5485
2015    8       5       7.307129        292.9607
2015    8       6       8.341456        292.5142
2015    8       7       8.979337        290.8472
2015    9       0       9.147487        290.433
2015    9       1       8.178753        293.2234
2015    9       2       7.495714        295.2878
2015    9       3       6.650861        295.3227
2015    9       4       7.319471        294.7444
2015    9       5       7.982121        294.0493
2015    9       6       8.184787        293.3906
2015    9       7       8.541003        291.7407
2015    10      0       9.64184         293.7355
2015    10      1       9.457977        294.6677
2015    10      2       7.992156        294.914
2015    10      3       7.764819        294.4033
2015    10      4       6.648519        293.6662
2015    10      5       6.755534        293.1976
2015    10      6       7.323013        293.2873
2015    10      7       6.927932        293.1376
2015    11      0       4.873838        291.9165
2015    11      1       4.128168        289.5182
2015    11      2       3.444732        284.4218
2015    11      3       3.82908         285.8605
2015    11      4       5.405662        287.8306
2015    11      5       5.630364        286.7543
2015    11      6       5.062305        283.9026
2015    11      7       5.026196        283.6468
2015    12      0       4.118913        281.418
2015    12      1       3.155835        275.4324
2015    12      2       2.460586        264.416
2015    12      3       2.336397        260.3834
2015    12      4       2.338059        259.7865
2015    12      5       3.374613        277.9243
2015    12      6       5.46721         286.3128
2015    12      7       6.398752        286.1494
2015    13      0       5.675962        288.1273
2015    13      1       4.785554        288.8786
2015    13      2       4.295493        288.1747
2015    13      3       4.255398        287.6572
2015    13      4       4.618897        288.5847
2015    13      5       6.747045        289.4641
2015    13      6       6.356129        287.8359
2015    13      7       6.389186        287.4197
2015    14      0       6.993999        290.845
2015    14      1       7.473353        293.5083
2015    14      2       7.633035        294.4043
2015    14      3       7.360823        294.4695
2015    14      4       7.266339        294.3156
2015    14      5       7.752587        293.714
2015    14      6       7.899444        292.3332
2015    14      7       7.580453        291.345
2015    15      0       7.262997        293.3249
2015    15      1       6.299731        294.6747
2015    15      2       6.588509        295.1614
2015    15      3       6.756139        294.3337
2015    15      4       5.950245        292.4409
2015    15      5       8.56789         291.7194
2015    15      6       9.3744          289.6695
2015    15      7       9.208043        289.2616
2015    16      0       9.30615         289.3488
2015    16      1       8.197533        290.8366
2015    16      2       7.370051        291.1154
2015    16      3       8.151081        289.9535
2015    16      4       7.783549        289.0259
2015    16      5       6.995411        288.4103
2015    16      6       7.668717        287.5428
2015    16      7       8.366395        286.3395
2015    17      0       8.148224        287.2054
2015    17      1       6.977713        288.1709
2015    17      2       6.357304        289.3867
2015    17      3       5.828749        289.3297
2015    17      4       5.503269        289.0013
2015    17      5       6.128129        287.1612
2015    17      6       5.561932        285.8161
2015    17      7       4.941029        284.3907
2015    18      0       5.075586        287.2476
2015    18      1       4.392106        288.1323
2015    18      2       3.888814        287.2515
2015    18      3       3.767425        286.4199
2015    18      4       3.879405        286.6219
2015    18      5       4.37261         286.5402
2015    18      6       5.087374        286.507
2015    18      7       5.309452        286.8829
2015    19      0       5.2251          288.5639
2015    19      1       4.45429         289.3706
2015    19      2       4.014756        288.4457
2015    19      3       3.971198        287.8281
2015    19      4       3.908008        286.6539
2015    19      5       4.106825        285.3984
2015    19      6       4.787153        286.4613
2015    19      7       5.366168        286.5994
2015    20      0       5.370037        288.6154
2015    20      1       4.921754        290.9905
2015    20      2       4.31286         290.4893
2015    20      3       3.890294        288.2058
2015    20      4       3.496153        284.3974
2015    20      5       3.912933        286.6083
2015    20      6       5.798379        290.2162
2015    20      7       7.069863        289.0126
2015    21      0       6.577866        291.7359
2015    21      1       5.71772         294.1223
2015    21      2       5.662555        295.4798
2015    21      3       5.700656        295.2028
2015    21      4       6.689835        294.3561
2015    21      5       6.283062        292.8818
2015    21      6       5.729272        290.6436
2015    21      7       7.53869         289.1701
2015    22      0       8.498215        291.2349
2015    22      1       8.179157        293.6234
2015    22      2       8.267949        293.9735
2015    22      3       9.554576        292.1622
2015    22      4       10.2246         290.6643
2015    22      5       10.00551        289.8162
2015    22      6       9.291833        289.3646
2015    22      7       9.118904        289.2149
2015    23      0       8.356736        290.5574
2015    23      1       8.194696        292.8995
2015    23      2       8.088405        293.6587
2015    23      3       8.305451        293.1652
2015    23      4       7.963525        291.0233
2015    23      5       7.538492        287.5973
2015    23      6       7.402341        286.1364
2015    23      7       7.332263        285.8936
2015    24      0       7.131503        287.5006
2015    24      1       7.30757         288.4583
2015    24      2       7.22165         289.0703
2015    24      3       7.495836        289.4966
2015    24      4       6.841876        287.475
2015    24      5       6.463234        286.2989
2015    24      6       6.596729        285.7978
2015    24      7       6.578601        286.07
2015    25      0       7.068826        288.1315
2015    25      1       6.758875        290.1222
2015    25      2       6.484945        290.9566
2015    25      3       6.192673        290.909
2015    25      4       6.638187        290.4081
2015    25      5       6.92638         289.3515
2015    25      6       7.403845        289.1618
2015    25      7       9.020094        288.3922
2015    26      0       9.832927        288.8793
2015    26      1       10.19109        293.2579
2015    26      2       10.49424        294.2159
2015    26      3       12.08985        292.6443
2015    26      4       12.0195         291.4473
2015    26      5       11.47152        290.872
2015    26      6       9.848942        290.01
2015    26      7       7.817248        288.9356
2015    27      0       7.560057        291.4233
2015    27      1       5.947998        292.8307
2015    27      2       3.837985        287.4163
2015    27      3       4.099824        287.9548
2015    27      4       5.711854        289.2151
2015    27      5       5.935142        287.1376
2015    27      6       5.431794        284.4258
2015    27      7       5.063732        283.6296
2015    28      0       5.612507        287.3729
2015    28      1       4.931628        288.84
2015    28      2       4.107976        286.7464
2015    28      3       3.934241        284.4949
2015    28      4       5.253369        285.6338
2015    28      5       4.993653        282.1472
2015    28      6       3.670539        276.2219
2015    28      7       3.447187        274.1206
2015    29      0       3.171148        273.7403
2015    29      1       2.785497        270.2653
2015    29      2       2.825838        272.833
2015    29      3       3.27255         278.7566
2015    29      4       4.151114        282.903
2015    29      5       2.759889        267.4354
2015    29      6       2.297188        256.292
2015    29      7       2.863368        269.4031
2015    30      0       3.386043        278.6751
2015    30      1       3.15819         279.2544
2015    30      2       2.911119        276.9743
2015    30      3       3.021625        278.328
2015    30      4       4.197589        287.3885
2015    30      5       3.450598        280.9215
2015    30      6       3.04575         274.9084
2015    30      7       3.966197        282.0178
2015    31      0       3.879298        283.5411
2015    31      1       3.355384        281.6044
2015    31      2       3.19044         280.9614
2015    31      3       3.397047        283.0041
2015    31      4       4.341417        288.6093
2015    31      5       5.21934         289.5512
2015    31      6       6.011282        288.5859
2015    31      7       6.4192          287.5045
2016    1       0       5.82951         289.9931
2016    1       1       3.842031        285.9877
2016    1       2       3.82625         285.6317
2016    1       3       3.616923        284.3443
2016    1       4       3.232087        280.3816
2016    1       5       3.180643        279.4826
2016    1       6       3.542598        282.2714
2016    1       7       3.828778        284.0015
2016    2       0       4.181858        288.1287
2016    2       1       4.314097        290.7345
2016    2       2       4.569848        292.101
2016    2       3       4.648002        291.7484
2016    2       4       5.376107        293.1187
2016    2       5       5.933588        292.5797
2016    2       6       5.685341        292.5662
2016    2       7       5.441683        292.6479
2016    3       0       5.750385        294.59
2016    3       1       5.511205        296.3808
2016    3       2       5.196672        296.461
2016    3       3       4.01456         292.1954
2016    3       4       3.663607        289.0194
2016    3       5       4.621789        292.8563
2016    3       6       7.927988        294.9209
2016    3       7       8.323043        294.0599
2016    4       0       7.836105        295.9401
2016    4       1       6.58813         298.3055
2016    4       2       6.205511        298.9964
2016    4       3       6.116784        298.7278
2016    4       4       6.446566        298.8486
2016    4       5       7.065295        298.4345
2016    4       6       8.087684        296.1478
2016    4       7       8.414677        295.2195
2016    5       0       8.562307        297.0838
2016    5       1       7.470331        299.8141
2016    5       2       8.557459        301.0209
2016    5       3       9.361009        299.9396
2016    5       4       7.626463        297.0166
2016    5       5       7.512028        296.5055
2016    5       6       7.752908        296.096
2016    5       7       9.274124        295.4381
2016    6       0       9.481508        295.911
2016    6       1       9.018212        298.7553
2016    6       2       9.649201        298.0144
2016    6       3       10.0053         295.2917
2016    6       4       12.19799        291.4581
2016    6       5       10.82501        290.2868
2016    6       6       9.54451         288.8683
2016    6       7       10.13414        289.2334
2016    7       0       9.359334        290.7981
2016    7       1       8.633572        292.3131
2016    7       2       8.045834        293.571
2016    7       3       8.136601        293.3116
2016    7       4       8.746137        292.8206
2016    7       5       9.09234         292.0335
2016    7       6       10.20125        290.5746
2016    7       7       10.46453        290.0535
2016    8       0       10.4798         293.6307
2016    8       1       9.596431        296.4396
2016    8       2       9.718614        297.2537
2016    8       3       7.606698        295.5803
2016    8       4       9.136707        292.5383
2016    8       5       10.96484        288.2438
2016    8       6       3.191782        272.3766
2016    8       7       2.719871        263.8695
2016    9       0       2.331462        256.5872
2016    9       1       2.127286        252.2975
2016    9       2       2.14319         252.8906
2016    9       3       2.03956         249.0654
2016    9       4       1.869749        242.0467
2016    9       5       1.867176        241.4168
2016    9       6       2.032711        248.0599
2016    9       7       3.560946        277.1391
2016    10      0       3.521597        278.3122
2016    10      1       3.303018        278.5687
2016    10      2       3.231602        279.1466
2016    10      3       3.403095        280.9433
2016    10      4       3.993495        285.1153
2016    10      5       6.239814        286.6953
2016    10      6       5.927418        284.7136
2016    10      7       5.759676        284.4549
2016    11      0       5.578302        287.2244
2016    11      1       5.213806        289.5291
2016    11      2       4.776931        289.6948
2016    11      3       4.585927        288.8314
2016    11      4       4.694394        288.2965
2016    11      5       4.744599        285.4364
2016    11      6       4.76125         284.5981
2016    11      7       4.37064         282.233
2016    12      0       4.863111        285.6269
2016    12      1       4.867071        288.6696
2016    12      2       5.093453        290.3589
2016    12      3       5.170756        290.5018
2016    12      4       5.308664        290.0635
2016    12      5       5.087464        286.786
2016    12      6       4.881107        285.9532
2016    12      7       4.851232        285.5813
2016    13      0       5.091861        288.1948
2016    13      1       4.69613         289.8615
2016    13      2       4.461053        290.3737
2016    13      3       4.25848         289.3326
2016    13      4       4.05901         287.9417
2016    13      5       3.771966        284.9387
2016    13      6       5.121469        287.3874
2016    13      7       6.077016        288.0781
2016    14      0       5.629425        291.2107
2016    14      1       4.529231        292.1515
2016    14      2       4.451345        292.4963
2016    14      3       5.096669        293.7763
2016    14      4       5.336182        293.6932
2016    14      5       5.452607        292.5228
2016    14      6       6.885956        292.6941
2016    14      7       7.545627        292.0377
2016    15      0       6.564429        292.3821
2016    15      1       6.437337        293.9796
2016    15      2       7.606812        294.8775
2016    15      3       9.708765        293.0289
2016    15      4       9.920921        292.4597
2016    15      5       9.485414        291.6154
2016    15      6       9.443031        290.0616
2016    15      7       8.854631        289.1431
2016    16      0       7.981179        290.3066
2016    16      1       7.131739        293.6749
2016    16      2       8.129551        294.8048
2016    16      3       8.879599        293.9973
2016    16      4       8.384971        293.0279
2016    16      5       8.072016        292.1094
2016    16      6       8.00157         290.2814
2016    16      7       7.94782         290.0433
2016    17      0       8.110073        292.9338
2016    17      1       8.086258        294.9587
2016    17      2       6.970156        295.3615
2016    17      3       6.156842        293.9508
2016    17      4       5.118563        291.7504
2016    17      5       4.88544         289.972
2016    17      6       4.629749        288.2439
2016    17      7       4.476734        287.066
2016    18      0       4.008639        286.0604
2016    18      1       3.5602          284.36
2016    18      2       3.544291        284.6442
2016    18      3       3.639421        284.6624
2016    18      4       4.306835        287.1142
2016    18      5       6.226506        287.0924
2016    18      6       5.894365        285.8389
2016    18      7       5.654817        284.9962
2016    19      0       5.973873        288.6677
2016    19      1       5.536813        290.9579
2016    19      2       5.58488         292.4681
2016    19      3       5.961298        292.8956
2016    19      4       6.105865        292.8893
2016    19      5       6.783995        291.4218
2016    19      6       7.844466        287.6457
2016    19      7       8.343273        287.3371
2016    20      0       9.128733        290.8921
2016    20      1       9.302451        294.602
2016    20      2       7.954024        295.5732
2016    20      3       7.301926        295.6131
2016    20      4       6.842778        295.5842
2016    20      5       6.376479        294.979
2016    20      6       6.709314        293.9329
2016    20      7       7.17169         292.8264
2016    21      0       6.142024        293.8747
2016    21      1       5.090468        294.0314
2016    21      2       5.091483        294.5657
2016    21      3       4.373692        291.291
2016    21      4       3.833022        287.1323
2016    21      5       3.420219        282.5298
2016    21      6       3.422341        282.1875
2016    21      7       4.946771        290.0011
2016    22      0       5.98822         292.9603
2016    22      1       6.006719        294.9096
2016    22      2       6.677589        295.7909
2016    22      3       7.693122        295.3707
2016    22      4       8.79599         292.8263
2016    22      5       8.868508        288.9428
2016    22      6       8.351541        287.8981
2016    22      7       8.37845         287.7662
2016    23      0       8.838342        289.57
2016    23      1       8.441208        291.0324
2016    23      2       8.122056        291.767
2016    23      3       8.092472        290.6099
2016    23      4       6.894767        290.1568
2016    23      5       7.031996        290.0069
2016    23      6       7.83412         289.519
2016    23      7       7.911505        288.7425
2016    24      0       7.927883        290.5356
2016    24      1       7.900922        291.876
2016    24      2       7.663326        292.3397
2016    24      3       7.238243        291.5764
2016    24      4       6.596041        291.1783
2016    24      5       6.824868        290.3249
2016    24      6       7.70292         289.2506
2016    24      7       8.234529        287.7799
2016    25      0       9.023036        287.7517
2016    25      1       9.327054        288.7662
2016    25      2       8.950853        289.5416
2016    25      3       8.39104         290.1077
2016    25      4       7.904381        290.6739
2016    25      5       8.297128        288.0086
2016    25      6       7.785425        287.2541
2016    25      7       7.534599        286.997
2016    26      0       7.039901        289.5496
2016    26      1       6.346571        291.9411
2016    26      2       5.906864        292.7014
2016    26      3       5.344998        291.5387
2016    26      4       4.816373        290.2778
2016    26      5       7.021017        289.5825
2016    26      6       6.864842        288.1214
2016    26      7       7.000165        287.1856
2016    27      0       6.877665        290.2983
2016    27      1       6.414102        293.4425
2016    27      2       5.7786          294.6767
2016    27      3       5.565036        293.852
2016    27      4       4.366209        289.3641
2016    27      5       6.340816        290.0414
2016    27      6       6.802937        288.1116
2016    27      7       6.888794        287.2276
2016    28      0       6.266259        290.0842
2016    28      1       5.746669        293.0456
2016    28      2       5.083587        293.5307
2016    28      3       4.462433        291.623
2016    28      4       3.714405        287.1321
2016    28      5       4.646089        289.632
2016    28      6       7.098267        290.6507
2016    28      7       7.851833        290.0492
2016    29      0       6.648998        292.8858
2016    29      1       5.125545        294.1942
2016    29      2       4.750272        294.6611
2016    29      3       4.588488        293.8989
2016    29      4       4.482273        293.2716
2016    29      5       4.412           292.6552
2016    29      6       4.435416        292.1539
2016    29      7       4.917887        292.1006
2016    30      0       5.098631        293.9732
2016    30      1       4.797896        295.2972
2016    30      2       4.634535        295.6455
2016    30      3       4.327039        294.0248
2016    30      4       4.311542        293.5767
2016    30      5       5.017482        295.1558
2016    30      6       7.103665        296.4607
2016    30      7       8.071188        295.3813
2016    31      0       7.401351        297.0747
2016    31      1       8.318749        299.0211
2016    31      2       9.244384        299.8049
2016    31      3       9.800308        299.246
2016    31      4       10.41691        298.2991
2016    31      5       10.63214        297.7939
2016    31      6       10.3769         297.4177
2016    31      7       10.26641        296.4775
2017    1       0       7.263709        290.193
2017    1       1       7.122586        292.841
2017    1       2       7.301789        294.2847
2017    1       3       7.574454        294.0143
2017    1       4       8.044219        292.5434
2017    1       5       8.849194        289.8145
2017    1       6       9.430763        288.2815
2017    1       7       8.986969        287.4364
2017    2       0       8.698588        288.8659
2017    2       1       9.238534        290.7794
2017    2       2       11.02436        290.4093
2017    2       3       6.454545        286.9747
2017    2       4       3.769575        279.5909
2017    2       5       4.014118        279.3689
2017    2       6       4.358966        279.6406
2017    2       7       4.679695        279.2694
2017    3       0       4.484746        280.9192
2017    3       1       4.094481        282.0573
2017    3       2       3.824894        281.5802
2017    3       3       3.688957        280.0089
2017    3       4       3.436516        276.9866
2017    3       5       3.27584         274.5662
2017    3       6       3.37113         274.4023
2017    3       7       3.581886        275.1958
2017    4       0       3.655284        277.6169
2017    4       1       4.253712        281.2538
2017    4       2       3.503871        276.6003
2017    4       3       3.159047        273.0695
2017    4       4       2.897361        269.0095
2017    4       5       2.837543        267.4778
2017    4       6       2.96555         268.7389
2017    4       7       3.252555        271.8608
2017    5       0       3.027998        270.1196
2017    5       1       2.782204        267.7424
2017    5       2       2.736872        267.3236
2017    5       3       2.720519        266.3875
2017    5       4       2.835457        267.5737
2017    5       5       2.94005         268.5776
2017    5       6       3.04866         269.8067
2017    5       7       3.522372        274.5741
2017    6       0       3.882991        278.1025
2017    6       1       3.682761        278.5657
2017    6       2       3.813635        280.6412
2017    6       3       4.03223         281.8397
2017    6       4       3.839417        280.891
2017    6       5       3.590281        279.0627
2017    6       6       3.497695        277.6582
2017    6       7       3.229302        274.1734
2017    7       0       2.890475        270.5663
2017    7       1       2.594365        266.5418
2017    7       2       2.495853        265.4158
2017    7       3       2.458351        264.4136
2017    7       4       2.720627        269.9206
2017    7       5       3.13336         275.9973
2017    7       6       3.381827        277.9497
2017    7       7       4.01882         281.871
2017    8       0       5.717525        289.5185
2017    8       1       3.955427        285.0771
2017    8       2       3.579728        282.8373
2017    8       3       4.381728        287.7149
2017    8       4       4.553668        286.2547
2017    8       5       4.425813        284.6418
2017    8       6       4.499589        284.2392
2017    8       7       4.501292        283.7616
2017    9       0       4.438526        284.9391
2017    9       1       3.423091        280.1231
2017    9       2       3.128161        277.2679
2017    9       3       3.341546        279.2816
2017    9       4       4.117999        284.3453
2017    9       5       5.427928        287.1046
2017    9       6       5.855245        286.6851
2017    9       7       5.741446        286.3605
2017    10      0       5.081884        286.9261
2017    10      1       4.061885        285.4593
2017    10      2       3.61762         283.1703
2017    10      3       3.518898        281.69
2017    10      4       4.619497        287.543
2017    10      5       6.24692         287.5282
2017    10      6       5.810307        286.9442
2017    10      7       5.603111        286.3437
2017    11      0       5.19284         287.5534
2017    11      1       4.447907        288.0516
2017    11      2       3.676262        285.126
2017    11      3       2.995326        277.0578
2017    11      4       3.117717        278.2065
2017    11      5       4.672402        287.2334
2017    11      6       5.097636        286.9163
2017    11      7       4.729608        285.791
2017    12      0       4.405197        286.6639
2017    12      1       3.694716        285.1651
2017    12      2       3.811692        286.7601
2017    12      3       4.078531        288.1612
2017    12      4       4.164221        288.108
2017    12      5       5.657895        288.8891
2017    12      6       5.886274        288.1966
2017    12      7       5.290521        287.055
2017    13      0       5.303969        289.8951
2017    13      1       4.654583        291.0956
2017    13      2       4.450725        291.1246
2017    13      3       4.253733        290.1038
2017    13      4       4.17542         289.2002
2017    13      5       5.255417        289.8822
2017    13      6       5.867681        288.9502
2017    13      7       5.816064        288.558
2017    14      0       5.3354          291.351
2017    14      1       4.518516        292.4868
2017    14      2       4.220491        291.9714
2017    14      3       4.005317        290.4764
2017    14      4       4.025779        290.3943
2017    14      5       4.190647        291.0391
2017    14      6       4.195036        290.1058
2017    14      7       4.826095        290.6747
2017    15      0       5.468919        293.626
2017    15      1       5.758033        296.4741
2017    15      2       5.842134        297.5959
2017    15      3       6.205124        297.8556
2017    15      4       6.597637        297.4485
2017    15      5       7.154988        295.4381
2017    15      6       7.254457        290.779
2017    15      7       7.890204        290.0378
2017    16      0       7.593288        293.0357
2017    16      1       7.217678        296.7081
2017    16      2       6.898624        298.1358
2017    16      3       6.620364        297.8916
2017    16      4       6.485274        297.4176
2017    16      5       6.724525        296.8129
2017    16      6       8.221797        292.9935
2017    16      7       8.905442        290.8995
2017    17      0       8.797885        293.4481
2017    17      1       7.923075        296.517
2017    17      2       6.885886        297.4877
2017    17      3       6.371851        296.8736
2017    17      4       7.605043        294.6109
2017    17      5       7.243556        292.709
2017    17      6       7.046047        291.896
2017    17      7       7.444375        290.3518
2017    18      0       7.605394        292.8315
2017    18      1       6.951649        296.2027
2017    18      2       6.386377        297.4935
2017    18      3       5.968838        297.1768
2017    18      4       5.806322        296.5102
2017    18      5       5.857517        295.7182
2017    18      6       6.576628        292.966
2017    18      7       7.040387        292.6644
2017    19      0       7.019956        294.8854
2017    19      1       6.536337        297.7107
2017    19      2       6.630868        298.9846
2017    19      3       6.81924         298.8246
2017    19      4       6.747783        298.0573
2017    19      5       6.945991        297.5839
2017    19      6       7.113463        296.0709
2017    19      7       6.422199        293.8556
2017    20      0       5.941978        295.1974
2017    20      1       18.78525        303.6405
2017    20      2       5.913647        298.9564
2017    20      3       7.787197        299.8366
2017    20      4       10.01577        296.39
2017    20      5       11.89839        293.8541
2017    20      6       12.61098        291.864
2017    20      7       12.87629        292.2769
2017    21      0       11.74725        292.3155
2017    21      1       10.56629        293.3807
2017    21      2       10.46707        293.662
2017    21      3       10.66559        293.0234
2017    21      4       9.790108        292.6491
2017    21      5       9.276575        292.0631
2017    21      6       8.879963        291.5133
2017    21      7       9.231023        291.1203
2017    22      0       7.967563        291.7216
2017    22      1       6.112288        293.4059
2017    22      2       5.036273        293.4029
2017    22      3       4.890483        292.1226
2017    22      4       5.088628        291.7503
2017    22      5       6.454303        292.0091
2017    22      6       8.366335        291.4966
2017    22      7       9.147065        290.8453
2017    23      0       6.716263        293.0365
2017    23      1       5.155884        293.3816
2017    23      2       5.101299        294.0438
2017    23      3       4.942159        293.6915
2017    23      4       4.678032        292.7771
2017    23      5       4.594834        292.0365
2017    23      6       5.040036        292.3469
2017    23      7       5.773767        292.6602
2017    24      0       6.197651        294.494
2017    24      1       6.166624        297.044
2017    24      2       6.207943        298.3112
2017    24      3       7.168479        298.5957
2017    24      4       6.097481        297.5288
2017    24      5       5.538641        295.4258
2017    24      6       5.921159        294.6275
2017    24      7       6.609637        294.3289
2017    25      0       7.149708        296.1902
2017    25      1       6.789446        296.4384
2017    25      2       6.597041        296.0757
2017    25      3       6.033471        293.0335
2017    25      4       10.34322        294.8736
2017    25      5       5.868352        290.3486
2017    25      6       7.223536        289.6913
2017    25      7       6.712485        288.2687
2017    26      0       7.735542        291.3465
2017    26      1       8.010582        294.0782
2017    26      2       7.246754        294.877
2017    26      3       9.333151        293.2928
2017    26      4       10.0748         289.3654
2017    26      5       7.492138        288.042
2017    26      6       5.055054        285.5429
2017    26      7       4.768616        285.2486
2017    27      0       5.154652        288.0562
2017    27      1       4.873703        290.0106
2017    27      2       4.536253        290.3836
2017    27      3       4.45296         289.6668
2017    27      4       6.340689        291.1076
2017    27      5       6.193237        289.4412
2017    27      6       5.752508        288.0583
2017    27      7       5.749519        287.3871
2017    28      0       5.658815        290.2108
2017    28      1       4.987593        291.8339
2017    28      2       4.94185         292.7756
2017    28      3       5.043037        293.0348
2017    28      4       5.913152        292.9709
2017    28      5       7.534992        291.2673
2017    28      6       7.638814        290.3396
2017    28      7       8.080911        289.5299
2017    29      0       8.034371        292.0942
2017    29      1       7.589056        294.7043
2017    29      2       7.419458        295.6645
2017    29      3       7.640721        295.7879
2017    29      4       7.762161        295.8976
2017    29      5       8.022008        295.9172
2017    29      6       9.7406          293.6661
2017    29      7       9.958512        292.1649
2017    30      0       10.2546         293.3849
2017    30      1       10.07473        296.6899
2017    30      2       9.877608        297.1355
2017    30      3       8.516222        296.5626
2017    30      4       7.688762        295.0921
2017    30      5       6.220644        293.1433
2017    30      6       4.428951        288.6302
2017    30      7       4.63751         288.9887
2017    31      0       4.607718        290.6476
2017    31      1       4.088699        290.5318
2017    31      2       3.534941        287.043
2017    31      3       2.914531        277.8022
2017    31      4       2.531567        267.3311
2017    31      5       3.780284        283.8013
2017    31      6       7.762283        291.5164
2017    31      7       7.9826          291.2682
2018    1       0       2.389051        262.1548
2018    1       1       2.110358        255.0465
2018    1       2       2.015616        252.1097
2018    1       3       2.134326        255.237
2018    1       4       2.222586        257.3597
2018    1       5       2.54529         265.2178
2018    1       6       3.323399        276.395
2018    1       7       3.175764        274.7439
2018    2       0       3.87726         284.4597
2018    2       1       3.67237         285.6263
2018    2       2       4.985894        294.3655
2018    2       3       3.692463        286.4973
2018    2       4       2.694338        269.4974
2018    2       5       2.929715        271.5566
2018    2       6       2.73977         267.5685
2018    2       7       2.541618        262.9659
2018    3       0       2.12127         252.5901
2018    3       1       1.92592         246.8306
2018    3       2       1.811181        242.4246
2018    3       3       2.126395        254.2314
2018    3       4       2.493529        264.0889
2018    3       5       2.891747        270.7803
2018    3       6       3.161455        274.1489
2018    3       7       3.581473        277.969
2018    4       0       4.210429        281.6916
2018    4       1       4.052734        282.4602
2018    4       2       3.537269        280.382
2018    4       3       3.378048        279.3365
2018    4       4       3.120493        276.4566
2018    4       5       4.796648        285.9783
2018    4       6       5.203731        286.5042
2018    4       7       5.083902        285.6104
2018    5       0       4.872524        286.9372
2018    5       1       4.448381        287.0301
2018    5       2       4.54178         287.7582
2018    5       3       4.81448         288.138
2018    5       4       5.23893         286.1258
2018    5       5       4.510416        282.0977
2018    5       6       4.033833        278.9502
2018    5       7       4.79418         281.3981
2018    6       0       4.189546        282.3926
2018    6       1       3.435215        279.7317
2018    6       2       3.062924        276.3671
2018    6       3       3.023488        275.5838
2018    6       4       4.140797        283.0249
2018    6       5       4.229909        282.0686
2018    6       6       3.369627        275.1807
2018    6       7       3.207549        272.7126
2018    7       0       3.717937        280.0398
2018    7       1       3.084738        276.5486
2018    7       2       2.781035        272.967
2018    7       3       2.812363        273.4026
2018    7       4       3.4493          279.7351
2018    7       5       2.97305         272.0652
2018    7       6       2.610721        264.1667
2018    7       7       3.764459        277.7548
2018    8       0       3.688639        279.984
2018    8       1       3.159257        277.6768
2018    8       2       2.90442         275.2776
2018    8       3       2.970413        275.878
2018    8       4       3.305074        280.2264
2018    8       5       4.5139          286.2791
2018    8       6       4.906598        286.3342
2018    8       7       4.961031        286.0069
2018    9       0       4.677778        286.6789
2018    9       1       3.822896        285.4816
2018    9       2       3.662385        285.4588
2018    9       3       3.616222        285.1755
2018    9       4       4.307646        288.3717
2018    9       5       5.792619        288.7169
2018    9       6       6.052685        288.1038
2018    9       7       6.610751        287.3209
2018    10      0       6.683394        290.6161
2018    10      1       5.604602        294.1221
2018    10      2       5.518434        295.2646
2018    10      3       5.871464        295.2095
2018    10      4       6.465569        294.7067
2018    10      5       7.387552        293.1482
2018    10      6       8.06463         291.0354
2018    10      7       8.644046        290.0193
2018    11      0       8.485475        290.3531
2018    11      1       7.667219        291.5459
2018    11      2       7.060999        293.0539
2018    11      3       6.881038        292.4489
2018    11      4       7.02453         291.7899
2018    11      5       7.095973        290.8959
2018    11      6       7.411702        289.1509
2018    11      7       7.421093        288.1352
2018    12      0       7.272807        290.5231
2018    12      1       6.520823        293.6414
2018    12      2       6.763357        295.2518
2018    12      3       7.554255        294.8452
2018    12      4       10.10289        290.6391
2018    12      5       8.501378        291.078
2018    12      6       8.052742        290.8221
2018    12      7       8.357328        290.5276
2018    13      0       8.703038        293.4045
2018    13      1       9.715574        295.4246
2018    13      2       10.27621        295.4471
2018    13      3       10.32251        295.0794
2018    13      4       10.42575        293.5124
2018    13      5       9.460008        291.9204
2018    13      6       9.120053        289.8957
2018    13      7       9.066688        288.7731
2018    14      0       8.270403        289.8177
2018    14      1       6.78278         290.4549
2018    14      2       4.802569        288.832
2018    14      3       3.44901         280.352
2018    14      4       2.688992        268.004
2018    14      5       2.328131        258.4158
2018    14      6       2.359019        258.4817
2018    14      7       2.726346        267.2854
2018    15      0       4.828457        287.17
2018    15      1       5.22232         290.6396
2018    15      2       3.861896        287.3801
2018    15      3       2.832506        275.3604
2018    15      4       2.42071         265.0349
2018    15      5       2.968531        272.5942
2018    15      6       5.289246        288.8208
2018    15      7       9.305122        290.6446
2018    16      0       9.051003        291.6831
2018    16      1       8.22246         294.5507
2018    16      2       9.001272        294.974
2018    16      3       8.384819        294.4176
2018    16      4       8.409688        292.9579
2018    16      5       8.512655        291.7794
2018    16      6       8.631156        291.3819
2018    16      7       9.954863        290.6431
2018    17      0       8.358463        292.3342
2018    17      1       7.352235        294.6132
2018    17      2       6.636924        295.8744
2018    17      3       6.321575        295.8425
2018    17      4       6.298763        295.4928
2018    17      5       7.186607        294.4993
2018    17      6       8.817769        291.1075
2018    17      7       8.579517        290.4318
2018    18      0       7.905957        293.5736
2018    18      1       7.217274        295.9323
2018    18      2       6.820708        297.1222
2018    18      3       6.483564        297.1154
2018    18      4       6.384507        296.8153
2018    18      5       6.926658        296.1921
2018    18      6       9.038646        293.0799
2018    18      7       9.201944        291.9486
2018    19      0       8.849059        294.9718
2018    19      1       8.126192        298.0444
2018    19      2       7.977504        301.2789
2018    19      3       7.4938          301.223
2018    19      4       7.903397        300.2089
2018    19      5       10.73574        297.045
2018    19      6       9.960399        296.1854
2018    19      7       10.29292        295.2137
2018    20      0       8.753414        299.674
2018    20      1       7.786588        303.3249
2018    20      2       7.512034        305.0735
2018    20      3       7.748458        304.5182
2018    20      4       7.20559         302.1337
2018    20      5       8.492095        299.4588
2018    20      6       8.104874        297.6207
2018    20      7       7.722504        297.5841
2018    21      0       7.498912        301.2433
2018    21      1       7.457156        302.6016
2018    21      2       7.560631        303.0004
2018    21      3       8.008433        299.9775
2018    21      4       5.123222        290.5745
2018    21      5       4.05968         282.9061
2018    21      6       3.222421        275.6748
2018    21      7       3.354879        276.771
2018    22      0       2.480155        264.7812
2018    22      1       2.200684        258.3659
2018    22      2       2.357676        263.2119
2018    22      3       2.728358        270.9031
2018    22      4       4.517697        285.7125
2018    22      5       4.629812        283.8086
2018    22      6       3.871799        278.5797
2018    22      7       3.566113        275.8946
2018    23      0       2.804205        269.2692
2018    23      1       2.255793        258.4328
2018    23      2       2.170121        256.7197
2018    23      3       2.58634         268.0135
2018    23      4       3.417945        279.8264
2018    23      5       4.853652        284.0712
2018    23      6       4.563463        282.9322
2018    23      7       4.380468        282.0562
2018    24      0       3.807964        282.023
2018    24      1       3.051897        276.8912
2018    24      2       2.751452        272.5664
2018    24      3       2.615782        269.6742
2018    24      4       2.482299        266.1181
2018    24      5       4.518667        285.4212
2018    24      6       5.4788          285.7324
2018    24      7       5.790617        285.241
2018    25      0       4.967544        287.4267
2018    25      1       4.014781        286.8059
2018    25      2       3.689188        286.0216
2018    25      3       3.618287        285.3152
2018    25      4       3.672516        285.1742
2018    25      5       3.879677        285.8193
2018    25      6       4.54325         286.1763
2018    25      7       4.713263        286.1638
2018    26      0       4.600557        288.2172
2018    26      1       3.987043        288.1896
2018    26      2       3.927064        288.7125
2018    26      3       4.148023        289.6046
2018    26      4       4.282565        289.5906
2018    26      5       4.960617        288.2575
2018    26      6       5.290951        287.9131
2018    26      7       5.780936        287.3707
2018    27      0       5.305454        289.5521
2018    27      1       4.059901        289.3771
2018    27      2       3.831436        288.7219
2018    27      3       3.982237        289.2293
2018    27      4       4.27002         289.9311
2018    27      5       5.021817        287.9137
2018    27      6       4.786232        286.6197
2018    27      7       4.522518        284.7252
2018    28      0       4.140244        285.3692
2018    28      1       3.00353         278.273
2018    28      2       2.544874        270.4328
2018    28      3       2.558835        270.1445
2018    28      4       2.749399        273.5641
2018    28      5       4.305399        286.7338
2018    28      6       4.749985        285.959
2018    28      7       4.792971        284.2524
2018    29      0       4.183721        285.4884
2018    29      1       3.295856        282.5948
2018    29      2       2.504858        270.4827
2018    29      3       2.357718        266.2803
2018    29      4       2.658695        272.6427
2018    29      5       5.914304        289.9607
2018    29      6       6.343346        288.0919
2018    29      7       6.232027        287.4593
2018    30      0       5.365057        290.3694
2018    30      1       3.641653        286.5806
2018    30      2       2.908887        278.9846
2018    30      3       2.928603        278.7643
2018    30      4       3.284022        283.5072
2018    30      5       3.945866        288.9483
2018    30      6       5.241478        291.4171
2018    30      7       6.17872         290.8232
2018    31      0       5.698439        292.5302
2018    31      1       4.751935        293.0175
2018    31      2       4.182726        291.4693
2018    31      3       4.023685        289.8993
2018    31      4       4.129499        289.5751
2018    31      5       4.108625        287.4484
2018    31      6       5.524727        290.0361
2018    31      7       7.532863        290.1594
