####################################################################################################
# Month: 06Jun                                                                                     #
# Station: CAS                                                                                     #
# Frequency: 345 GHz                                                                               #
# Columns are: year    day     segment         tau     Tb (K)                                      #
####################################################################################################
2009    1       0       2.685279        247.3805
2009    1       1       2.721787        247.7967
2009    1       2       2.3724          240.3883
2009    1       3       2.389022        241.0976
2009    1       4       2.825892        249.893
2009    1       5       3.116675        254.0459
2009    1       6       2.902991        251.1346
2009    1       7       3.079984        254.556
2009    2       0       3.282711        256.8961
2009    2       1       2.772834        249.3072
2009    2       2       2.007728        229.6492
2009    2       3       2.257583        237.6119
2009    2       4       2.381974        240.7116
2009    2       5       2.422593        241.482
2009    2       6       2.334063        238.8684
2009    2       7       2.25643         235.5457
2009    3       0       2.146026        232.8393
2009    3       1       2.073007        229.9371
2009    3       2       2.201816        234.1414
2009    3       3       2.495713        242.3081
2009    3       4       2.491311        242.4968
2009    3       5       2.438348        241.6119
2009    3       6       2.690491        247.8599
2009    3       7       2.769342        249.689
2009    4       0       2.933144        252.665
2009    4       1       3.112506        255.0137
2009    4       2       2.730718        249.8938
2009    4       3       2.754553        250.7297
2009    4       4       3.005681        254.2079
2009    4       5       2.908755        252.4365
2009    4       6       2.912929        252.6622
2009    4       7       2.304802        247.1843
2009    5       0       2.64557         254.7702
2009    5       1       2.31275         250.7833
2009    5       2       2.603548        249.0255
2009    5       3       2.481441        246.1103
2009    5       4       1.572702        212.2404
2009    5       5       0.4495212       98.62082
2009    5       6       0.5515794       114.0468
2009    5       7       0.4795191       103.2454
2009    6       0       0.5319532       111.7273
2009    6       1       0.41829         93.48307
2009    6       2       0.35495         81.78121
2009    6       3       0.4013905       88.84039
2009    6       4       0.691153        129.9961
2009    6       5       0.5971002       117.9602
2009    6       6       0.833604        149.2462
2009    6       7       1.003145        167.3962
2009    7       0       1.110853        177.3589
2009    7       1       1.046277        171.3589
2009    7       2       1.235083        188.7841
2009    7       3       1.801402        222.6969
2009    7       4       1.658458        216.7804
2009    7       5       1.218401        189.458
2009    7       6       1.130951        181.9191
2009    7       7       1.855491        225.7854
2009    8       0       2.297885        241.6265
2009    8       1       2.460988        245.4957
2009    8       2       2.719862        250.324
2009    8       3       2.762916        250.4933
2009    8       4       3.089439        256.9548
2009    8       5       3.045794        257.1902
2009    8       6       2.823653        253.2601
2009    8       7       2.603102        249.3951
2009    9       0       2.143183        237.0895
2009    9       1       2.126862        233.308
2009    9       2       1.832872        222.8911
2009    9       3       1.671853        214.5729
2009    9       4       1.60989         210.2092
2009    9       5       1.395403        197.9352
2009    9       6       1.373714        196.866
2009    9       7       1.337714        194.3642
2009    10      0       1.674674        213.6096
2009    10      1       2.412952        241.7081
2009    10      2       2.541734        247.1515
2009    10      3       2.580294        247.4699
2009    10      4       2.354402        241.3031
2009    10      5       2.295462        240.1739
2009    10      6       2.71853         249.344
2009    10      7       3.116173        255.8554
2009    11      0       2.311254        240.5209
2009    11      1       1.419394        201.48
2009    11      2       3.457034        262.5312
2009    11      3       3.800071        266.6373
2009    11      4       3.881659        266.9747
2009    11      5       3.906177        268.0302
2009    11      6       4.234248        270.043
2009    11      7       3.732063        265.6809
2009    12      0       3.294007        260.9573
2009    12      1       3.362131        262.1533
2009    12      2       3.428905        262.2277
2009    12      3       3.514238        261.6342
2009    12      4       3.10368         256.6999
2009    12      5       2.98799         254.9783
2009    12      6       3.260725        259.2566
2009    12      7       3.851427        265.3099
2009    13      0       4.430545        268.4732
2009    13      1       5.115807        271.3002
2009    13      2       4.84426         271.9583
2009    13      3       3.980932        269.1881
2009    13      4       4.234887        270.001
2009    13      5       3.876985        268.2489
2009    13      6       3.976583        269.0385
2009    13      7       3.495961        265.0483
2009    14      0       2.778815        252.7084
2009    14      1       2.327309        239.0621
2009    14      2       1.348631        195.8719
2009    14      3       1.79687         219.9356
2009    14      4       1.976304        228.4813
2009    14      5       2.205458        237.3517
2009    14      6       2.297896        240.7541
2009    14      7       1.736781        220.3646
2009    15      0       1.706712        219.0875
2009    15      1       2.08147         232.1706
2009    15      2       1.921246        225.7758
2009    15      3       1.208531        186.5671
2009    15      4       1.379562        197.9072
2009    15      5       1.720345        215.5969
2009    15      6       1.855193        221.1444
2009    15      7       1.411933        198.6172
2009    16      0       2.087659        231.1762
2009    16      1       2.217772        237.2831
2009    16      2       1.736351        216.0759
2009    16      3       1.410947        197.8325
2009    16      4       1.55026         207.3198
2009    16      5       1.59983         210.3411
2009    16      6       1.955845        226.8232
2009    16      7       1.995291        229.8063
2009    17      0       1.917255        227.5936
2009    17      1       1.956819        228.7261
2009    17      2       1.945182        227.3628
2009    17      3       2.107747        231.9034
2009    17      4       1.044309        171.1693
2009    17      5       1.285065        189.6606
2009    17      6       1.571844        207.0962
2009    17      7       1.480972        201.6604
2009    18      0       1.295408        190.1765
2009    18      1       1.61831         209.6652
2009    18      2       1.568804        207.5166
2009    18      3       1.56555         206.5754
2009    18      4       1.399392        196.852
2009    18      5       1.524858        203.741
2009    18      6       1.53441         204.3391
2009    18      7       1.422602        197.9919
2009    19      0       1.573164        207.2291
2009    19      1       1.710589        215.8812
2009    19      2       1.880573        223.6254
2009    19      3       1.809918        220.4501
2009    19      4       1.358441        195.2767
2009    19      5       1.404778        197.3399
2009    19      6       1.510608        203.4185
2009    19      7       1.427361        198.537
2009    20      0       1.622896        209.4941
2009    20      1       1.51229         203.6066
2009    20      2       1.715658        215.1205
2009    20      3       1.322487        191.0376
2009    20      4       0.9428887       158.919
2009    20      5       0.6502692       126.0632
2009    20      6       0.756749        139.8278
2009    20      7       1.298266        190.0643
2009    21      0       1.773851        216.3909
2009    21      1       1.20493         181.7911
2009    21      2       1.172217        178.5696
2009    21      3       1.113914        173.9278
2009    21      4       1.26015         185.6687
2009    21      5       1.207551        181.2929
2009    21      6       1.234888        183.5716
2009    21      7       1.273817        187.2519
2009    22      0       1.348212        192.3184
2009    22      1       1.577636        205.9693
2009    22      2       1.427056        196.4164
2009    22      3       1.336471        190.2745
2009    22      4       1.248197        184.5663
2009    22      5       1.6344          208.2467
2009    22      6       1.581874        205.0403
2009    22      7       1.637274        207.3052
2009    23      0       1.278401        186.2762
2009    23      1       1.177743        179.0209
2009    23      2       1.246092        184.115
2009    23      3       1.50136         201.2799
2009    23      4       1.425335        199.3466
2009    23      5       2.371576        240.162
2009    23      6       1.739505        218.1096
2009    23      7       1.906824        225.0417
2009    24      0       1.845447        220.8896
2009    24      1       1.323386        190.2325
2009    24      2       1.564941        203.9188
2009    24      3       1.048111        167.7406
2009    24      4       1.467898        199.2037
2009    24      5       1.326831        190.9489
2009    24      6       1.464263        200.4195
2009    24      7       1.483278        202.0336
2009    25      0       1.414969        198.2091
2009    25      1       1.209648        184.2258
2009    25      2       1.442563        200.048
2009    25      3       1.389681        196.9789
2009    25      4       1.251402        187.9216
2009    25      5       1.380034        202.3128
2009    25      6       1.463721        202.3285
2009    25      7       1.698172        214.5101
2009    26      0       1.884759        223.1075
2009    26      1       2.353152        239.1886
2009    26      2       1.360184        196.6599
2009    26      3       1.36623         197.788
2009    26      4       1.525303        208.7008
2009    26      5       1.593887        213.3162
2009    26      6       1.590208        213.6662
2009    26      7       1.464167        206.8881
2009    27      0       1.303257        196.3742
2009    27      1       1.181493        187.5835
2009    27      2       1.093384        180.3323
2009    27      3       1.046522        176.3453
2009    27      4       0.8189097       152.1605
2009    27      5       0.717224        138.961
2009    27      6       0.7220239       139.027
2009    27      7       0.7842672       146.2163
2009    28      0       0.9055949       160.0182
2009    28      1       0.916812        161.4501
2009    28      2       1.025387        172.4119
2009    28      3       1.25467         191.5266
2009    28      4       1.798065        223.2908
2009    28      5       2.749328        251.7781
2009    28      6       2.91366         254.5878
2009    28      7       2.947809        255.0374
2009    29      0       2.88765         254.3432
2009    29      1       2.997807        256.5949
2009    29      2       3.652955        264.5839
2009    29      3       3.123342        258.1867
2009    29      4       3.365108        261.1234
2009    29      5       3.559735        262.6262
2009    29      6       3.353703        260.55
2009    29      7       3.185595        259.3102
2009    30      0       3.2884          260.0688
2009    30      1       3.323625        259.1305
2009    30      2       3.030694        255.0136
2009    30      3       2.991215        254.4597
2009    30      4       2.647151        249.2083
2009    30      5       2.455845        245.5451
2009    30      6       2.409122        243.9339
2009    30      7       1.491296        208.4453
2010    1       0       2.882211        255.6713
2010    1       1       3.010725        256.9849
2010    1       2       3.193809        259.5708
2010    1       3       2.841849        254.6906
2010    1       4       2.001859        234.0952
2010    1       5       1.563635        213.284
2010    1       6       1.998585        234.3245
2010    1       7       3.488298        265.0225
2010    2       0       2.635328        250.7586
2010    2       1       1.102244        179.537
2010    2       2       1.010579        170.9889
2010    2       3       1.698902        217.5961
2010    2       4       2.086075        231.686
2010    2       5       1.814908        222.1656
2010    2       6       1.113219        179.794
2010    2       7       0.8672111       156.2989
2010    3       0       0.7678052       144.6093
2010    3       1       0.4581815       100.5647
2010    3       2       0.5525076       115.1283
2010    3       3       0.7522547       141.8563
2010    3       4       1.08561         177.1557
2010    3       5       1.931287        228.1361
2010    3       6       2.120785        235.4985
2010    3       7       2.324859        241.4008
2010    4       0       2.510914        245.3188
2010    4       1       2.116691        234.0028
2010    4       2       2.325544        239.404
2010    4       3       1.998769        229.3054
2010    4       4       1.420034        200.6638
2010    4       5       1.38611         197.5263
2010    4       6       2.461678        242.9888
2010    4       7       3.110293        255.8856
2010    5       0       2.944511        256.0685
2010    5       1       2.288304        242.2375
2010    5       2       2.60542         247.7942
2010    5       3       3.20582         256.0747
2010    5       4       2.322958        239.9686
2010    5       5       2.471503        244.2105
2010    5       6       2.403271        243.4506
2010    5       7       2.636346        247.9708
2010    6       0       2.658558        247.8154
2010    6       1       2.403067        242.7765
2010    6       2       2.667663        247.6886
2010    6       3       2.500489        242.7569
2010    6       4       2.431882        240.2529
2010    6       5       2.518351        241.8577
2010    6       6       2.528562        242.1095
2010    6       7       2.441072        239.8854
2010    7       0       2.576832        243.7612
2010    7       1       2.637379        244.9301
2010    7       2       2.525658        242.2737
2010    7       3       1.670241        214.1403
2010    7       4       2.585466        243.9398
2010    7       5       1.846106        221.3901
2010    7       6       2.494729        242.8318
2010    7       7       1.764709        219.8222
2010    8       0       1.453436        203.2765
2010    8       1       0.78402         144.2028
2010    8       2       0.903353        157.0811
2010    8       3       0.5816709       118.4917
2010    8       4       0.7061389       135.7313
2010    8       5       0.7383877       139.8208
2010    8       6       0.6457005       128.671
2010    8       7       0.5089052       109.8219
2010    9       0       0.3171469       76.76521
2010    9       1       0.2756869       67.3002
2010    9       2       0.6326374       124.164
2010    9       3       1.869803        228.9198
2010    9       4       3.376572        264.896
2010    9       5       2.911845        256.4272
2010    9       6       2.71713         250.2727
2010    9       7       2.541022        246.1298
2010    10      0       1.460853        205.8262
2010    10      1       1.454412        206.1111
2010    10      2       1.85495         226.2163
2010    10      3       2.593956        247.9559
2010    10      4       2.43579         246.3945
2010    10      5       2.596179        249.6049
2010    10      6       2.606107        249.6117
2010    10      7       1.920482        230.1627
2010    11      0       1.275014        194.2803
2010    11      1       1.368312        200.7022
2010    11      2       1.701828        219.9916
2010    11      3       1.942424        230.8908
2010    11      4       2.020241        235.2896
2010    11      5       2.259104        242.391
2010    11      6       1.914416        231.2024
2010    11      7       2.317839        243.8825
2010    12      0       3.122677        258.2335
2010    12      1       2.640574        250.997
2010    12      2       2.490988        247.4515
2010    12      3       2.322769        243.5982
2010    12      4       2.640982        250.7079
2010    12      5       2.589314        247.2404
2010    12      6       2.002836        226.6956
2010    12      7       1.404879        197.8519
2010    13      0       1.157441        180.0985
2010    13      1       1.252754        187.366
2010    13      2       1.648696        211.888
2010    13      3       1.942246        225.6752
2010    13      4       1.536046        207.6548
2010    13      5       1.320514        194.059
2010    13      6       1.195104        184.2754
2010    13      7       1.104383        176.5368
2010    14      0       1.018503        168.2281
2010    14      1       1.037777        169.4731
2010    14      2       1.148965        178.5176
2010    14      3       1.304315        189.442
2010    14      4       0.9015215       155.4559
2010    14      5       1.6326          209.392
2010    14      6       1.357995        193.8245
2010    14      7       1.018785        167.4574
2010    15      0       1.261624        187.0744
2010    15      1       1.504045        202.5691
2010    15      2       1.503444        202.6663
2010    15      3       1.357214        194.2206
2010    15      4       1.220817        185.0112
2010    15      5       1.439656        199.9313
2010    15      6       1.497914        203.5602
2010    15      7       1.547487        206.4949
2010    16      0       1.527117        205.7011
2010    16      1       1.48459         203.6657
2010    16      2       1.301192        191.9865
2010    16      3       1.159866        181.7106
2010    16      4       1.283705        191.6801
2010    16      5       1.668243        214.5748
2010    16      6       1.992393        227.3517
2010    16      7       1.700472        213.2534
2010    17      0       1.083198        171.777
2010    17      1       1.075782        170.26
2010    17      2       1.717886        211.5116
2010    17      3       1.8139          217.1804
2010    17      4       1.943283        223.8323
2010    17      5       1.961594        225.11
2010    17      6       1.901723        222.6904
2010    17      7       2.386464        237.9667
2010    18      0       2.185818        232.3992
2010    18      1       2.150569        230.7889
2010    18      2       1.824843        217.8172
2010    18      3       1.42341         196.3172
2010    18      4       1.286952        187.1859
2010    18      5       1.314297        189.0494
2010    18      6       1.487213        200.3613
2010    18      7       1.270103        186.4996
2010    19      0       1.148583        177.1253
2010    19      1       1.159445        177.3916
2010    19      2       1.213336        180.9158
2010    19      3       1.28365         186.337
2010    19      4       1.503063        200.258
2010    19      5       1.614808        207.6288
2010    19      6       1.773562        216.2562
2010    19      7       1.693359        213.5175
2010    20      0       1.853628        220.914
2010    20      1       2.034529        227.7442
2010    20      2       1.73307         215.8436
2010    20      3       1.693829        214.0944
2010    20      4       1.569648        207.9895
2010    20      5       1.331965        193.799
2010    20      6       1.188483        183.4774
2010    20      7       1.121844        178.3094
2010    21      0       0.9342769       161.2229
2010    21      1       0.6620467       129.5486
2010    21      2       0.5232464       109.4492
2010    21      3       0.5733028       115.935
2010    21      4       0.7176088       135.4826
2010    21      5       1.419709        201.0229
2010    21      6       1.744987        219.9233
2010    21      7       2.115952        234.5012
2010    22      0       2.094511        232.5074
2010    22      1       2.153677        234.5671
2010    22      2       1.993256        228.8712
2010    22      3       1.610585        211.9305
2010    22      4       1.4962          205.4118
2010    22      5       1.658815        214.2768
2010    22      6       1.709951        217.3809
2010    22      7       1.618474        214.0426
2010    23      0       1.766959        221.7772
2010    23      1       1.687376        216.9546
2010    23      2       2.733168        249.5409
2010    23      3       2.989258        254.1589
2010    23      4       2.848206        251.8537
2010    23      5       2.403015        242.8118
2010    23      6       2.511305        244.7789
2010    23      7       2.518455        244.0517
2010    24      0       2.038185        230.6646
2010    24      1       1.766755        219.5954
2010    24      2       1.89057         223.7851
2010    24      3       1.675414        213.6967
2010    24      4       1.507894        204.0179
2010    24      5       1.517531        203.5326
2010    24      6       1.417308        197.7537
2010    24      7       1.477864        200.6663
2010    25      0       1.326769        190.5796
2010    25      1       1.268722        186.4813
2010    25      2       1.317606        190.2121
2010    25      3       1.50286         202.4615
2010    25      4       1.521988        204.6939
2010    25      5       1.808135        220.5842
2010    25      6       2.190965        235.139
2010    25      7       2.356716        239.9238
2010    26      0       2.472717        243.9315
2010    26      1       1.772981        221.1096
2010    26      2       1.49912         206.2762
2010    26      3       2.260922        239.3891
2010    26      4       2.387072        242.0018
2010    26      5       2.304788        239.9936
2010    26      6       2.118624        234.4719
2010    26      7       2.217161        237.4921
2010    27      0       2.02057         230.833
2010    27      1       1.938226        226.4952
2010    27      2       2.519253        243.6253
2010    27      3       2.342688        239.0259
2010    27      4       1.422277        200.5781
2010    27      5       1.735712        217.2127
2010    27      6       1.5686          207.969
2010    27      7       1.780445        219.573
2010    28      0       2.015498        231.1865
2010    28      1       0.9637929       165.3412
2010    28      2       1.450952        202.9728
2010    28      3       2.305986        239.0259
2010    28      4       2.784965        250.7015
2010    28      5       2.327177        242.4063
2010    28      6       2.391548        244.3631
2010    28      7       2.191453        236.9672
2010    29      0       1.75661         219.0758
2010    29      1       1.561379        208.2332
2010    29      2       1.490822        203.1921
2010    29      3       1.737504        215.8333
2010    29      4       1.603615        209.5598
2010    29      5       1.535383        206.2708
2010    29      6       1.528396        205.6026
2010    29      7       1.627432        210.0726
2010    30      0       1.509241        204.7339
2010    30      1       1.698239        214.3701
2010    30      2       1.773505        217.3883
2010    30      3       1.566934        208.6873
2010    30      4       1.974813        228.1043
2010    30      5       1.833713        222.8184
2010    30      6       2.156745        235.137
2010    30      7       1.827476        223.2427
2011    1       0       1.817594        222.3079
2011    1       1       1.940011        227.5006
2011    1       2       2.065642        232.4278
2011    1       3       1.772153        219.983
2011    1       4       1.455256        201.7178
2011    1       5       1.401055        198.0582
2011    1       6       1.506995        204.1713
2011    1       7       1.347134        193.897
2011    2       0       1.401611        198.0524
2011    2       1       2.102645        229.8354
2011    2       2       1.247578        187.8648
2011    2       3       1.459739        202.0724
2011    2       4       1.560279        208.009
2011    2       5       1.647186        212.8305
2011    2       6       1.520238        206.3642
2011    2       7       1.545651        208.1242
2011    3       0       1.521552        207.4265
2011    3       1       1.731187        218.7927
2011    3       2       1.542697        209.9119
2011    3       3       1.723661        219.2757
2011    3       4       1.67268         216.9843
2011    3       5       1.477328        205.3794
2011    3       6       1.587665        211.2224
2011    3       7       1.520893        208.3618
2011    4       0       2.032432        232.7239
2011    4       1       2.679778        250.539
2011    4       2       2.850396        253.3582
2011    4       3       2.933694        253.7465
2011    4       4       3.409599        258.0759
2011    4       5       2.294447        237.556
2011    4       6       1.393951        197.6747
2011    4       7       1.133189        178.0332
2011    5       0       1.241528        186.743
2011    5       1       1.17988         181.6482
2011    5       2       1.201282        183.282
2011    5       3       1.334737        192.8852
2011    5       4       1.607021        209.223
2011    5       5       1.57376         207.591
2011    5       6       1.587917        208.4455
2011    5       7       1.513407        204.3601
2011    6       0       1.658388        212.3649
2011    6       1       1.663115        212.8376
2011    6       2       1.631808        210.9343
2011    6       3       1.463772        201.3219
2011    6       4       1.521931        204.6641
2011    6       5       1.473258        201.8108
2011    6       6       1.285109        190.0156
2011    6       7       1.242172        187.1857
2011    7       0       1.385122        196.6687
2011    7       1       1.273149        189.125
2011    7       2       1.222913        185.7239
2011    7       3       1.704641        214.911
2011    7       4       1.652034        212.2478
2011    7       5       1.638708        211.6773
2011    7       6       2.08083         230.0396
2011    7       7       2.094385        230.2997
2011    8       0       1.780583        218.2694
2011    8       1       1.811905        220.2027
2011    8       2       2.015167        228.5574
2011    8       3       2.027875        229.3503
2011    8       4       2.396392        240.5702
2011    8       5       2.735308        247.8045
2011    8       6       2.332291        239.2382
2011    8       7       2.162755        234.527
2011    9       0       1.977052        228.2312
2011    9       1       1.836825        222.3782
2011    9       2       1.615901        212.9013
2011    9       3       1.575508        211.2386
2011    9       4       1.488144        206.7665
2011    9       5       1.403655        201.6122
2011    9       6       1.360052        199.0176
2011    9       7       1.53559         209.1343
2011    10      0       2.06739         231.8502
2011    10      1       2.499168        243.2627
2011    10      2       2.774286        249.1606
2011    10      3       2.979022        253.7206
2011    10      4       2.887742        252.4538
2011    10      5       2.991158        253.7228
2011    10      6       2.743106        249.1823
2011    10      7       2.039975        232.6742
2011    11      0       1.704172        218.8576
2011    11      1       1.612756        214.3901
2011    11      2       1.62666         214.7431
2011    11      3       1.715173        218.4959
2011    11      4       2.080207        232.6618
2011    11      5       2.091287        233.5934
2011    11      6       2.108131        233.9937
2011    11      7       2.324598        239.875
2011    12      0       2.366372        240.8452
2011    12      1       2.499617        244.5697
2011    12      2       2.323622        239.9024
2011    12      3       2.794468        249.5935
2011    12      4       2.364673        239.8673
2011    12      5       2.414333        240.9761
2011    12      6       1.791819        220.7662
2011    12      7       2.106449        233.0406
2011    13      0       1.981319        230.0576
2011    13      1       2.546936        245.7978
2011    13      2       2.815471        253.2407
2011    13      3       2.86442         253.8791
2011    13      4       2.741294        251.4736
2011    13      5       2.521452        246.4609
2011    13      6       2.317409        240.3451
2011    13      7       1.862655        224.5635
2011    14      0       1.450739        202.4084
2011    14      1       1.734031        216.957
2011    14      2       1.582408        208.548
2011    14      3       1.749722        217.1936
2011    14      4       1.854081        221.9515
2011    14      5       1.852807        221.9674
2011    14      6       1.903678        224.2699
2011    14      7       2.051866        230.3373
2011    15      0       1.517609        205.8384
2011    15      1       1.221292        185.3583
2011    15      2       1.268287        188.818
2011    15      3       1.748811        217.7701
2011    15      4       1.836283        221.3442
2011    15      5       1.618431        210.908
2011    15      6       1.444401        201.4448
2011    15      7       1.289867        191.278
2011    16      0       1.19146         184.205
2011    16      1       1.158982        181.7495
2011    16      2       1.163074        182.0092
2011    16      3       1.270389        189.8798
2011    16      4       1.563671        208.1971
2011    16      5       1.982539        227.1728
2011    16      6       2.328657        238.3456
2011    16      7       2.335099        238.1117
2011    17      0       2.2328          234.9065
2011    17      1       2.139378        232.0139
2011    17      2       1.939086        224.7153
2011    17      3       2.125638        231.2285
2011    17      4       2.013907        227.4246
2011    17      5       1.938329        225.1298
2011    17      6       1.616179        211.1461
2011    17      7       1.310838        192.8085
2011    18      0       0.9100041       157.906
2011    18      1       1.394233        197.5929
2011    18      2       2.234684        236.2232
2011    18      3       2.916083        252.7404
2011    18      4       2.775707        252.4861
2011    18      5       2.138596        238.0786
2011    18      6       2.165227        237.9737
2011    18      7       2.10715         235.1081
2011    19      0       2.462212        243.8977
2011    19      1       2.495886        244.5256
2011    19      2       2.741146        249.2003
2011    19      3       3.865328        259.8335
2011    19      4       2.59711         244.1292
2011    19      5       2.119143        231.5791
2011    19      6       2.164788        233.2195
2011    19      7       1.832552        221.479
2011    20      0       1.739935        217.3654
2011    20      1       3.462115        256.704
2011    20      2       1.718591        216.4481
2011    20      3       1.950974        229.3531
2011    20      4       2.139391        237.9537
2011    20      5       3.649691        264.7807
2011    20      6       3.336246        263.9312
2011    20      7       2.424448        246.5243
2011    21      0       2.170599        239.4364
2011    21      1       1.919303        229.1198
2011    21      2       2.050029        232.2645
2011    21      3       1.931478        227.2063
2011    21      4       1.951364        227.4861
2011    21      5       2.072117        231.7858
2011    21      6       2.140342        233.9373
2011    21      7       2.949266        252.9801
2011    22      0       1.810959        223.8009
2011    22      1       1.832633        224.0521
2011    22      2       2.91639         254.193
2011    22      3       2.599441        248.8642
2011    22      4       2.303335        241.4358
2011    22      5       2.030804        231.4997
2011    22      6       2.240458        237.4586
2011    22      7       2.186291        236.3415
2011    23      0       1.8062          220.2261
2011    23      1       1.249141        186.0445
2011    23      2       1.341711        191.2667
2011    23      3       1.376143        193.4624
2011    23      4       1.251935        185.3354
2011    23      5       1.329863        190.9667
2011    23      6       1.389321        195.435
2011    23      7       1.667615        211.0219
2011    24      0       1.793846        217.227
2011    24      1       1.915036        223.141
2011    24      2       1.821309        219.7024
2011    24      3       1.669776        213.7147
2011    24      4       1.589573        210.5142
2011    24      5       1.725268        216.4136
2011    24      6       1.77414         219.4553
2011    24      7       2.182046        235.6722
2011    25      0       2.560666        244.9957
2011    25      1       2.746674        249.1555
2011    25      2       2.591175        246.8013
2011    25      3       2.245995        238.0941
2011    25      4       2.030922        231.9305
2011    25      5       1.975807        230.3967
2011    25      6       2.107399        235.7375
2011    25      7       2.147794        237.2721
2011    26      0       2.356583        241.3305
2011    26      1       1.845256        223.5812
2011    26      2       2.019807        230.0221
2011    26      3       1.81239         222.4239
2011    26      4       1.828323        223.2243
2011    26      5       1.853299        224.2845
2011    26      6       1.906123        226.4048
2011    26      7       1.8849          225.2866
2011    27      0       1.941501        226.9744
2011    27      1       1.961376        227.1563
2011    27      2       1.625105        209.3497
2011    27      3       1.215543        182.3309
2011    27      4       1.232113        183.2509
2011    27      5       1.211904        183.2484
2011    27      6       1.209908        183.5545
2011    27      7       1.475346        202.4793
2011    28      0       1.658204        213.2475
2011    28      1       1.545866        207.7463
2011    28      2       1.421191        201.0412
2011    28      3       1.528884        207.4437
2011    28      4       1.534951        208.5139
2011    28      5       1.632483        214.173
2011    28      6       1.760517        220.235
2011    28      7       1.732224        218.4376
2011    29      0       1.870122        224.2391
2011    29      1       1.770562        219.1935
2011    29      2       1.773343        218.6594
2011    29      3       1.771945        217.3295
2011    29      4       1.703153        213.25
2011    29      5       1.790708        216.3458
2011    29      6       1.64222         209.6691
2011    29      7       1.512211        202.3736
2011    30      0       1.365144        192.8205
2011    30      1       1.69034         210.3423
2011    30      2       1.422028        194.9592
2011    30      3       1.039265        166.8732
2011    30      4       1.041539        166.5671
2011    30      5       1.097859        171.1862
2011    30      6       1.402044        194.3823
2011    30      7       1.578021        206.0216
2012    1       0       2.713289        246.1028
2012    1       1       2.685582        246.1467
2012    1       2       1.514231        206.5774
2012    1       3       1.233647        189.3745
2012    1       4       1.165614        185.0137
2012    1       5       0.9339628       164.3253
2012    1       6       0.9092447       161.579
2012    1       7       0.80667         150.2836
2012    2       0       0.7213228       139.666
2012    2       1       0.6836506       134.5798
2012    2       2       0.6635846       131.495
2012    2       3       0.6855415       133.8405
2012    2       4       0.7118115       136.7306
2012    2       5       0.7740792       144.06
2012    2       6       0.8774219       155.7229
2012    2       7       1.077463        174.7563
2012    3       0       1.405018        200.2766
2012    3       1       2.626524        245.1578
2012    3       2       2.323697        238.0001
2012    3       3       1.594698        209.9463
2012    3       4       1.872329        221.6798
2012    3       5       1.609806        210.1244
2012    3       6       1.672883        213.7482
2012    3       7       2.270726        236.9237
2012    4       0       2.403661        240.8554
2012    4       1       2.403997        241.5575
2012    4       2       2.150082        234.1622
2012    4       3       1.979504        225.9836
2012    4       4       1.749451        214.7587
2012    4       5       2.126549        229.3548
2012    4       6       1.863029        219.3533
2012    4       7       1.625411        207.963
2012    5       0       1.271464        185.6541
2012    5       1       1.043113        168.1831
2012    5       2       1.241245        184.2502
2012    5       3       0.9424964       158.6774
2012    5       4       1.126937        175.3026
2012    5       5       1.264622        186.4353
2012    5       6       1.535642        204.3698
2012    5       7       2.040276        228.8547
2012    6       0       2.152248        232.929
2012    6       1       2.264445        237.0082
2012    6       2       1.652963        212.5174
2012    6       3       1.494479        201.2006
2012    6       4       1.304636        189.7618
2012    6       5       1.655531        209.8094
2012    6       6       1.801606        218.4895
2012    6       7       2.10771         230.1466
2012    7       0       1.853129        220.5428
2012    7       1       1.577002        207.4751
2012    7       2       1.659368        211.7096
2012    7       3       1.686864        212.946
2012    7       4       1.887904        221.2721
2012    7       5       2.198342        232.553
2012    7       6       1.901754        223.5852
2012    7       7       2.165245        233.6593
2012    8       0       2.078605        231.3507
2012    8       1       2.061568        232.0628
2012    8       2       2.24844         237.4125
2012    8       3       1.369208        198.603
2012    8       4       0.9326056       162.1073
2012    8       5       0.8934594       157.9774
2012    8       6       1.175012        184.4506
2012    8       7       2.205605        237.6731
2012    9       0       2.264598        238.0776
2012    9       1       2.130748        232.5655
2012    9       2       1.569182        206.5116
2012    9       3       1.361346        192.7609
2012    9       4       1.565368        204.7231
2012    9       5       1.143421        175.7036
2012    9       6       1.07148         169.3207
2012    9       7       1.098847        171.8468
2012    10      0       1.062874        168.3259
2012    10      1       1.330193        189.523
2012    10      2       1.579217        205.9132
2012    10      3       1.948849        223.7677
2012    10      4       1.905159        222.9724
2012    10      5       1.352907        193.5501
2012    10      6       1.19104         180.8553
2012    10      7       1.247388        184.8523
2012    11      0       1.116257        174.8388
2012    11      1       1.260346        186.085
2012    11      2       1.39377         195.3799
2012    11      3       1.53714         204.4899
2012    11      4       1.407012        197.082
2012    11      5       1.535836        205.7488
2012    11      6       1.85031         221.0794
2012    11      7       2.203582        234.8255
2012    12      0       2.262948        237.6181
2012    12      1       2.254157        237.5937
2012    12      2       2.455227        242.1825
2012    12      3       2.329674        236.9077
2012    12      4       1.919056        221.587
2012    12      5       1.458232        199.1215
2012    12      6       1.345376        192.3018
2012    12      7       1.79182         216.2895
2012    13      0       1.539783        204.2866
2012    13      1       1.175396        180.1633
2012    13      2       1.178027        179.6164
2012    13      3       1.113228        174.1775
2012    13      4       1.265475        186.4953
2012    13      5       1.46661         200.7298
2012    13      6       1.583846        207.046
2012    13      7       1.46436         200.2652
2012    14      0       1.733948        213.6303
2012    14      1       1.561516        204.183
2012    14      2       1.267071        186.0678
2012    14      3       1.41192         195.065
2012    14      4       1.51246         199.7557
2012    14      5       1.464215        197.3778
2012    14      6       1.277528        185.2504
2012    14      7       1.130544        174.7371
2012    15      0       1.086709        171.6991
2012    15      1       1.129556        175.822
2012    15      2       1.121448        176.2747
2012    15      3       0.8177752       147.6664
2012    15      4       0.8066143       146.8269
2012    15      5       2.07706         231.5025
2012    15      6       2.456769        243.5554
2012    15      7       2.523559        245.5714
2012    16      0       2.677339        249.0148
2012    16      1       2.692671        249.7623
2012    16      2       3.036378        254.5414
2012    16      3       3.02931         253.4223
2012    16      4       1.953836        228.2603
2012    16      5       1.751233        220.109
2012    16      6       1.808369        222.9872
2012    16      7       1.949411        228.7854
2012    17      0       2.228331        237.0035
2012    17      1       2.158005        236.3804
2012    17      2       2.558103        247.3557
2012    17      3       2.775617        251.1749
2012    17      4       2.867344        252.5201
2012    17      5       2.677511        249.411
2012    17      6       2.195597        237.7325
2012    17      7       1.948084        228.072
2012    18      0       1.960597        227.2782
2012    18      1       1.83747         222.1018
2012    18      2       1.809377        221.2288
2012    18      3       1.949021        226.6482
2012    18      4       2.089951        231.9258
2012    18      5       2.416256        241.3124
2012    18      6       2.031647        227.4323
2012    18      7       1.202734        183.372
2012    19      0       1.387532        196.1195
2012    19      1       1.409697        197.7754
2012    19      2       1.390572        196.6137
2012    19      3       1.165074        180.7629
2012    19      4       1.078254        173.5626
2012    19      5       1.206565        184.4631
2012    19      6       1.462351        202.5818
2012    19      7       1.798324        220.5346
2012    20      0       1.705729        216.4047
2012    20      1       1.385003        197.9681
2012    20      2       1.95214         228.4864
2012    20      3       2.578095        248.1398
2012    20      4       2.560362        245.5579
2012    20      5       1.302018        190.5771
2012    20      6       1.265368        188.485
2012    20      7       1.81144         220.578
2012    21      0       1.743154        218.4386
2012    21      1       1.256755        189.4802
2012    21      2       0.739765        137.1857
2012    21      3       0.9869371       165.3046
2012    21      4       1.953662        227.7263
2012    21      5       1.954108        228.055
2012    21      6       1.73136         218.1118
2012    21      7       1.590806        209.1388
2012    22      0       1.43438         200.4663
2012    22      1       1.534041        206.02
2012    22      2       1.658268        211.2478
2012    22      3       1.13044         177.1779
2012    22      4       1.131519        176.2612
2012    22      5       1.321687        189.6954
2012    22      6       1.490534        200.6749
2012    22      7       1.215434        182.7522
2012    23      0       1.415267        197.092
2012    23      1       1.389697        195.4888
2012    23      2       1.432092        198.4968
2012    23      3       1.469726        201.6246
2012    23      4       1.415161        199.3802
2012    23      5       1.582985        208.9539
2012    23      6       1.830915        220.9602
2012    23      7       1.570366        208.7453
2012    24      0       1.542369        206.5597
2012    24      1       1.794326        219.0656
2012    24      2       1.697533        214.8838
2012    24      3       1.751523        217.6668
2012    24      4       2.032684        229.2981
2012    24      5       1.973082        228.7568
2012    24      6       2.026314        231.7748
2012    24      7       2.318368        240.9214
2012    25      0       2.054278        232.046
2012    25      1       2.100315        233.0505
2012    25      2       1.683526        214.1387
2012    25      3       1.499829        203.5095
2012    25      4       1.531268        205.6558
2012    25      5       1.620996        210.8144
2012    25      6       1.549547        206.215
2012    25      7       1.65314         211.2111
2012    26      0       1.526933        205.2991
2012    26      1       1.490279        203.2658
2012    26      2       1.660488        212.3998
2012    26      3       1.574999        209.2918
2012    26      4       1.602212        211.1203
2012    26      5       1.713218        217.5365
2012    26      6       1.592462        210.8211
2012    26      7       1.34761         194.359
2012    27      0       1.528579        204.4459
2012    27      1       1.499845        202.5911
2012    27      2       1.400711        196.8512
2012    27      3       1.586724        207.9082
2012    27      4       1.668303        211.8273
2012    27      5       1.477245        202.7498
2012    27      6       1.709739        216.2963
2012    27      7       1.856651        224.1635
2012    28      0       1.951314        228.2195
2012    28      1       2.07694         233.2033
2012    28      2       1.919164        227.4322
2012    28      3       1.83266         224.3227
2012    28      4       1.968335        229.3917
2012    28      5       2.226107        237.6182
2012    28      6       1.983365        231.1745
2012    28      7       2.309441        240.783
2012    29      0       1.901176        225.9919
2012    29      1       1.817158        220.1284
2012    29      2       1.718821        215.2419
2012    29      3       1.634138        211.6652
2012    29      4       1.688705        214.2258
2012    29      5       1.581874        208.3217
2012    29      6       1.408215        198.1034
2012    29      7       1.764244        218.0368
2012    30      0       1.48651         204.0925
2012    30      1       1.523228        205.9498
2012    30      2       1.572469        209.3338
2012    30      3       1.59364         210.3919
2012    30      4       1.718217        216.5597
2012    30      5       1.927969        225.337
2012    30      6       1.778508        218.9979
2012    30      7       1.723216        216.0947
2013    1       0       2.506848        241.3584
2013    1       1       2.058827        228.2997
2013    1       2       2.057243        227.7804
2013    1       3       1.513875        203.8458
2013    1       4       1.229442        185.6031
2013    1       5       1.195033        183.0719
2013    1       6       1.254943        187.2445
2013    1       7       1.167941        180.7589
2013    2       0       1.083153        173.8346
2013    2       1       1.008476        167.4227
2013    2       2       0.9098671       158.5413
2013    2       3       1.092382        174.7634
2013    2       4       2.089385        232.1425
2013    2       5       2.345772        240.355
2013    2       6       2.230018        237.8107
2013    2       7       1.956995        229.0137
2013    3       0       1.934997        227.9248
2013    3       1       2.189992        236.797
2013    3       2       2.560068        246.7954
2013    3       3       2.571855        247.2532
2013    3       4       2.672902        249.3012
2013    3       5       3.233311        257.5379
2013    3       6       2.922759        253.356
2013    3       7       2.56531         246.701
2013    4       0       2.705619        249.0252
2013    4       1       2.580603        246.8589
2013    4       2       2.198681        237.5144
2013    4       3       1.624958        214.938
2013    4       4       2.1006          235.0563
2013    4       5       2.358018        242.9307
2013    4       6       2.255867        239.6627
2013    4       7       2.072779        233.3584
2013    5       0       2.185136        236.5672
2013    5       1       2.164643        235.5539
2013    5       2       2.096447        233.5094
2013    5       3       2.204191        237.3122
2013    5       4       2.197323        237.3343
2013    5       5       2.279263        240.6162
2013    5       6       2.022063        232.3825
2013    5       7       2.319375        241.0054
2013    6       0       2.194846        237.4991
2013    6       1       2.180989        236.8375
2013    6       2       2.116061        235.2607
2013    6       3       2.310214        241.5768
2013    6       4       2.454914        244.8857
2013    6       5       2.513108        246.2974
2013    6       6       2.664303        249.2834
2013    6       7       2.197455        237.3476
2013    7       0       2.050393        231.7726
2013    7       1       1.985392        228.9103
2013    7       2       2.434717        241.6377
2013    7       3       2.15564         233.2652
2013    7       4       2.162664        233.8251
2013    7       5       2.148454        232.9698
2013    7       6       1.500647        204.5794
2013    7       7       1.721763        216.683
2013    8       0       2.329999        239.3262
2013    8       1       2.647324        249.0704
2013    8       2       2.892281        255.1401
2013    8       3       3.029371        256.3079
2013    8       4       2.958619        255.4567
2013    8       5       3.034846        256.6788
2013    8       6       2.259204        240.5892
2013    8       7       2.056228        233.3954
2013    9       0       2.071781        232.9125
2013    9       1       1.945623        227.8297
2013    9       2       2.105012        232.5881
2013    9       3       1.916689        226.5778
2013    9       4       1.836768        223.6714
2013    9       5       2.131675        235.8413
2013    9       6       2.916779        254.2546
2013    9       7       3.115743        257.932
2013    10      0       2.478909        245.8029
2013    10      1       2.394533        242.5392
2013    10      2       2.453211        244.4061
2013    10      3       2.193511        237.6849
2013    10      4       2.898101        250.6126
2013    10      5       1.665703        212.4278
2013    10      6       1.373554        195.5157
2013    10      7       1.216809        184.5552
2013    11      0       1.289134        190.2432
2013    11      1       1.333613        193.7103
2013    11      2       1.704064        215.6732
2013    11      3       1.57676         209.5954
2013    11      4       1.280241        190.6623
2013    11      5       1.550877        207.178
2013    11      6       1.8178          219.8274
2013    11      7       1.87709         223.1096
2013    12      0       2.009538        228.1679
2013    12      1       1.259309        187.4412
2013    12      2       1.683725        212.5826
2013    12      3       1.435799        200.4427
2013    12      4       1.651568        212.2384
2013    12      5       1.740476        216.5877
2013    12      6       1.784202        219.155
2013    12      7       1.847662        221.8255
2013    13      0       1.679037        214.1778
2013    13      1       1.748267        217.1406
2013    13      2       2.001442        227.3714
2013    13      3       1.976871        226.6212
2013    13      4       1.981212        226.0061
2013    13      5       1.910057        222.3001
2013    13      6       1.625403        209.9624
2013    13      7       1.730665        216.3625
2013    14      0       2.174875        233.498
2013    14      1       2.061276        230.4789
2013    14      2       2.011452        229.3698
2013    14      3       2.269425        238.345
2013    14      4       2.343809        240.8699
2013    14      5       2.160752        235.3241
2013    14      6       2.059756        230.9467
2013    14      7       1.579574        209.2775
2013    15      0       1.216196        184.88
2013    15      1       1.763237        218.9993
2013    15      2       2.200634        236.5141
2013    15      3       2.838547        251.2642
2013    15      4       2.453118        241.6644
2013    15      5       2.08498         231.5352
2013    15      6       2.409363        240.6
2013    15      7       1.752266        216.8104
2013    16      0       1.458846        201.0453
2013    16      1       1.691134        214.8521
2013    16      2       1.733736        217.4607
2013    16      3       1.72492         218.3269
2013    16      4       2.182412        234.4911
2013    16      5       1.778591        218.7233
2013    16      6       1.822994        220.704
2013    16      7       1.47541         202.5756
2013    17      0       1.392054        195.7299
2013    17      1       1.228332        184.3301
2013    17      2       1.084713        173.3729
2013    17      3       1.144258        178.5957
2013    17      4       1.160943        179.7781
2013    17      5       1.132931        177.3825
2013    17      6       1.761266        215.8752
2013    17      7       1.202582        182.371
2013    18      0       1.309704        189.5661
2013    18      1       1.354386        191.9188
2013    18      2       1.721377        212.6395
2013    18      3       1.497163        201.23
2013    18      4       1.478161        200.5968
2013    18      5       1.475879        200.7492
2013    18      6       1.495029        201.7603
2013    18      7       1.423075        197.7066
2013    19      0       1.491553        201.9156
2013    19      1       1.461881        200.9436
2013    19      2       2.092625        230.9852
2013    19      3       2.168463        236.4705
2013    19      4       2.1068          231.5149
2013    19      5       2.024191        227.7982
2013    19      6       1.832668        220.697
2013    19      7       2.046603        228.6966
2013    20      0       1.898629        222.6387
2013    20      1       2.012019        227.0275
2013    20      2       2.210567        234.4092
2013    20      3       2.485574        242.3794
2013    20      4       2.539913        245.0959
2013    20      5       2.768066        250.489
2013    20      6       2.845095        251.5973
2013    20      7       2.235238        236.426
2013    21      0       2.208098        233.2803
2013    21      1       1.888264        221.1298
2013    21      2       1.731325        214.3669
2013    21      3       1.807344        217.9856
2013    21      4       1.886233        221.8857
2013    21      5       1.559052        205.8116
2013    21      6       1.953588        223.5259
2013    21      7       1.911512        221.6686
2013    22      0       1.456554        199.7944
2013    22      1       1.516672        203.1429
2013    22      2       1.592514        207.9658
2013    22      3       1.922056        224.2804
2013    22      4       2.4499          243.4042
2013    22      5       3.037574        254.4646
2013    22      6       3.043307        254.6447
2013    22      7       2.880697        252.2049
2013    23      0       2.750952        249.9959
2013    23      1       2.922982        253.0088
2013    23      2       2.440281        244.7643
2013    23      3       0.988302        170.111
2013    23      4       2.600023        249.5431
2013    23      5       2.877001        254.7683
2013    23      6       4.452492        269.4617
2013    23      7       3.649219        265.422
2013    24      0       3.510914        263.922
2013    24      1       3.877669        266.4185
2013    24      2       5.096715        272.217
2013    24      3       4.294557        270.3221
2013    24      4       3.322939        263.3279
2013    24      5       3.176282        260.5724
2013    24      6       3.004211        257.5602
2013    24      7       2.820343        253.9088
2013    25      0       2.650437        251.8583
2013    25      1       2.536896        249.4902
2013    25      2       2.68182         251.6773
2013    25      3       2.467935        246.8071
2013    25      4       2.633522        249.3367
2013    25      5       3.061412        256.082
2013    25      6       4.321855        269.1953
2013    25      7       3.900248        268.16
2013    26      0       3.590725        266.5706
2013    26      1       3.003829        262.0947
2013    26      2       3.343851        266.1735
2013    26      3       2.970738        260.2579
2013    26      4       3.24397         262.8167
2013    26      5       2.376393        246.493
2013    26      6       1.776636        223.1858
2013    26      7       1.095279        178.8168
2013    27      0       0.9473067       164.1695
2013    27      1       1.618555        213.8941
2013    27      2       1.651746        215.7002
2013    27      3       1.470115        205.6846
2013    27      4       1.537804        209.0512
2013    27      5       2.10405         234.112
2013    27      6       2.885327        254.2714
2013    27      7       3.071417        257.607
2013    28      0       3.219115        259.9746
2013    28      1       3.548621        263.8716
2013    28      2       3.484919        263.6635
2013    28      3       3.189039        259.9147
2013    28      4       3.45343         260.707
2013    28      5       3.202248        256.1651
2013    28      6       2.782326        249.2557
2013    28      7       2.492983        242.5758
2013    29      0       2.211075        233.9436
2013    29      1       1.774038        216.9929
2013    29      2       1.795243        217.9943
2013    29      3       1.706752        214.0602
2013    29      4       1.613977        209.7502
2013    29      5       1.510053        204.2787
2013    29      6       1.326697        193.0254
2013    29      7       1.356802        195.8375
2013    30      0       2.050656        229.7482
2013    30      1       2.165906        233.7491
2013    30      2       2.133598        233.0974
2013    30      3       2.288565        237.7502
2013    30      4       2.272891        237.2392
2013    30      5       1.985562        228.0174
2013    30      6       1.26825         190.4218
2013    30      7       1.363104        197.4596
2014    1       0       1.668772        215.0164
2014    1       1       1.985596        228.5682
2014    1       2       2.466903        242.7406
2014    1       3       2.766795        248.8263
2014    1       4       2.677791        247.1568
2014    1       5       3.129894        253.4587
2014    1       6       2.758332        247.4269
2014    1       7       2.630412        244.7023
2014    2       0       2.456359        240.5558
2014    2       1       1.990351        226.5432
2014    2       2       2.137231        231.2055
2014    2       3       2.198744        232.8388
2014    2       4       2.129343        230.5038
2014    2       5       2.013353        226.6874
2014    2       6       2.121815        230.324
2014    2       7       2.175546        232.2102
2014    3       0       2.199101        233.1135
2014    3       1       2.089248        229.7356
2014    3       2       2.001036        226.744
2014    3       3       1.898775        223.5103
2014    3       4       1.892411        223.5615
2014    3       5       1.637874        212.3114
2014    3       6       1.361299        196.6346
2014    3       7       1.082715        175.6767
2014    4       0       0.9856087       166.7472
2014    4       1       1.206854        185.6224
2014    4       2       1.711063        216.8115
2014    4       3       2.114361        233.173
2014    4       4       2.070308        232.0247
2014    4       5       2.055295        231.5848
2014    4       6       1.900077        225.8713
2014    4       7       1.776196        220.6675
2014    5       0       1.651862        214.7246
2014    5       1       1.541752        208.8944
2014    5       2       1.577914        210.5226
2014    5       3       1.457418        203.4643
2014    5       4       1.557815        209.5297
2014    5       5       1.878982        224.8372
2014    5       6       2.070891        232.3016
2014    5       7       2.340979        240.1079
2014    6       0       2.127213        234.0185
2014    6       1       1.900015        226.0946
2014    6       2       1.903246        226.1561
2014    6       3       2.350025        239.8425
2014    6       4       2.346567        239.5536
2014    6       5       2.507304        243.0173
2014    6       6       2.264378        236.6791
2014    6       7       1.865122        223.0754
2014    7       0       2.100191        231.3391
2014    7       1       2.246173        235.5576
2014    7       2       2.244337        235.563
2014    7       3       1.999021        228.0021
2014    7       4       2.255981        236.2856
2014    7       5       2.303582        237.5993
2014    7       6       2.20727         235.1084
2014    7       7       2.044521        229.4477
2014    8       0       1.650202        212.8038
2014    8       1       1.421671        199.8054
2014    8       2       1.271834        189.2919
2014    8       3       1.154603        180.0641
2014    8       4       1.102601        175.8408
2014    8       5       1.104321        176.246
2014    8       6       1.186585        183.2108
2014    8       7       1.234819        186.9014
2014    9       0       1.172582        182.4264
2014    9       1       1.116683        178.3461
2014    9       2       1.266812        189.8514
2014    9       3       1.647504        212.8316
2014    9       4       1.809983        220.6393
2014    9       5       2.243109        236.2694
2014    9       6       2.286609        238.0059
2014    9       7       2.170806        235.2235
2014    10      0       1.983371        229.1882
2014    10      1       1.840643        223.5409
2014    10      2       1.889222        226.3831
2014    10      3       1.83247         224.7312
2014    10      4       1.724581        218.8533
2014    10      5       2.192087        235.5967
2014    10      6       2.847089        251.8399
2014    10      7       2.812918        250.9446
2014    11      0       2.766875        249.857
2014    11      1       2.744613        249.1368
2014    11      2       1.982969        229.1776
2014    11      3       1.962565        229.0222
2014    11      4       2.026763        231.4095
2014    11      5       1.997779        230.5508
2014    11      6       1.796979        221.9541
2014    11      7       1.755401        219.1181
2014    12      0       1.727761        217.3155
2014    12      1       1.716617        216.625
2014    12      2       1.779734        219.37
2014    12      3       1.817234        220.6003
2014    12      4       1.820973        219.8858
2014    12      5       1.846768        220.9217
2014    12      6       2.084963        230.0645
2014    12      7       1.877778        223.064
2014    13      0       1.458894        201.7319
2014    13      1       2.007178        227.7817
2014    13      2       2.10529         231.8687
2014    13      3       2.004594        228.9089
2014    13      4       2.205007        235.337
2014    13      5       2.376835        240.4874
2014    13      6       2.762052        249.0414
2014    13      7       2.728899        248.7572
2014    14      0       2.534087        244.8871
2014    14      1       2.317547        239.7849
2014    14      2       2.259287        238.3487
2014    14      3       2.196844        236.4807
2014    14      4       1.649998        214.849
2014    14      5       1.103165        178.2092
2014    14      6       1.036655        172.0369
2014    14      7       1.286976        192.7808
2014    15      0       1.644395        214.06
2014    15      1       2.867064        251.8312
2014    15      2       2.387816        243.2694
2014    15      3       2.090937        235.1771
2014    15      4       2.475271        245.0646
2014    15      5       2.41706         243.8825
2014    15      6       2.306075        240.8388
2014    15      7       2.282549        239.4476
2014    16      0       2.58223         246.7581
2014    16      1       2.821777        250.3528
2014    16      2       2.225036        235.4647
2014    16      3       2.315566        237.3616
2014    16      4       1.99033         226.4731
2014    16      5       1.847725        220.0156
2014    16      6       1.842333        220.1823
2014    16      7       1.412983        197.7501
2014    17      0       1.835247        219.2639
2014    17      1       2.096573        229.633
2014    17      2       2.448502        241.1619
2014    17      3       2.735627        247.0327
2014    17      4       2.484351        242.4193
2014    17      5       2.714815        247.5392
2014    17      6       2.993602        252.7193
2014    17      7       2.482285        243.7718
2014    18      0       2.089963        234.2986
2014    18      1       1.752916        221.4055
2014    18      2       1.959452        230.9295
2014    18      3       2.004994        232.7395
2014    18      4       2.081774        234.7155
2014    18      5       2.035477        232.7245
2014    18      6       2.425018        243.7488
2014    18      7       2.913637        254.9513
2014    19      0       2.815889        256.8071
2014    19      1       2.59801         251.6521
2014    19      2       2.231644        241.6346
2014    19      3       1.921894        231.1728
2014    19      4       1.934266        231.492
2014    19      5       1.907096        230.2854
2014    19      6       1.565409        214.5101
2014    19      7       2.437638        248.5557
2014    20      0       3.817446        267.994
2014    20      1       3.613027        266.9409
2014    20      2       2.45783         248.5792
2014    20      3       3.137783        259.1295
2014    20      4       2.858458        252.0605
2014    20      5       1.112924        179.5212
2014    20      6       1.685774        216.7885
2014    20      7       1.258291        190.7563
2014    21      0       1.212774        186.8588
2014    21      1       1.407622        200.2548
2014    21      2       1.719581        217.835
2014    21      3       2.182468        236.6561
2014    21      4       2.506001        246.1931
2014    21      5       2.511678        246.7107
2014    21      6       2.913292        253.4625
2014    21      7       2.870241        252.5222
2014    22      0       3.012973        254.3167
2014    22      1       2.137813        235.3819
2014    22      2       2.274104        239.9916
2014    22      3       2.438756        244.1322
2014    22      4       2.424417        243.3514
2014    22      5       2.237089        238.7509
2014    22      6       1.745626        221.8166
2014    22      7       1.487094        208.5892
2014    23      0       1.435763        205.565
2014    23      1       1.698743        219.9638
2014    23      2       2.143305        237.3653
2014    23      3       2.29281         240.2965
2014    23      4       2.384823        242.1229
2014    23      5       2.026997        232.1777
2014    23      6       2.300582        240.0385
2014    23      7       1.988229        229.0379
2014    24      0       1.789651        220.6965
2014    24      1       1.937006        226.2837
2014    24      2       2.225951        236.2186
2014    24      3       1.644625        213.3352
2014    24      4       1.550612        207.8917
2014    24      5       1.731812        217.2465
2014    24      6       1.737976        216.375
2014    24      7       1.796884        218.7629
2014    25      0       2.028861        227.4934
2014    25      1       1.528116        206.5637
2014    25      2       1.376491        197.6416
2014    25      3       2.372586        241.2362
2014    25      4       2.361035        242.0424
2014    25      5       2.359205        242.4568
2014    25      6       2.503791        245.8002
2014    25      7       2.505821        245.5201
2014    26      0       2.371493        242.1554
2014    26      1       2.993173        254.417
2014    26      2       2.633386        247.6507
2014    26      3       2.350545        240.7353
2014    26      4       2.88578         251.2281
2014    26      5       2.58724         244.4589
2014    26      6       2.17033         234.0372
2014    26      7       1.937763        228.0042
2014    27      0       2.216542        237.3876
2014    27      1       2.918234        252.627
2014    27      2       3.163612        257.8681
2014    27      3       3.044549        258.5742
2014    27      4       3.263741        260.9974
2014    27      5       2.293413        244.247
2014    27      6       3.592642        265.4995
2014    27      7       3.245102        261.5843
2014    28      0       3.233425        261.3898
2014    28      1       2.793131        253.6306
2014    28      2       2.345284        242.2355
2014    28      3       1.736639        220.1695
2014    28      4       1.894224        226.274
2014    28      5       2.270956        238.6921
2014    28      6       2.373086        241.7257
2014    28      7       2.499314        244.2805
2014    29      0       2.606593        247.0581
2014    29      1       3.358977        261.0307
2014    29      2       3.220223        261.0152
2014    29      3       2.863987        254.4095
2014    29      4       2.862389        253.2294
2014    29      5       2.740667        248.9352
2014    29      6       2.248138        238.3345
2014    29      7       2.456448        244.1908
2014    30      0       2.727619        250.0339
2014    30      1       2.427174        243.8221
2014    30      2       2.193662        238.5226
2014    30      3       1.873429        227.9301
2014    30      4       1.63045         217.0215
2014    30      5       1.575373        214.0154
2014    30      6       1.982654        233.897
2014    30      7       2.02154         235.0167
2015    1       0       2.082454        231.3446
2015    1       1       1.975341        227.5085
2015    1       2       1.950381        225.9357
2015    1       3       1.894931        223.2857
2015    1       4       1.657647        212.9996
2015    1       5       1.553783        207.6692
2015    1       6       1.960767        226.1926
2015    1       7       1.854553        221.8335
2015    2       0       1.841276        221.3556
2015    2       1       1.812915        219.921
2015    2       2       1.732017        216.1082
2015    2       3       1.60762         210.2748
2015    2       4       1.53705         207.0519
2015    2       5       1.540673        207.7983
2015    2       6       1.424252        201.0408
2015    2       7       1.482468        204.2699
2015    3       0       1.647605        212.7974
2015    3       1       1.689839        214.5631
2015    3       2       1.522248        205.9259
2015    3       3       1.73584         217.03
2015    3       4       1.773623        218.6226
2015    3       5       1.621332        211.5466
2015    3       6       1.634847        212.1153
2015    3       7       1.433219        200.6073
2015    4       0       1.299738        191.6244
2015    4       1       1.285438        190.3553
2015    4       2       1.450758        200.9033
2015    4       3       1.549432        206.1225
2015    4       4       1.640544        210.4101
2015    4       5       1.569534        206.4844
2015    4       6       1.47558         201.7938
2015    4       7       1.418382        198.7733
2015    5       0       1.498521        203.372
2015    5       1       1.733147        215.4851
2015    5       2       1.89753         222.4169
2015    5       3       2.027615        227.3535
2015    5       4       2.2352          234.3897
2015    5       5       2.173446        232.9822
2015    5       6       2.11326         231.6421
2015    5       7       2.211336        234.5237
2015    6       0       2.501085        241.6498
2015    6       1       2.55282         242.699
2015    6       2       2.285141        236.1291
2015    6       3       1.714537        215.1323
2015    6       4       1.221664        185.5641
2015    6       5       0.982973        165.4975
2015    6       6       0.6918611       133.5425
2015    6       7       1.176345        183.7486
2015    7       0       1.62834         213.1716
2015    7       1       1.799668        221.949
2015    7       2       2.436997        242.5579
2015    7       3       2.341432        238.7461
2015    7       4       2.094936        233.0847
2015    7       5       1.574237        209.6346
2015    7       6       1.485768        204.6076
2015    7       7       1.59178         215.5192
2015    8       0       1.892638        223.6075
2015    8       1       1.838359        221.7991
2015    8       2       1.782676        219.6776
2015    8       3       1.765665        219.3756
2015    8       4       2.052928        231.1903
2015    8       5       2.09083         232.7076
2015    8       6       2.456208        242.8039
2015    8       7       2.543211        244.7165
2015    9       0       2.170581        234.3698
2015    9       1       2.100251        232.1277
2015    9       2       1.649709        213.183
2015    9       3       1.624506        209.2732
2015    9       4       1.45063         199.6086
2015    9       5       1.301357        190.3949
2015    9       6       1.688928        213.4769
2015    9       7       2.197279        234.1019
2015    10      0       1.804883        219.4531
2015    10      1       1.664156        213.0193
2015    10      2       1.731344        216.9171
2015    10      3       1.863756        223.0436
2015    10      4       2.070525        229.7859
2015    10      5       1.354658        192.9822
2015    10      6       1.310979        189.2407
2015    10      7       1.353548        192.0505
2015    11      0       1.183443        179.5512
2015    11      1       1.168379        179.4151
2015    11      2       1.112929        176.0122
2015    11      3       1.551372        206.1918
2015    11      4       1.801115        218.0601
2015    11      5       1.970524        227.2511
2015    11      6       2.11959         233.3486
2015    11      7       2.181589        235.2072
2015    12      0       2.272876        238.1525
2015    12      1       2.58996         246.0443
2015    12      2       2.673404        247.3849
2015    12      3       2.527717        244.0024
2015    12      4       2.075572        231.9315
2015    12      5       1.826167        222.1401
2015    12      6       1.887953        223.6602
2015    12      7       2.046265        228.105
2015    13      0       1.808409        219.2191
2015    13      1       1.999808        227.2311
2015    13      2       1.983691        227.1048
2015    13      3       1.752126        217.7033
2015    13      4       1.834502        221.0896
2015    13      5       1.900729        223.5764
2015    13      6       1.816506        219.788
2015    13      7       1.791498        218.5581
2015    14      0       1.857079        221.1396
2015    14      1       1.862903        221.2093
2015    14      2       1.668601        212.2449
2015    14      3       1.864169        220.7143
2015    14      4       1.323295        189.8803
2015    14      5       1.537613        203.7421
2015    14      6       1.401254        195.0438
2015    14      7       1.34905         192.1357
2015    15      0       1.138938        177.4888
2015    15      1       1.089511        173.6517
2015    15      2       1.188719        182.07
2015    15      3       1.277751        188.6797
2015    15      4       1.394057        195.7594
2015    15      5       1.451801        199.2542
2015    15      6       1.69879         212.6976
2015    15      7       1.924425        223.1024
2015    16      0       2.028093        227.855
2015    16      1       2.220826        233.8188
2015    16      2       1.858857        219.9173
2015    16      3       2.010672        224.5897
2015    16      4       1.898292        220.2716
2015    16      5       1.975059        223.1828
2015    16      6       2.144514        229.5614
2015    16      7       1.789857        215.6366
2015    17      0       1.339555        190.7609
2015    17      1       1.327049        189.5797
2015    17      2       1.300786        187.7594
2015    17      3       1.204216        181.5489
2015    17      4       1.230717        184.1474
2015    17      5       1.493506        202.1326
2015    17      6       2.156172        233.1249
2015    17      7       2.216899        235.2598
2015    18      0       2.159097        233.9688
2015    18      1       2.190653        234.8398
2015    18      2       2.565132        244.1495
2015    18      3       2.318173        238.4656
2015    18      4       2.088157        231.8711
2015    18      5       2.623765        246.8506
2015    18      6       2.592187        245.9858
2015    18      7       2.10174         232.9495
2015    19      0       2.435335        241.998
2015    19      1       2.526554        244.799
2015    19      2       2.477325        245.1482
2015    19      3       2.911232        254.6657
2015    19      4       2.76896         252.6372
2015    19      5       2.845771        254.8714
2015    19      6       2.849429        254.5173
2015    19      7       3.341302        259.4494
2015    20      0       3.294298        256.7376
2015    20      1       2.33931         239.3543
2015    20      2       1.486746        205.471
2015    20      3       1.124466        180.062
2015    20      4       0.9902315       166.2332
2015    20      5       2.011481        230.6792
2015    20      6       1.790129        222.9483
2015    20      7       1.962096        228.1604
2015    21      0       1.974616        228.5395
2015    21      1       2.034696        230.9075
2015    21      2       2.330952        239.5106
2015    21      3       2.05532         228.8117
2015    21      4       1.648711        210.2747
2015    21      5       1.375621        194.5598
2015    21      6       1.423378        197.6536
2015    21      7       1.329556        191.6276
2015    22      0       1.225647        184.2347
2015    22      1       1.232591        185.0845
2015    22      2       1.560004        206.628
2015    22      3       1.772228        218.0405
2015    22      4       1.640748        212.1391
2015    22      5       2.162139        233.5856
2015    22      6       2.484843        244.5301
2015    22      7       2.412821        244.2318
2015    23      0       2.620837        249.5548
2015    23      1       2.212238        239.6431
2015    23      2       2.2676          241.4752
2015    23      3       2.493015        247.7167
2015    23      4       2.489688        246.3129
2015    23      5       2.065964        235.0365
2015    23      6       2.392293        244.6317
2015    23      7       2.149358        236.7411
2015    24      0       2.208692        237.4695
2015    24      1       2.348949        241.5318
2015    24      2       2.130432        235.0342
2015    24      3       2.143005        234.8043
2015    24      4       1.636022        214.6299
2015    24      5       2.643053        248.406
2015    24      6       2.809254        252.6973
2015    24      7       2.977044        255.7139
2015    25      0       2.752794        252.4595
2015    25      1       2.183289        239.2114
2015    25      2       2.491832        248.8277
2015    25      3       2.55555         249.9515
2015    25      4       2.703559        252.6542
2015    25      5       2.290404        242.6961
2015    25      6       2.2633          240.9943
2015    25      7       2.745801        251.5834
2015    26      0       2.608418        247.6086
2015    26      1       2.72183         248.313
2015    26      2       2.645806        245.766
2015    26      3       2.189558        233.1041
2015    26      4       1.897489        223.0581
2015    26      5       1.333878        193.5039
2015    26      6       1.042012        170.5996
2015    26      7       1.978272        228.0256
2015    27      0       1.919603        225.0036
2015    27      1       1.836616        221.979
2015    27      2       1.914589        226.2761
2015    27      3       1.824918        223.3583
2015    27      4       1.914341        226.9112
2015    27      5       2.299334        239.6219
2015    27      6       2.286476        239.5849
2015    27      7       2.383858        242.856
2015    28      0       1.873602        225.2249
2015    28      1       1.488109        205.1097
2015    28      2       1.567656        206.4339
2015    28      3       1.538454        205.0354
2015    28      4       1.459423        201.2014
2015    28      5       1.567456        206.96
2015    28      6       1.602695        208.556
2015    28      7       1.486149        201.6919
2015    29      0       1.46478         200.0275
2015    29      1       1.901431        221.4999
2015    29      2       1.794422        217.1931
2015    29      3       1.577166        206.4594
2015    29      4       1.429484        197.428
2015    29      5       1.442175        198.4925
2015    29      6       1.840155        218.1132
2015    29      7       1.366728        193.0851
2015    30      0       1.524916        202.3228
2015    30      1       1.622119        207.8482
2015    30      2       1.825536        217.1691
2015    30      3       1.378468        193.4812
2015    30      4       1.445785        197.8907
2015    30      5       1.347402        191.347
2015    30      6       1.480736        199.5183
2015    30      7       1.359596        192.4939
2016    1       0       2.282936        243.1994
2016    1       1       2.234747        241.3997
2016    1       2       2.206416        240.6643
2016    1       3       2.274871        242.7541
2016    1       4       2.303282        243.6243
2016    1       5       2.293582        243.5291
2016    1       6       2.310582        243.9213
2016    1       7       2.320341        243.6313
2016    2       0       2.396638        244.8055
2016    2       1       2.627633        248.5286
2016    2       2       2.626616        247.5503
2016    2       3       2.34503         241.2804
2016    2       4       2.328378        240.3977
2016    2       5       2.448241        241.8028
2016    2       6       2.201977        234.599
2016    2       7       2.515685        242.7107
2016    3       0       1.528447        206.216
2016    3       1       1.386352        197.0312
2016    3       2       1.559746        206.972
2016    3       3       1.596925        209.0356
2016    3       4       1.469222        202.2111
2016    3       5       1.542285        206.6015
2016    3       6       1.624808        210.9993
2016    3       7       1.27401         190.1459
2016    4       0       1.158321        181.6564
2016    4       1       0.8699056       154.883
2016    4       2       0.8115801       148.2629
2016    4       3       1.030411        169.277
2016    4       4       0.9905916       165.8413
2016    4       5       0.8815725       156.0894
2016    4       6       0.9445485       162.9112
2016    4       7       1.906487        226.1354
2016    5       0       2.379942        241.1274
2016    5       1       2.388444        242.2651
2016    5       2       2.419807        243.628
2016    5       3       2.497417        245.0244
2016    5       4       2.580775        246.9895
2016    5       5       2.500275        245.3634
2016    5       6       2.609976        246.7467
2016    5       7       2.20529         236.2206
2016    6       0       1.909092        226.3006
2016    6       1       2.075743        232.1311
2016    6       2       2.22057         236.6208
2016    6       3       2.159331        234.5482
2016    6       4       2.163276        234.1433
2016    6       5       2.030496        230.2979
2016    6       6       2.548295        244.1514
2016    6       7       2.462661        242.2194
2016    7       0       2.465682        242.0482
2016    7       1       3.055309        251.2729
2016    7       2       3.208052        251.9376
2016    7       3       2.647961        243.6016
2016    7       4       1.610859        209.6054
2016    7       5       1.381033        196.5956
2016    7       6       1.318197        193.433
2016    7       7       1.139128        179.5389
2016    8       0       1.487505        203.2528
2016    8       1       1.721842        215.4827
2016    8       2       2.155038        231.5133
2016    8       3       1.618455        209.7625
2016    8       4       1.384761        197.4363
2016    8       5       1.770885        218.8538
2016    8       6       2.118025        231.9051
2016    8       7       2.301319        237.8273
2016    9       0       2.418553        241.4027
2016    9       1       2.440585        241.8684
2016    9       2       2.588946        245.9085
2016    9       3       2.085575        233.6279
2016    9       4       2.008131        230.4677
2016    9       5       1.296903        191.5455
2016    9       6       1.139996        179.8134
2016    9       7       1.090888        175.3019
2016    10      0       2.292839        237.8963
2016    10      1       2.943397        253.3997
2016    10      2       2.396184        244.357
2016    10      3       2.14388         238.5238
2016    10      4       2.325422        243.2615
2016    10      5       1.394648        204.5375
2016    10      6       0.7576471       145.5014
2016    10      7       3.727068        264.7842
2016    11      0       3.087353        259.0926
2016    11      1       2.898578        256.3735
2016    11      2       3.533488        263.3902
2016    11      3       3.54275         262.4482
2016    11      4       3.62465         262.7043
2016    11      5       3.016013        256.863
2016    11      6       2.580846        249.4051
2016    11      7       2.851532        254.4832
2016    12      0       2.217325        239.473
2016    12      1       1.237291        190.3089
2016    12      2       2.089451        234.7836
2016    12      3       1.466215        205.8052
2016    12      4       1.383105        201.0207
2016    12      5       2.738746        252.1913
2016    12      6       3.070221        257.7112
2016    12      7       2.406041        246.1504
2016    13      0       2.540888        248.0546
2016    13      1       2.021774        231.6101
2016    13      2       1.940384        227.6241
2016    13      3       1.204885        185.6144
2016    13      4       1.154251        181.6936
2016    13      5       1.905635        225.4367
2016    13      6       1.687839        215.6565
2016    13      7       1.71332         216.7436
2016    14      0       1.862038        223.2185
2016    14      1       1.901345        225.3756
2016    14      2       2.544297        245.0532
2016    14      3       3.152087        256.6828
2016    14      4       2.110369        234.8682
2016    14      5       2.348453        241.5312
2016    14      6       2.76334         251.1949
2016    14      7       2.362206        242.7273
2016    15      0       2.921398        254.3265
2016    15      1       1.601556        214.0178
2016    15      2       2.390161        244.1037
2016    15      3       2.729969        252.4286
2016    15      4       2.585704        248.6024
2016    15      5       2.227983        239.4817
2016    15      6       2.77127         251.5255
2016    15      7       2.511024        246.8206
2016    16      0       2.965263        254.1467
2016    16      1       2.752314        251.175
2016    16      2       3.066405        256.3105
2016    16      3       2.9202          254.4991
2016    16      4       3.295802        259.5454
2016    16      5       2.817929        253.5232
2016    16      6       2.105756        237.7931
2016    16      7       2.172988        240.908
2016    17      0       3.467602        263.0686
2016    17      1       3.220056        260.7748
2016    17      2       3.083334        259.1973
2016    17      3       3.416417        261.9014
2016    17      4       2.525715        248.2985
2016    17      5       1.682783        218.754
2016    17      6       2.491961        245.4551
2016    17      7       2.726947        249.8552
2016    18      0       2.802025        250.8009
2016    18      1       2.868565        250.9424
2016    18      2       2.730972        247.8206
2016    18      3       2.298943        238.3534
2016    18      4       2.112936        232.7204
2016    18      5       2.091884        231.9141
2016    18      6       1.704465        217.419
2016    18      7       1.274354        192.0104
2016    19      0       1.955297        230.0096
2016    19      1       1.626571        216.8175
2016    19      2       1.43484         206.6495
2016    19      3       1.440914        207.3042
2016    19      4       1.038114        174.9553
2016    19      5       0.8666853       156.7695
2016    19      6       0.9251246       164.1722
2016    19      7       0.996136        171.9934
2016    20      0       1.844559        227.4955
2016    20      1       3.293077        260.894
2016    20      2       2.947617        255.7699
2016    20      3       0.7175081       140.0162
2016    20      4       0.6837511       135.1033
2016    20      5       0.3802081       87.31286
2016    20      6       0.290667        70.29863
2016    20      7       0.2714174       66.56458
2016    21      0       1.155109        185.2494
2016    21      1       2.475908        247.7629
2016    21      2       2.451823        247.5463
2016    21      3       2.343706        244.0514
2016    21      4       2.18983         238.2839
2016    21      5       2.456413        245.3712
2016    21      6       2.57652         245.9838
2016    21      7       2.562777        244.9199
2016    22      0       0.7714841       143.8671
2016    22      1       0.6490816       128.546
2016    22      2       0.7102022       136.2999
2016    22      3       1.357597        197.9038
2016    22      4       1.285724        193.2138
2016    22      5       0.9975907       169.3063
2016    22      6       0.5857553       119.3986
2016    22      7       1.251745        192.1611
2016    23      0       1.883947        228.1689
2016    23      1       2.20999         238.1366
2016    23      2       2.325666        241.1469
2016    23      3       2.723295        249.558
2016    23      4       2.87421         252.9219
2016    23      5       2.782699        251.69
2016    23      6       2.977441        254.1634
2016    23      7       3.047851        255.1303
2016    24      0       2.848772        251.8515
2016    24      1       1.996968        229.7602
2016    24      2       2.145343        235.265
2016    24      3       1.73148         219.6424
2016    24      4       1.328602        195.8859
2016    24      5       2.607931        248.0782
2016    24      6       3.287528        260.5568
2016    24      7       2.978933        258.1207
2016    25      0       2.983761        259.2766
2016    25      1       3.389249        263.6859
2016    25      2       3.35912         262.2007
2016    25      3       2.715711        253.8906
2016    25      4       2.919467        256.8779
2016    25      5       2.550303        249.7433
2016    25      6       2.544754        249.3602
2016    25      7       2.586476        250.4789
2016    26      0       3.487249        263.3062
2016    26      1       3.062619        258.6899
2016    26      2       3.063723        259.0433
2016    26      3       2.34752         244.3008
2016    26      4       1.608936        214.1631
2016    26      5       1.672014        216.7617
2016    26      6       1.66054         216.6428
2016    26      7       3.014356        256.4716
2016    27      0       3.690654        265.8849
2016    27      1       3.773847        267.4477
2016    27      2       3.161793        262.1324
2016    27      3       1.681455        220.6578
2016    27      4       1.467168        207.4949
2016    27      5       1.893107        227.9706
2016    27      6       2.120639        235.2921
2016    27      7       2.288673        240.146
2016    28      0       1.138005        182.082
2016    28      1       1.280218        193.2109
2016    28      2       2.078604        234.0178
2016    28      3       2.912557        253.3266
2016    28      4       3.452314        260.8716
2016    28      5       3.672037        264.0442
2016    28      6       3.420408        261.866
2016    28      7       2.61362         249.138
2016    29      0       2.263356        240.2372
2016    29      1       2.004937        232.1492
2016    29      2       2.721996        250.4017
2016    29      3       2.189961        235.0905
2016    29      4       1.927207        225.2245
2016    29      5       1.732193        217.1083
2016    29      6       1.912573        224.4762
2016    29      7       1.730923        216.2821
2016    30      0       1.769           217.2568
2016    30      1       1.607405        209.1885
2016    30      2       1.525599        204.0429
2016    30      3       1.707595        213.8851
2016    30      4       1.558943        206.1899
2016    30      5       1.707983        215.375
2016    30      6       1.82497         221.2325
2016    30      7       1.948098        226.2684
2017    1       0       0.9133296       159.6561
2017    1       1       1.703683        217.4206
2017    1       2       1.665965        215.1202
2017    1       3       1.196805        185.7188
2017    1       4       1.649129        215.1946
2017    1       5       1.612396        213.0622
2017    1       6       1.620919        214.6026
2017    1       7       1.779236        222.2646
2017    2       0       2.264434        239.9333
2017    2       1       2.135872        235.0319
2017    2       2       2.209729        236.5435
2017    2       3       2.349792        240.2132
2017    2       4       1.825788        222.79
2017    2       5       1.665761        215.1239
2017    2       6       1.915982        225.9065
2017    2       7       1.612967        212.5399
2017    3       0       0.8472988       152.2363
2017    3       1       0.8613928       153.5442
2017    3       2       1.379629        198.2064
2017    3       3       1.57413         209.5114
2017    3       4       1.704311        215.7669
2017    3       5       1.862153        222.1637
2017    3       6       2.277933        236.0813
2017    3       7       1.936687        225.0183
2017    4       0       1.731951        216.7601
2017    4       1       1.606357        210.7466
2017    4       2       1.898954        224.0086
2017    4       3       2.077239        230.178
2017    4       4       2.137745        231.8897
2017    4       5       1.904876        224.012
2017    4       6       1.626088        212.6038
2017    4       7       1.708153        217.2312
2017    5       0       2.115806        232.9466
2017    5       1       2.508594        244.5617
2017    5       2       2.12897         234.2171
2017    5       3       1.911749        226.4716
2017    5       4       1.980128        228.3848
2017    5       5       1.746022        218.6156
2017    5       6       1.867855        224.1832
2017    5       7       2.283797        239.7441
2017    6       0       2.453544        245.6981
2017    6       1       3.039886        256.6621
2017    6       2       3.342225        260.2929
2017    6       3       2.923484        255.3219
2017    6       4       2.664451        250.215
2017    6       5       2.689186        250.0524
2017    6       6       2.976427        254.576
2017    6       7       3.333019        259.149
2017    7       0       3.64761         262.5574
2017    7       1       2.969288        254.447
2017    7       2       2.958416        253.0539
2017    7       3       2.696655        247.5495
2017    7       4       2.572573        243.9556
2017    7       5       2.132861        232.1483
2017    7       6       2.04581         229.2749
2017    7       7       1.773773        218.739
2017    8       0       1.40309         198.1531
2017    8       1       1.447917        201.0289
2017    8       2       1.578618        209.3852
2017    8       3       1.85738         222.0123
2017    8       4       2.09251         231.0499
2017    8       5       2.541532        244.6265
2017    8       6       2.672729        251.1334
2017    8       7       2.910011        255.364
2017    9       0       2.568784        248.1868
2017    9       1       1.600924        212.9823
2017    9       2       1.495366        205.5302
2017    9       3       1.445014        201.3851
2017    9       4       1.561507        207.4256
2017    9       5       1.581342        208.9327
2017    9       6       1.699235        214.9367
2017    9       7       1.862694        222.1607
2017    10      0       1.818091        220.6454
2017    10      1       1.862631        222.8544
2017    10      2       1.921696        225.4405
2017    10      3       1.80317         220.4943
2017    10      4       1.945626        226.2755
2017    10      5       2.078333        230.7552
2017    10      6       2.146624        233.6046
2017    10      7       2.193502        234.7147
2017    11      0       1.735403        217.2202
2017    11      1       1.760568        217.6729
2017    11      2       1.695083        214.1782
2017    11      3       1.764223        217.3248
2017    11      4       2.113653        231.073
2017    11      5       1.807396        220.083
2017    11      6       1.854177        223.3714
2017    11      7       2.050779        230.7307
2017    12      0       2.074284        232.2484
2017    12      1       2.087885        232.4973
2017    12      2       2.331605        238.7125
2017    12      3       2.19291         233.5565
2017    12      4       1.982906        226.5635
2017    12      5       2.181564        233.5116
2017    12      6       2.431913        240.3127
2017    12      7       2.023326        228.8931
2017    13      0       2.011372        228.1809
2017    13      1       2.04927         228.7138
2017    13      2       2.176889        232.8151
2017    13      3       2.265416        235.2442
2017    13      4       2.128836        231.268
2017    13      5       1.868283        222.2451
2017    13      6       1.585816        208.37
2017    13      7       1.71472         214.6795
2017    14      0       1.609057        209.6402
2017    14      1       1.751812        216.3721
2017    14      2       1.750573        216.8115
2017    14      3       1.59005         208.6264
2017    14      4       2.003446        226.5575
2017    14      5       2.199395        233.3961
2017    14      6       2.393165        238.9642
2017    14      7       2.261393        235.3318
2017    15      0       2.171184        232.8963
2017    15      1       2.343053        237.8744
2017    15      2       2.29857         237.11
2017    15      3       2.206979        234.0831
2017    15      4       2.350765        236.9654
2017    15      5       2.327018        235.4877
2017    15      6       1.798046        216.6744
2017    15      7       1.48557         200.706
2017    16      0       1.155479        177.7159
2017    16      1       1.130662        175.2958
2017    16      2       1.339013        190.5607
2017    16      3       1.210812        181.7717
2017    16      4       1.151333        177.9267
2017    16      5       1.586063        206.8017
2017    16      6       1.458542        199.8559
2017    16      7       1.378574        194.8511
2017    17      0       1.415602        197.4089
2017    17      1       1.254727        186.8943
2017    17      2       0.8840763       154.4796
2017    17      3       0.8981233       156.0996
2017    17      4       1.915714        224.2123
2017    17      5       2.020186        228.7373
2017    17      6       1.885109        223.3862
2017    17      7       2.108218        231.0203
2017    18      0       1.471574        202.0758
2017    18      1       1.533903        205.7749
2017    18      2       1.455243        202.0794
2017    18      3       1.462764        202.083
2017    18      4       1.255932        188.7875
2017    18      5       1.40599         198.0977
2017    18      6       1.551309        206.2914
2017    18      7       1.281144        189.8186
2017    19      0       1.697363        215.5284
2017    19      1       1.575421        210.627
2017    19      2       1.762582        219.9215
2017    19      3       1.637247        213.4357
2017    19      4       1.555137        209.3066
2017    19      5       1.493122        206.0018
2017    19      6       1.658139        214.918
2017    19      7       1.645905        214.4757
2017    20      0       1.587106        211.5673
2017    20      1       1.443722        203.4239
2017    20      2       1.964569        228.2563
2017    20      3       1.752317        219.2755
2017    20      4       2.00487         228.9385
2017    20      5       1.385859        197.6951
2017    20      6       1.241701        187.3482
2017    20      7       1.351405        195.3473
2017    21      0       1.41878         199.8941
2017    21      1       1.567669        208.9287
2017    21      2       1.746372        218.1423
2017    21      3       1.764394        219.5762
2017    21      4       1.9032          225.1871
2017    21      5       1.970326        227.9687
2017    21      6       1.964218        228.3872
2017    21      7       2.165451        235.1075
2017    22      0       1.915512        226.1611
2017    22      1       1.964478        227.456
2017    22      2       1.797817        220.8072
2017    22      3       1.801215        220.0858
2017    22      4       1.415438        198.5627
2017    22      5       1.991697        223.7364
2017    22      6       0.8363259       146.7567
2017    22      7       0.9025949       152.9129
2017    23      0       1.066799        168.293
2017    23      1       1.216958        180.6231
2017    23      2       1.124576        173.1294
2017    23      3       1.371715        191.7021
2017    23      4       1.425287        195.3878
2017    23      5       1.192999        179.2317
2017    23      6       1.467526        197.8175
2017    23      7       1.695455        209.7777
2017    24      0       1.591373        204.3716
2017    24      1       1.527363        200.6371
2017    24      2       1.27633         184.8389
2017    24      3       1.109966        172.3841
2017    24      4       1.212307        180.8241
2017    24      5       1.157285        177.5473
2017    24      6       1.165508        179.2144
2017    24      7       1.388269        195.5859
2017    25      0       1.283754        188.4414
2017    25      1       1.44993         200.0217
2017    25      2       1.446231        200.2331
2017    25      3       1.800284        218.8334
2017    25      4       1.74559         216.6445
2017    25      5       1.514404        205.086
2017    25      6       1.337205        194.0104
2017    25      7       1.564071        207.8871
2017    26      0       1.453622        201.5338
2017    26      1       2.344529        238.3203
2017    26      2       2.182241        234.0238
2017    26      3       2.622548        244.8053
2017    26      4       2.022673        228.4769
2017    26      5       1.189257        184.0505
2017    26      6       1.363481        197.6456
2017    26      7       2.630327        246.5502
2017    27      0       2.725932        248.0127
2017    27      1       2.840144        249.8461
2017    27      2       2.573382        245.0364
2017    27      3       2.209318        235.7132
2017    27      4       2.004055        229.5452
2017    27      5       2.237359        237.2608
2017    27      6       2.309488        240.6041
2017    27      7       2.257202        239.6987
2017    28      0       2.510656        246.8454
2017    28      1       2.825239        253.5897
2017    28      2       2.732413        251.2002
2017    28      3       2.241603        239.4075
2017    28      4       2.264899        239.6354
2017    28      5       2.272271        240.1636
2017    28      6       2.493207        245.8074
2017    28      7       1.737954        218.5465
2017    29      0       1.270428        189.6735
2017    29      1       1.262446        188.4653
2017    29      2       1.28237         190.4297
2017    29      3       1.470671        202.9259
2017    29      4       1.458122        202.496
2017    29      5       1.507804        206.2726
2017    29      6       1.658476        214.4591
2017    29      7       1.83349         222.6927
2017    30      0       1.943959        227.0135
2017    30      1       1.978404        228.4157
2017    30      2       1.911647        226.1079
2017    30      3       1.885726        225.5095
2017    30      4       1.879758        225.9294
2017    30      5       1.823405        223.5534
2017    30      6       1.734179        219.563
2017    30      7       1.620803        214.3996
