####################################################################################################
# Month: 12Dec                                                                                     #
# Station: PIKE                                                                                    #
# Frequency: 345 GHz                                                                               #
# Columns are: year    day     segment         tau     Tb (K)                                      #
####################################################################################################
2009    1       0       0.1710902       45.43224
2009    1       1       0.1705627       45.30452
2009    1       2       0.1642981       43.98683
2009    1       3       0.1817202       47.4398
2009    1       4       0.2075895       52.62286
2009    1       5       0.2309441       57.10774
2009    1       6       0.2360304       58.12786
2009    1       7       0.2386792       58.87079
2009    2       0       0.2525601       61.63447
2009    2       1       0.2057234       52.7274
2009    2       2       0.1503604       41.31539
2009    2       3       0.1147524       33.03227
2009    2       4       0.09310721      28.15175
2009    2       5       0.09548134      28.54164
2009    2       6       0.1050243       30.60099
2009    2       7       0.1940726       49.07716
2009    3       0       0.1626775       42.67143
2009    3       1       0.1092728       31.45159
2009    3       2       0.08442142      25.94108
2009    3       3       0.07975807      24.85279
2009    3       4       0.07612329      23.93281
2009    3       5       0.07293611      23.09508
2009    3       6       0.08019218      24.67435
2009    3       7       0.09767696      28.56021
2009    4       0       0.1229105       33.87012
2009    4       1       0.1324029       35.79539
2009    4       2       0.1224263       33.81858
2009    4       3       0.08167041      25.13841
2009    4       4       0.09315046      27.83125
2009    4       5       0.06424367      21.40196
2009    4       6       0.07942473      24.76954
2009    4       7       0.1536195       40.75186
2009    5       0       0.3465236       78.01428
2009    5       1       0.1865446       48.60401
2009    5       2       0.09377033      28.57791
2009    5       3       0.1179587       33.76188
2009    5       4       0.1366784       37.71479
2009    5       5       0.1551072       41.61631
2009    5       6       0.1899117       48.81578
2009    5       7       0.2502606       60.51637
2009    6       0       0.3204272       73.24376
2009    6       1       0.3806477       83.5493
2009    6       2       0.4096972       88.35155
2009    6       3       0.3772888       83.24724
2009    6       4       0.2917039       67.81802
2009    6       5       0.2226084       54.40482
2009    6       6       0.1863939       47.27991
2009    6       7       0.1830082       46.74159
2009    7       0       0.1244454       34.79386
2009    7       1       0.1141919       32.72155
2009    7       2       0.1476733       40.0544
2009    7       3       0.1394342       38.04221
2009    7       4       0.2002775       50.31045
2009    7       5       0.2804755       65.80426
2009    7       6       0.325317        74.06161
2009    7       7       0.373912        82.49715
2009    8       0       0.3413843       76.70645
2009    8       1       0.3437908       77.33516
2009    8       2       0.3700573       81.75298
2009    8       3       0.4782387       99.37172
2009    8       4       0.5559764       111.2906
2009    8       5       0.2731485       64.85688
2009    8       6       0.2886296       67.55896
2009    8       7       0.2215264       54.71036
2009    9       0       0.1100805       31.85466
2009    9       1       0.09929289      29.29548
2009    9       2       0.09768567      28.98797
2009    9       3       0.08091965      25.36977
2009    9       4       0.07460629      23.9184
2009    9       5       0.06990777      22.77456
2009    9       6       0.07179107      23.16623
2009    9       7       0.1351396       37.01816
2009    10      0       0.1269053       35.51041
2009    10      1       0.07202334      23.36368
2009    10      2       0.06343265      21.3332
2009    10      3       0.07590799      24.32098
2009    10      4       0.08929293      27.32778
2009    10      5       0.1130422       32.57069
2009    10      6       0.1235541       35.00083
2009    10      7       0.1209194       34.35812
2009    11      0       0.1249478       35.04947
2009    11      1       0.1135954       32.68837
2009    11      2       0.0958493       28.75775
2009    11      3       0.07004397      22.80724
2009    11      4       0.07487089      23.87792
2009    11      5       0.09280447      27.85141
2009    11      6       0.1428809       38.75977
2009    11      7       0.2774136       65.5316
2009    12      0       0.3257672       74.35686
2009    12      1       0.3282328       74.91056
2009    12      2       0.2502593       60.66781
2009    12      3       0.1628648       43.3429
2009    12      4       0.1973486       50.30684
2009    12      5       0.2489191       60.15026
2009    12      6       0.1343242       36.99547
2009    12      7       0.09347253      28.20365
2009    13      0       0.1395281       38.25174
2009    13      1       0.1316405       36.88502
2009    13      2       0.1041733       30.81057
2009    13      3       0.1093564       31.84864
2009    13      4       0.2035783       51.83913
2009    13      5       0.2269308       56.27874
2009    13      6       0.2540726       61.42326
2009    13      7       0.3205497       73.62979
2009    14      0       0.1722514       45.41616
2009    14      1       0.1372656       38.09013
2009    14      2       0.07607741      24.48888
2009    14      3       0.06555116      21.9609
2009    14      4       0.0649791       21.70599
2009    14      5       0.07560491      24.16023
2009    14      6       0.09407588      28.34718
2009    14      7       0.1203065       34.24157
2009    15      0       0.1196484       34.14922
2009    15      1       0.09527531      28.74485
2009    15      2       0.06851562      22.58557
2009    15      3       0.06461471      21.69806
2009    15      4       0.08837932      27.25762
2009    15      5       0.155441        42.21758
2009    15      6       0.2335519       58.40977
2009    15      7       0.2740238       66.41812
2009    16      0       0.2785462       67.22702
2009    16      1       0.3585291       81.57111
2009    16      2       0.3680012       83.19508
2009    16      3       0.4122558       89.99388
2009    16      4       0.5298043       107.6514
2009    16      5       0.5059894       104.7595
2009    16      6       0.5559308       112.4636
2009    16      7       0.5071515       105.0223
2009    17      0       0.4075058       89.56459
2009    17      1       0.3883479       86.02125
2009    17      2       0.4256455       91.94596
2009    17      3       0.4214555       91.59712
2009    17      4       0.4275271       92.1702
2009    17      5       0.3924212       86.3055
2009    17      6       0.2079308       52.93017
2009    17      7       0.1664017       44.45998
2009    18      0       0.1067403       31.31829
2009    18      1       0.08239413      25.55535
2009    18      2       0.08244408      25.6103
2009    18      3       0.08452244      26.10245
2009    18      4       0.1016442       29.92124
2009    18      5       0.1281154       35.5691
2009    18      6       0.1442772       38.85768
2009    18      7       0.129148        35.69304
2009    19      0       0.09830883      29.15294
2009    19      1       0.08660699      26.58111
2009    19      2       0.1049971       30.81412
2009    19      3       0.09512048      28.61817
2009    19      4       0.09920685      29.47363
2009    19      5       0.1101202       32.03973
2009    19      6       0.1229425       34.80583
2009    19      7       0.1482625       40.10526
2009    20      0       0.2032307       51.23838
2009    20      1       0.2633602       63.26221
2009    20      2       0.2939822       68.89429
2009    20      3       0.3587186       80.7708
2009    20      4       0.3673763       82.92004
2009    20      5       0.2977843       70.88995
2009    20      6       0.2599113       63.91141
2009    20      7       0.2398452       60.05962
2009    21      0       0.2030184       52.57265
2009    21      1       0.2542618       62.37191
2009    21      2       0.3087104       72.24279
2009    21      3       0.3549111       80.05779
2009    21      4       0.4903287       101.6484
2009    21      5       0.2056084       52.84432
2009    21      6       0.1007072       29.91596
2009    21      7       0.1610423       42.7416
2009    22      0       0.1397164       38.32027
2009    22      1       0.1278424       35.49211
2009    22      2       0.1568033       41.43092
2009    22      3       0.239487        58.24068
2009    22      4       0.3852667       84.83667
2009    22      5       0.4618494       97.25978
2009    22      6       0.4076015       88.92331
2009    22      7       0.5419705       109.1342
2009    23      0       0.533481        107.7296
2009    23      1       0.4723594       98.41095
2009    23      2       0.4328356       92.07746
2009    23      3       0.3298961       74.87416
2009    23      4       0.318923        72.9502
2009    23      5       0.2628165       62.94214
2009    23      6       0.2737882       65.09118
2009    23      7       0.2813996       66.57344
2009    24      0       0.3461702       77.86205
2009    24      1       0.3645102       80.47756
2009    24      2       0.2659751       62.99957
2009    24      3       0.2381532       57.90893
2009    24      4       0.1191112       33.82815
2009    24      5       0.05022756      18.19466
2009    24      6       0.05673965      19.72666
2009    24      7       0.0558982       19.45886
2009    25      0       0.09021402      27.27554
2009    25      1       0.1176966       33.25121
2009    25      2       0.1468899       39.35195
2009    25      3       0.1614769       42.32794
2009    25      4       0.09073488      27.39716
2009    25      5       0.1179015       33.13946
2009    25      6       0.09776579      28.9789
2009    25      7       0.1958454       49.13374
2009    26      0       0.2718096       63.72998
2009    26      1       0.2710892       63.5741
2009    26      2       0.2708254       63.61016
2009    26      3       0.2609299       62.15805
2009    26      4       0.258965        61.92999
2009    26      5       0.3185818       72.8495
2009    26      6       0.2988138       69.40541
2009    26      7       0.2937204       68.57629
2009    27      0       0.2411572       59.22808
2009    27      1       0.2438383       59.6807
2009    27      2       0.2378141       58.56144
2009    27      3       0.2265059       56.41892
2009    27      4       0.2297786       57.01534
2009    27      5       0.2375865       58.45448
2009    27      6       0.2559712       61.69199
2009    27      7       0.2499287       60.46183
2009    28      0       0.2323578       57.0127
2009    28      1       0.2070682       51.98577
2009    28      2       0.1798744       46.62183
2009    28      3       0.1639864       43.51663
2009    28      4       0.1543791       41.53266
2009    28      5       0.1150482       33.26241
2009    28      6       0.09039411      27.69619
2009    28      7       0.08234861      25.59699
2009    29      0       0.1209637       33.8875
2009    29      1       0.1686047       43.75569
2009    29      2       0.1977335       49.63763
2009    29      3       0.2883096       67.11639
2009    29      4       0.434377        92.46058
2009    29      5       0.3696699       82.05079
2009    29      6       0.3612974       80.40121
2009    29      7       0.4074441       87.8594
2009    30      0       0.366716        81.22294
2009    30      1       0.4075713       87.75581
2009    30      2       0.3246662       73.54354
2009    30      3       0.2520981       60.22015
2009    30      4       0.1581474       41.84022
2009    30      5       0.1306537       36.0557
2009    30      6       0.2290759       55.63746
2009    30      7       0.2727463       63.96656
2009    31      0       0.2288118       55.46906
2009    31      1       0.2106991       51.87751
2009    31      2       0.1815139       46.10559
2009    31      3       0.1693973       43.66758
2009    31      4       0.1024792       29.79991
2009    31      5       0.1029087       30.05545
2009    31      6       0.09720821      28.93899
2009    31      7       0.08408993      26.04433
2010    1       0       0.3176921       73.51294
2010    1       1       0.3046746       71.33321
2010    1       2       0.256276        62.54648
2010    1       3       0.2863389       67.92398
2010    1       4       0.3743366       83.32893
2010    1       5       0.409946        89.36735
2010    1       6       0.3304937       75.89523
2010    1       7       0.208879        53.10843
2010    2       0       0.2302407       57.40231
2010    2       1       0.2540634       61.72296
2010    2       2       0.3375961       77.33734
2010    2       3       0.2801591       67.0831
2010    2       4       0.284144        67.48168
2010    2       5       0.2988869       70.20833
2010    2       6       0.3073081       72.13346
2010    2       7       0.3451573       79.14628
2010    3       0       0.3241679       75.60622
2010    3       1       0.2688991       65.40064
2010    3       2       0.3307672       76.78225
2010    3       3       0.4496418       97.67973
2010    3       4       0.3372678       78.36629
2010    3       5       0.3799801       86.0834
2010    3       6       0.3892718       87.87068
2010    3       7       0.3939266       88.71416
2010    4       0       0.4411037       96.38402
2010    4       1       0.4184598       92.30004
2010    4       2       0.4313217       94.13122
2010    4       3       0.4741783       100.7136
2010    4       4       0.4934041       104.1649
2010    4       5       0.5151887       107.7352
2010    4       6       0.4915952       103.649
2010    4       7       0.505713        105.0661
2010    5       0       0.4181582       91.4061
2010    5       1       0.5842137       116.2881
2010    5       2       0.7830835       141.8089
2010    5       3       0.6681992       127.6529
2010    5       4       0.4221978       92.74527
2010    5       5       0.3632889       82.45242
2010    5       6       0.3663332       82.4636
2010    5       7       0.3761338       83.87595
2010    6       0       0.3234067       75.07219
2010    6       1       0.2366872       58.90416
2010    6       2       0.1828741       48.08096
2010    6       3       0.1443941       39.9297
2010    6       4       0.1481112       40.40617
2010    6       5       0.2587618       62.56927
2010    6       6       0.4839279       101.8793
2010    6       7       0.627822        123.2841
2010    7       0       0.4353758       95.0379
2010    7       1       0.2908031       69.83921
2010    7       2       0.1492568       40.9465
2010    7       3       0.2094644       53.15734
2010    7       4       0.2189752       54.26498
2010    7       5       0.3735602       82.30739
2010    7       6       0.3806003       84.49748
2010    7       7       0.1198623       34.88983
2010    8       0       0.0757275       24.18336
2010    8       1       0.1004542       29.6958
2010    8       2       0.1101825       32.20542
2010    8       3       0.129401        36.68502
2010    8       4       0.1684134       45.34862
2010    8       5       0.2678912       64.72787
2010    8       6       0.370159        83.55755
2010    8       7       0.4204225       91.9536
2010    9       0       0.3703104       82.99635
2010    9       1       0.4485572       96.17546
2010    9       2       0.4767163       101.0344
2010    9       3       0.4804032       102.486
2010    9       4       0.5322975       110.0163
2010    9       5       0.4580607       98.7242
2010    9       6       0.2723982       66.28692
2010    9       7       0.3882855       85.96066
2010    10      0       0.5432137       110.2248
2010    10      1       0.595125        117.083
2010    10      2       0.5818176       115.4411
2010    10      3       0.4915707       102.5489
2010    10      4       0.2800193       67.39647
2010    10      5       0.2245142       55.88276
2010    10      6       0.3163296       73.42706
2010    10      7       0.3204161       74.58014
2010    11      0       0.3455338       78.76714
2010    11      1       0.4077169       88.81372
2010    11      2       0.2674638       64.15307
2010    11      3       0.1939721       49.71859
2010    11      4       0.1479564       40.07752
2010    11      5       0.1230899       34.75323
2010    11      6       0.1193308       33.79427
2010    11      7       0.1667888       43.6198
2010    12      0       0.2431144       59.28076
2010    12      1       0.3493173       79.15304
2010    12      2       0.4406707       94.9079
2010    12      3       0.4966939       104.372
2010    12      4       0.5450501       111.9145
2010    12      5       0.5089622       106.8314
2010    12      6       0.4776639       102.4692
2010    12      7       0.5123725       107.4631
2010    13      0       0.4058514       90.70576
2010    13      1       0.2782858       68.27607
2010    13      2       0.1705574       46.26359
2010    13      3       0.1231351       35.69526
2010    13      4       0.1449706       40.30062
2010    13      5       0.2421957       60.05963
2010    13      6       0.3669224       82.6563
2010    13      7       0.42383         92.16558
2010    14      0       0.4193417       91.61932
2010    14      1       0.435957        94.78013
2010    14      2       0.4669541       99.50276
2010    14      3       0.2612328       62.97021
2010    14      4       0.2988438       70.62035
2010    14      5       0.3589345       82.10476
2010    14      6       0.5313835       109.5199
2010    14      7       0.5653597       114.8428
2010    15      0       0.4957871       105.9656
2010    15      1       0.4936326       105.2412
2010    15      2       0.6277998       124.1568
2010    15      3       0.547582        113.4897
2010    15      4       0.5017735       106.4229
2010    15      5       0.4375238       96.4209
2010    15      6       0.4759114       101.1523
2010    15      7       0.3156464       73.7528
2010    16      0       0.2122279       53.49719
2010    16      1       0.1208034       34.21945
2010    16      2       0.1089626       31.27991
2010    16      3       0.1373827       37.33229
2010    16      4       0.1469652       39.32118
2010    16      5       0.2436482       59.04821
2010    16      6       0.3289106       75.06829
2010    16      7       0.3150862       72.72689
2010    17      0       0.214661        53.67724
2010    17      1       0.2151047       53.6724
2010    17      2       0.2777563       65.71266
2010    17      3       0.3880025       84.98882
2010    17      4       0.3603933       80.19284
2010    17      5       0.2574827       61.7896
2010    17      6       0.1197837       34.25499
2010    17      7       0.1259703       35.36961
2010    18      0       0.1584193       41.90168
2010    18      1       0.290535        68.15148
2010    18      2       0.3484771       78.53561
2010    18      3       0.3692383       82.44718
2010    18      4       0.3187066       73.70655
2010    18      5       0.3736279       83.11068
2010    18      6       0.4445193       94.91102
2010    18      7       0.2759702       66.50732
2010    19      0       0.3409635       77.63968
2010    19      1       0.3041461       71.20647
2010    19      2       0.2963995       69.77292
2010    19      3       0.3374805       77.13943
2010    19      4       0.3979389       88.04688
2010    19      5       0.4177913       91.73599
2010    19      6       0.4208677       92.66797
2010    19      7       0.4558877       98.45171
2010    20      0       0.4643074       99.74723
2010    20      1       0.4014189       89.69264
2010    20      2       0.3109862       74.20401
2010    20      3       0.3150877       74.84175
2010    20      4       0.3461052       80.68747
2010    20      5       0.3307047       77.50153
2010    20      6       0.2956072       71.46575
2010    20      7       0.396594        88.77345
2010    21      0       0.4109147       91.13464
2010    21      1       0.4367856       95.10541
2010    21      2       0.4655878       99.9262
2010    21      3       0.4918815       104.1713
2010    21      4       0.4806814       102.4367
2010    21      5       0.4825548       102.6266
2010    21      6       0.4944775       104.4624
2010    21      7       0.5001253       104.9315
2010    22      0       0.4955072       103.6024
2010    22      1       0.4569419       97.46195
2010    22      2       0.5560573       112.3244
2010    22      3       0.5657658       113.7351
2010    22      4       0.4518942       97.19869
2010    22      5       0.3767402       84.98518
2010    22      6       0.3191282       74.51819
2010    22      7       0.4807554       101.5463
2010    23      0       0.4234554       93.10492
2010    23      1       0.2841548       68.42997
2010    23      2       0.2632281       64.59317
2010    23      3       0.2346869       59.09513
2010    23      4       0.2061055       52.96913
2010    23      5       0.2293776       57.50356
2010    23      6       0.4264881       92.81193
2010    23      7       0.5686979       114.29
2010    24      0       0.6498182       125.1245
2010    24      1       0.3738392       84.07598
2010    24      2       0.1769048       46.97209
2010    24      3       0.1427619       39.5253
2010    24      4       0.135           37.80316
2010    24      5       0.154376        41.83088
2010    24      6       0.2015474       51.47673
2010    24      7       0.2613693       63.07673
2010    25      0       0.3665491       82.21697
2010    25      1       0.3607478       81.80616
2010    25      2       0.295187        70.29493
2010    25      3       0.211095        54.0045
2010    25      4       0.1438327       39.78577
2010    25      5       0.1080304       31.58986
2010    25      6       0.103996        30.40083
2010    25      7       0.1536035       40.88981
2010    26      0       0.1908309       48.81731
2010    26      1       0.217202        54.65574
2010    26      2       0.2447158       60.3773
2010    26      3       0.2441897       60.53351
2010    26      4       0.227787        57.54922
2010    26      5       0.2230071       56.61104
2010    26      6       0.2214031       56.23523
2010    26      7       0.2311349       58.06495
2010    27      0       0.2387445       59.44771
2010    27      1       0.3562985       80.59922
2010    27      2       0.2684097       64.94065
2010    27      3       0.1571209       42.78954
2010    27      4       0.115213        33.14797
2010    27      5       0.1467864       39.66312
2010    27      6       0.1791845       46.42415
2010    27      7       0.2344719       57.48529
2010    28      0       0.24679         59.90848
2010    28      1       0.2446968       59.41345
2010    28      2       0.2653945       63.1908
2010    28      3       0.3074921       70.7999
2010    28      4       0.3132942       71.74933
2010    28      5       0.2671206       63.38446
2010    28      6       0.2096197       52.52387
2010    28      7       0.1635291       43.41448
2010    29      0       0.14355         39.30339
2010    29      1       0.122183        34.58822
2010    29      2       0.1648717       43.76834
2010    29      3       0.1824124       47.52789
2010    29      4       0.2775788       66.14818
2010    29      5       0.701313        131.3896
2010    29      6       0.5865681       117.9028
2010    29      7       0.4534084       98.1959
2010    30      0       0.4153977       91.34938
2010    30      1       0.4058353       89.09449
2010    30      2       0.3864487       85.33827
2010    30      3       0.3476657       78.25357
2010    30      4       0.1593118       42.63535
2010    30      5       0.2581012       61.92997
2010    30      6       0.2281024       56.22358
2010    30      7       0.4058944       87.74485
2010    31      0       0.3111095       71.51505
2010    31      1       0.2211249       54.27032
2010    31      2       0.2068976       51.24743
2010    31      3       0.181983        46.13267
2010    31      4       0.1465613       38.88333
2010    31      5       0.1343154       36.30415
2010    31      6       0.1278969       34.9307
2010    31      7       0.1285992       35.01079
2011    1       0       0.3532307       80.2798
2011    1       1       0.405383        88.32239
2011    1       2       0.4169969       90.13608
2011    1       3       0.3807685       84.43078
2011    1       4       0.3816501       84.51026
2011    1       5       0.3177507       73.38832
2011    1       6       0.2379006       58.56521
2011    1       7       0.2052581       52.26263
2011    2       0       0.2019849       51.68509
2011    2       1       0.1848801       48.28212
2011    2       2       0.1724493       45.75654
2011    2       3       0.1756991       46.44585
2011    2       4       0.1510917       41.56853
2011    2       5       0.09777907      29.66941
2011    2       6       0.09653875      29.2577
2011    2       7       0.1725998       45.91462
2011    3       0       0.2304312       57.17809
2011    3       1       0.409026        88.73905
2011    3       2       0.4871047       100.9128
2011    3       3       0.5265233       106.4821
2011    3       4       0.489908        100.5474
2011    3       5       0.4066073       87.57323
2011    3       6       0.3354284       75.45656
2011    3       7       0.2631543       62.4554
2011    4       0       0.201159        50.56957
2011    4       1       0.1927513       48.8156
2011    4       2       0.1860946       47.31207
2011    4       3       0.1847455       47.06904
2011    4       4       0.178417        45.56799
2011    4       5       0.1747332       44.64187
2011    4       6       0.2126788       52.14456
2011    4       7       0.1917961       47.89348
2011    5       0       0.1576453       40.9729
2011    5       1       0.149543        39.28184
2011    5       2       0.1475227       38.87012
2011    5       3       0.1460853       38.64627
2011    5       4       0.1481158       39.10186
2011    5       5       0.1431635       38.06161
2011    5       6       0.1322564       35.83893
2011    5       7       0.1119062       31.63348
2011    6       0       0.1080801       30.81738
2011    6       1       0.1086209       30.94687
2011    6       2       0.08787102      26.59092
2011    6       3       0.06070257      20.56214
2011    6       4       0.0511653       18.36336
2011    6       5       0.1108277       32.06868
2011    6       6       0.1606924       43.1447
2011    6       7       0.2031641       51.90401
2011    7       0       0.3144878       73.54572
2011    7       1       0.3312228       77.1688
2011    7       2       0.17492         46.7875
2011    7       3       0.1834875       48.91186
2011    7       4       0.1543555       42.67662
2011    7       5       0.1559156       42.7999
2011    7       6       0.1421405       39.78123
2011    7       7       0.154228        42.38908
2011    8       0       0.1671523       44.8652
2011    8       1       0.1867241       48.64366
2011    8       2       0.2198438       55.08904
2011    8       3       0.2584568       62.36756
2011    8       4       0.2826072       66.65173
2011    8       5       0.2945909       68.67658
2011    8       6       0.2967166       69.06779
2011    8       7       0.170221        44.60704
2011    9       0       0.05503395      19.21136
2011    9       1       0.09667048      28.89866
2011    9       2       0.1492677       40.16221
2011    9       3       0.2343476       56.93684
2011    9       4       0.2241737       55.46085
2011    9       5       0.2092096       52.46652
2011    9       6       0.1887636       48.82068
2011    9       7       0.1156836       33.06437
2011    10      0       0.1416062       38.64342
2011    10      1       0.1860177       48.08628
2011    10      2       0.188213        48.81322
2011    10      3       0.179021        47.14729
2011    10      4       0.1598168       43.10176
2011    10      5       0.123663        35.2576
2011    10      6       0.09236834      28.23056
2011    10      7       0.07503839      24.2368
2011    11      0       0.06406093      21.66226
2011    11      1       0.05731687      20.06087
2011    11      2       0.05362868      19.16884
2011    11      3       0.0521479       18.81435
2011    11      4       0.05072634      18.46099
2011    11      5       0.05283766      18.98612
2011    11      6       0.06062814      20.847
2011    11      7       0.08096681      25.46446
2011    12      0       0.121883        34.38291
2011    12      1       0.1411327       38.44472
2011    12      2       0.1729709       44.99051
2011    12      3       0.1646889       43.59835
2011    12      4       0.1742265       45.22619
2011    12      5       0.3002638       69.21429
2011    12      6       0.3884653       85.29672
2011    12      7       0.4865185       101.5068
2011    13      0       0.5940692       116.6465
2011    13      1       0.4457159       95.16972
2011    13      2       0.4304775       93.13799
2011    13      3       0.3688293       82.79341
2011    13      4       0.3468813       79.01933
2011    13      5       0.1452017       39.99037
2011    13      6       0.1260231       35.96989
2011    13      7       0.122361        35.14039
2011    14      0       0.1453646       39.47928
2011    14      1       0.09384303      28.66931
2011    14      2       0.1444951       39.82917
2011    14      3       0.2231102       55.65051
2011    14      4       0.3014979       69.93671
2011    14      5       0.2913223       68.05647
2011    14      6       0.3018455       69.91
2011    14      7       0.2394628       58.37236
2011    15      0       0.1953444       49.92161
2011    15      1       0.1608969       42.78872
2011    15      2       0.1466113       39.57532
2011    15      3       0.1648698       43.50401
2011    15      4       0.1601256       42.84038
2011    15      5       0.1489325       40.58274
2011    15      6       0.1271389       35.98694
2011    15      7       0.09929989      29.87142
2011    16      0       0.08426661      26.41608
2011    16      1       0.06668511      22.22411
2011    16      2       0.06120346      20.82414
2011    16      3       0.06212235      21.06388
2011    16      4       0.100527        29.87806
2011    16      5       0.1321875       36.95066
2011    16      6       0.1291383       36.45848
2011    16      7       0.1087651       31.86554
2011    17      0       0.129649        36.46723
2011    17      1       0.1377293       38.58459
2011    17      2       0.1256962       35.95602
2011    17      3       0.1144446       33.39222
2011    17      4       0.103233        30.96273
2011    17      5       0.1043283       31.38608
2011    17      6       0.1035496       31.31214
2011    17      7       0.1027981       31.14046
2011    18      0       0.09417429      29.01241
2011    18      1       0.09219365      28.21812
2011    18      2       0.1328209       36.57513
2011    18      3       0.1782697       46.43131
2011    18      4       0.1462061       40.47759
2011    18      5       0.1422227       39.70839
2011    18      6       0.09917596      29.9395
2011    18      7       0.1057177       31.36875
2011    19      0       0.1298812       36.86429
2011    19      1       0.1829307       48.21324
2011    19      2       0.3167625       74.03389
2011    19      3       0.5665501       113.7454
2011    19      4       0.6703129       127.6082
2011    19      5       0.6364822       123.0023
2011    19      6       0.4932411       102.9458
2011    19      7       0.5571113       111.9971
2011    20      0       0.6556648       125.1447
2011    20      1       0.5918799       116.1719
2011    20      2       0.5341117       107.8527
2011    20      3       0.5412319       108.7936
2011    20      4       0.4632063       97.12613
2011    20      5       0.2873342       67.79229
2011    20      6       0.1375769       37.91834
2011    20      7       0.08220665      25.47869
2011    21      0       0.07676563      24.53541
2011    21      1       0.09546153      28.92102
2011    21      2       0.1367186       38.07826
2011    21      3       0.1495176       40.84992
2011    21      4       0.1355366       37.83542
2011    21      5       0.1346578       37.58484
2011    21      6       0.1842161       48.30074
2011    21      7       0.3178665       74.04193
2011    22      0       0.4799006       99.92431
2011    22      1       0.4087402       88.54007
2011    22      2       0.3546568       78.9597
2011    22      3       0.3266578       73.69335
2011    22      4       0.2613001       61.80816
2011    22      5       0.2325852       56.21334
2011    22      6       0.2015714       50.28932
2011    22      7       0.1783061       45.77287
2011    23      0       0.1404961       38.07776
2011    23      1       0.1156582       32.80776
2011    23      2       0.09819981      29.06586
2011    23      3       0.0721508       23.23957
2011    23      4       0.07775499      24.42385
2011    23      5       0.1263175       35.11665
2011    23      6       0.1620987       43.00457
2011    23      7       0.1907468       49.20345
2011    24      0       0.2226041       55.7024
2011    24      1       0.2409986       59.40028
2011    24      2       0.2390146       59.08008
2011    24      3       0.210302        53.28408
2011    24      4       0.2192562       54.83794
2011    24      5       0.2054179       52.07019
2011    24      6       0.1067957       31.35277
2011    24      7       0.1080137       31.29433
2011    25      0       0.1954104       49.81146
2011    25      1       0.2956658       69.37352
2011    25      2       0.3336121       77.10826
2011    25      3       0.2990909       71.23695
2011    25      4       0.222459        56.46807
2011    25      5       0.1574839       42.75838
2011    25      6       0.1390743       38.64359
2011    25      7       0.1278454       36.13184
2011    26      0       0.125786        35.71231
2011    26      1       0.12519         35.56406
2011    26      2       0.1438687       39.63302
2011    26      3       0.2003982       51.55488
2011    26      4       0.2917217       69.40587
2011    26      5       0.2180961       55.1948
2011    26      6       0.1326152       37.25233
2011    26      7       0.1740249       45.89302
2011    27      0       0.2692057       64.50106
2011    27      1       0.272371        65.24408
2011    27      2       0.232456        57.46828
2011    27      3       0.2558133       62.11293
2011    27      4       0.3145936       73.75219
2011    27      5       0.4046769       89.25452
2011    27      6       0.4321529       93.90651
2011    27      7       0.2800754       67.56102
2011    28      0       0.2005462       51.23311
2011    28      1       0.1646872       44.19452
2011    28      2       0.1379782       38.55171
2011    28      3       0.2251667       55.95198
2011    28      4       0.3730466       83.80755
2011    28      5       0.4385231       94.66401
2011    28      6       0.4920845       103.4703
2011    28      7       0.4315605       94.53153
2011    29      0       0.3917436       87.89965
2011    29      1       0.3523386       80.62871
2011    29      2       0.5083675       105.5692
2011    29      3       0.5888092       117.151
2011    29      4       0.3509689       80.51602
2011    29      5       0.2409379       60.53983
2011    29      6       0.1920551       50.59668
2011    29      7       0.15373         42.14899
2011    30      0       0.1668785       44.36951
2011    30      1       0.2406113       59.4352
2011    30      2       0.2860429       68.42664
2011    30      3       0.1694487       45.59697
2011    30      4       0.1834094       48.2704
2011    30      5       0.2922454       69.69992
2011    30      6       0.4377257       95.03079
2011    30      7       0.3358064       77.41642
2011    31      0       0.2196745       55.32182
2011    31      1       0.2281948       57.31816
2011    31      2       0.2599725       63.46385
2011    31      3       0.2481349       61.60594
2011    31      4       0.05397646      19.32029
2011    31      5       0.07146265      23.61705
2011    31      6       0.04234607      16.42927
2011    31      7       0.06304482      21.42763
2012    1       0       0.4329878       96.19569
2012    1       1       0.4870675       104.3068
2012    1       2       0.5154977       108.2608
2012    1       3       0.46105         99.98137
2012    1       4       0.2786392       68.14993
2012    1       5       0.100512        30.48127
2012    1       6       0.1752321       46.40551
2012    1       7       0.2141938       54.31963
2012    2       0       0.2125199       53.78565
2012    2       1       0.2254969       56.33322
2012    2       2       0.2345004       57.91096
2012    2       3       0.247144        60.44021
2012    2       4       0.2651281       63.84987
2012    2       5       0.2225373       55.48114
2012    2       6       0.1347931       37.46662
2012    2       7       0.1409206       38.86303
2012    3       0       0.2025768       53.32759
2012    3       1       0.1826952       49.12472
2012    3       2       0.2293966       58.31231
2012    3       3       0.4270499       94.88182
2012    3       4       0.131569        37.97509
2012    3       5       0.2109295       54.73299
2012    3       6       0.1508045       41.71967
2012    3       7       0.2241733       56.5149
2012    4       0       0.3055809       70.87305
2012    4       1       0.2979028       69.41059
2012    4       2       0.2233519       56.04722
2012    4       3       0.1708055       45.78594
2012    4       4       0.1504078       41.19148
2012    4       5       0.2674087       64.78019
2012    4       6       0.4946617       103.9497
2012    4       7       0.5423326       112.0239
2012    5       0       0.4559209       99.2839
2012    5       1       0.4322394       95.38994
2012    5       2       0.4840932       103.1688
2012    5       3       0.5914411       118.5574
2012    5       4       0.6462341       125.7196
2012    5       5       0.4974201       104.2858
2012    5       6       0.6271616       123.4603
2012    5       7       0.5831754       118.1859
2012    6       0       0.5213973       109.5874
2012    6       1       0.5927436       119.1006
2012    6       2       0.5630322       113.9738
2012    6       3       0.5756528       115.3416
2012    6       4       0.773438        140.6799
2012    6       5       0.7656666       139.5726
2012    6       6       0.7092454       132.7252
2012    6       7       0.6336237       123.7732
2012    7       0       0.286202        68.5219
2012    7       1       0.1209997       34.96214
2012    7       2       0.1072657       31.43695
2012    7       3       0.1478832       40.07673
2012    7       4       0.2398649       58.81117
2012    7       5       0.3184831       73.73541
2012    7       6       0.2390141       59.30377
2012    7       7       0.3215532       74.75773
2012    8       0       0.2830602       67.53912
2012    8       1       0.2567496       62.32616
2012    8       2       0.2585669       62.55675
2012    8       3       0.3165097       73.2868
2012    8       4       0.3170549       73.87093
2012    8       5       0.172956        45.9158
2012    8       6       0.2195934       55.19238
2012    8       7       0.2279251       56.78317
2012    9       0       0.2830063       66.81266
2012    9       1       0.3079878       71.13413
2012    9       2       0.2722616       64.52254
2012    9       3       0.3242259       73.65011
2012    9       4       0.31209         71.02656
2012    9       5       0.2713991       63.34917
2012    9       6       0.2313463       55.79552
2012    9       7       0.1647835       42.6875
2012    10      0       0.1254821       34.7031
2012    10      1       0.08868638      26.8399
2012    10      2       0.1227612       34.53476
2012    10      3       0.1509571       40.82732
2012    10      4       0.1950817       49.91145
2012    10      5       0.1830097       47.22313
2012    10      6       0.1875708       47.71941
2012    10      7       0.3013082       69.12386
2012    11      0       0.1699869       44.00344
2012    11      1       0.1683172       43.46226
2012    11      2       0.1902606       47.76916
2012    11      3       0.1763315       45.01182
2012    11      4       0.1498097       39.81259
2012    11      5       0.1048461       30.5119
2012    11      6       0.1211009       34.20213
2012    11      7       0.1822939       47.26994
2012    12      0       0.2807629       66.34436
2012    12      1       0.3389485       77.42277
2012    12      2       0.2742352       65.91367
2012    12      3       0.2557438       62.24595
2012    12      4       0.2913551       68.77764
2012    12      5       0.1810159       46.74205
2012    12      6       0.2194812       54.80695
2012    12      7       0.2884662       68.73897
2012    13      0       0.281688        67.40987
2012    13      1       0.2482221       60.60923
2012    13      2       0.2370232       58.25169
2012    13      3       0.2483967       60.42322
2012    13      4       0.1764913       46.01877
2012    13      5       0.1859102       48.05569
2012    13      6       0.194555        49.8607
2012    13      7       0.1883634       48.65276
2012    14      0       0.1746745       45.82769
2012    14      1       0.1919965       49.15573
2012    14      2       0.224926        55.93081
2012    14      3       0.2236312       55.9402
2012    14      4       0.3302373       75.48658
2012    14      5       0.6217013       120.9209
2012    14      6       0.5356491       109.0478
2012    14      7       0.4023839       88.04349
2012    15      0       0.2476279       60.83005
2012    15      1       0.3090231       71.98419
2012    15      2       0.2247176       56.08703
2012    15      3       0.1478983       40.68705
2012    15      4       0.1882068       48.49332
2012    15      5       0.3506237       78.33032
2012    15      6       0.4316987       91.91047
2012    15      7       0.3322635       75.32764
2012    16      0       0.242284        59.11275
2012    16      1       0.2637263       62.79506
2012    16      2       0.1700767       44.3991
2012    16      3       0.1757613       45.44177
2012    16      4       0.1389827       37.87444
2012    16      5       0.1449231       39.26599
2012    16      6       0.1637178       42.94756
2012    16      7       0.2569103       61.05129
2012    17      0       0.1236445       34.72059
2012    17      1       0.1648568       43.08861
2012    17      2       0.2158456       53.6468
2012    17      3       0.2387912       58.47608
2012    17      4       0.1741974       46.13677
2012    17      5       0.1195706       34.28753
2012    17      6       0.1255384       35.42227
2012    17      7       0.1396486       38.53561
2012    18      0       0.1603868       42.99865
2012    18      1       0.1865131       48.65976
2012    18      2       0.20635         52.84562
2012    18      3       0.1987117       51.46889
2012    18      4       0.1947591       50.53622
2012    18      5       0.2248007       56.08322
2012    18      6       0.2566917       62.39818
2012    18      7       0.2709319       64.82264
2012    19      0       0.28649         67.14563
2012    19      1       0.3241272       74.39124
2012    19      2       0.2987375       70.03274
2012    19      3       0.2652789       63.99052
2012    19      4       0.4053231       88.58182
2012    19      5       0.5454987       109.4401
2012    19      6       0.4087082       88.32112
2012    19      7       0.2911504       67.30949
2012    20      0       0.1443377       38.81775
2012    20      1       0.05323705      18.88093
2012    20      2       0.06000975      20.48745
2012    20      3       0.06604544      21.91794
2012    20      4       0.07512048      23.93591
2012    20      5       0.1012634       29.78255
2012    20      6       0.1471264       39.79545
2012    20      7       0.1958474       50.06863
2012    21      0       0.1536061       41.64521
2012    21      1       0.1000319       29.9795
2012    21      2       0.09204823      28.17331
2012    21      3       0.08767294      27.14331
2012    21      4       0.08827015      27.19891
2012    21      5       0.1069672       31.36821
2012    21      6       0.1414455       38.52739
2012    21      7       0.1790955       46.12174
2012    22      0       0.1738231       45.24409
2012    22      1       0.1275963       35.88931
2012    22      2       0.09073165      27.92401
2012    22      3       0.1068178       31.50696
2012    22      4       0.1427818       39.2476
2012    22      5       0.1337809       37.14699
2012    22      6       0.1496217       40.20311
2012    22      7       0.1807258       46.45762
2012    23      0       0.1745234       45.09974
2012    23      1       0.1433079       39.13409
2012    23      2       0.1218223       34.66107
2012    23      3       0.181398        47.04513
2012    23      4       0.2394244       59.04308
2012    23      5       0.2192733       55.06862
2012    23      6       0.1519749       40.82982
2012    23      7       0.1343095       37.47722
2012    24      0       0.100271        29.81663
2012    24      1       0.1977674       50.57777
2012    24      2       0.3097184       71.73025
2012    24      3       0.3976603       86.5041
2012    24      4       0.3880673       85.28831
2012    24      5       0.3545002       79.70742
2012    24      6       0.3015035       70.59769
2012    24      7       0.4220157       91.08113
2012    25      0       0.4684135       97.91221
2012    25      1       0.4779079       99.226
2012    25      2       0.3960039       85.99365
2012    25      3       0.2941541       68.34444
2012    25      4       0.2188876       54.33569
2012    25      5       0.212081        52.91223
2012    25      6       0.205339        51.69691
2012    25      7       0.1874449       48.46148
2012    26      0       0.1039255       30.81558
2012    26      1       0.105223        31.25745
2012    26      2       0.1664193       44.50594
2012    26      3       0.1941602       49.67422
2012    26      4       0.2116422       52.75462
2012    26      5       0.5625152       112.2392
2012    26      6       0.1528293       41.86847
2012    26      7       0.1428193       39.73034
2012    27      0       0.1482593       40.68742
2012    27      1       0.1334921       37.2339
2012    27      2       0.1290247       36.12742
2012    27      3       0.1606292       42.60827
2012    27      4       0.1554455       41.35664
2012    27      5       0.157467        41.6704
2012    27      6       0.2157488       53.3769
2012    27      7       0.2667086       62.87157
2012    28      0       0.2542229       60.40135
2012    28      1       0.219911        53.69251
2012    28      2       0.182215        46.3539
2012    28      3       0.1736949       44.74907
2012    28      4       0.1654828       43.22658
2012    28      5       0.1710955       44.47464
2012    28      6       0.1350862       36.89862
2012    28      7       0.1924115       48.6029
2012    29      0       0.122993        34.46785
2012    29      1       0.05973806      20.43576
2012    29      2       0.05725307      19.85463
2012    29      3       0.07143703      23.25694
2012    29      4       0.1111161       32.11278
2012    29      5       0.1355746       37.41995
2012    29      6       0.1518306       40.57576
2012    29      7       0.1658229       43.34445
2012    30      0       0.1771818       45.73131
2012    30      1       0.1916054       48.99041
2012    30      2       0.173581        45.21375
2012    30      3       0.1871689       47.87944
2012    30      4       0.2523604       60.86877
2012    30      5       0.2706426       64.27625
2012    30      6       0.3218362       73.5309
2012    30      7       0.3567649       79.64572
2012    31      0       0.345114        77.7813
2012    31      1       0.3590915       80.00615
2012    31      2       0.3617254       80.51935
2012    31      3       0.2762858       65.28618
2012    31      4       0.3948413       85.70691
2012    31      5       0.3869455       84.36483
2012    31      6       0.3317076       74.87959
2012    31      7       0.3141752       71.71992
2013    1       0       0.2033271       52.29104
2013    1       1       0.1542976       42.22411
2013    1       2       0.1196462       34.61284
2013    1       3       0.1123376       32.87912
2013    1       4       0.1495636       40.9456
2013    1       5       0.2984624       69.89743
2013    1       6       0.1886944       49.16481
2013    1       7       0.2337409       57.85005
2013    2       0       0.4241428       92.74275
2013    2       1       0.3557451       81.65841
2013    2       2       0.3759786       84.87909
2013    2       3       0.3399316       78.8414
2013    2       4       0.3656506       82.46332
2013    2       5       0.3663034       82.76156
2013    2       6       0.3564758       81.39153
2013    2       7       0.3825293       85.57838
2013    3       0       0.3473046       79.8185
2013    3       1       0.3466314       79.40859
2013    3       2       0.3185869       74.60935
2013    3       3       0.2313109       58.01334
2013    3       4       0.2646452       63.78709
2013    3       5       0.3225217       74.76362
2013    3       6       0.3569508       80.9192
2013    3       7       0.4074623       90.06878
2013    4       0       0.4191841       91.8511
2013    4       1       0.5024918       104.7079
2013    4       2       0.460142        97.91583
2013    4       3       0.4601981       97.83797
2013    4       4       0.393669        86.86369
2013    4       5       0.4887884       101.8562
2013    4       6       0.5179153       105.5941
2013    4       7       0.3186996       73.40188
2013    5       0       0.1124157       32.49806
2013    5       1       0.06406563      21.47611
2013    5       2       0.05386177      18.95194
2013    5       3       0.06391803      21.18281
2013    5       4       0.07059385      22.67372
2013    5       5       0.06881351      22.30908
2013    5       6       0.06293316      21.1374
2013    5       7       0.0665569       21.9797
2013    6       0       0.07946027      24.8946
2013    6       1       0.06807844      22.28193
2013    6       2       0.05751344      19.82316
2013    6       3       0.06364601      21.09082
2013    6       4       0.0959016       28.25769
2013    6       5       0.09917234      29.06781
2013    6       6       0.07942503      24.81915
2013    6       7       0.08299794      25.71161
2013    7       0       0.09407163      28.10387
2013    7       1       0.1149301       32.52846
2013    7       2       0.1886789       47.77378
2013    7       3       0.2635631       62.35225
2013    7       4       0.2997664       68.96591
2013    7       5       0.2530705       60.48612
2013    7       6       0.2478846       59.79005
2013    7       7       0.2176858       54.02983
2013    8       0       0.1981776       49.9609
2013    8       1       0.1610321       42.34451
2013    8       2       0.1724494       44.50119
2013    8       3       0.1204559       33.79469
2013    8       4       0.1087037       31.32916
2013    8       5       0.1230835       34.26218
2013    8       6       0.1470492       39.16113
2013    8       7       0.07146994      23.03438
2013    9       0       0.06913302      22.45041
2013    9       1       0.06569677      21.58655
2013    9       2       0.07199942      22.89321
2013    9       3       0.09629475      28.22733
2013    9       4       0.1243302       34.23023
2013    9       5       0.1074461       30.8199
2013    9       6       0.06413378      21.28101
2013    9       7       0.09567348      28.27359
2013    10      0       0.06744835      21.93138
2013    10      1       0.08567015      26.10758
2013    10      2       0.08079805      25.10979
2013    10      3       0.07896717      24.78957
2013    10      4       0.1008974       29.88093
2013    10      5       0.1446165       39.34675
2013    10      6       0.1640448       43.51792
2013    10      7       0.1285798       36.23888
2013    11      0       0.1824339       47.31351
2013    11      1       0.2389821       58.24826
2013    11      2       0.198559        50.19898
2013    11      3       0.192656        48.82764
2013    11      4       0.2380094       57.65233
2013    11      5       0.1380081       37.77889
2013    11      6       0.1016997       29.95601
2013    11      7       0.09998207      29.8643
2013    12      0       0.1182482       34.0909
2013    12      1       0.1216758       34.94597
2013    12      2       0.1171706       34.08512
2013    12      3       0.1213557       35.15052
2013    12      4       0.129364        37.03052
2013    12      5       0.1415804       39.74204
2013    12      6       0.1266649       36.40709
2013    12      7       0.09057455      28.23431
2013    13      0       0.07885187      25.45951
2013    13      1       0.06990373      23.2953
2013    13      2       0.07375953      24.06743
2013    13      3       0.08578648      26.66649
2013    13      4       0.09401924      28.61878
2013    13      5       0.1064739       31.51324
2013    13      6       0.1333055       37.35456
2013    13      7       0.1776937       46.41599
2013    14      0       0.2404884       58.71845
2013    14      1       0.3319583       75.47704
2013    14      2       0.3274771       74.33192
2013    14      3       0.1807328       47.00788
2013    14      4       0.1016564       29.99629
2013    14      5       0.1216818       34.58062
2013    14      6       0.1290308       36.40364
2013    14      7       0.1264977       35.70105
2013    15      0       0.1911314       49.39733
2013    15      1       0.2364991       58.4538
2013    15      2       0.3272335       75.50034
2013    15      3       0.3816408       85.38017
2013    15      4       0.4564189       97.5428
2013    15      5       0.2586089       63.75388
2013    15      6       0.1162572       33.88219
2013    15      7       0.1349216       37.74579
2013    16      0       0.153741        41.54765
2013    16      1       0.1872043       48.29498
2013    16      2       0.1927172       50.16995
2013    16      3       0.223499        56.59618
2013    16      4       0.2415403       59.88395
2013    16      5       0.2087022       53.29958
2013    16      6       0.145023        40.0098
2013    16      7       0.09966589      30.26282
2013    17      0       0.09568224      29.36715
2013    17      1       0.1266942       36.27022
2013    17      2       0.188885        49.75679
2013    17      3       0.2242096       56.9606
2013    17      4       0.2588382       63.75099
2013    17      5       0.2654924       65.17826
2013    17      6       0.22101         56.5185
2013    17      7       0.2164288       55.59889
2013    18      0       0.2321431       58.46835
2013    18      1       0.2121315       54.24244
2013    18      2       0.2025758       52.01968
2013    18      3       0.2157091       54.21494
2013    18      4       0.2732102       64.96928
2013    18      5       0.294857        69.02356
2013    18      6       0.3127986       73.61489
2013    18      7       0.2402681       59.99843
2013    19      0       0.2490874       61.3367
2013    19      1       0.4570226       96.91566
2013    19      2       0.6801709       129.1013
2013    19      3       0.6286655       122.9159
2013    19      4       0.5985662       118.0845
2013    19      5       0.3457268       78.56607
2013    19      6       0.2770969       66.54314
2013    19      7       0.2171851       55.2177
2013    20      0       0.2570523       62.72819
2013    20      1       0.2506528       61.12213
2013    20      2       0.278345        66.03277
2013    20      3       0.3080579       71.26474
2013    20      4       0.284565        66.93138
2013    20      5       0.2864663       67.47991
2013    20      6       0.2450229       59.82687
2013    20      7       0.2781586       66.2467
2013    21      0       0.2357122       58.14539
2013    21      1       0.2041733       51.85203
2013    21      2       0.1534877       41.67014
2013    21      3       0.1314155       36.93304
2013    21      4       0.1288992       36.30161
2013    21      5       0.1378205       38.0115
2013    21      6       0.2071022       51.85171
2013    21      7       0.37084         81.81346
2013    22      0       0.3554782       78.90045
2013    22      1       0.2891274       67.11743
2013    22      2       0.2270181       55.51428
2013    22      3       0.1606146       42.50419
2013    22      4       0.08378052      26.00659
2013    22      5       0.1195714       33.77186
2013    22      6       0.1333575       36.76561
2013    22      7       0.1655335       43.43617
2013    23      0       0.1682397       43.89631
2013    23      1       0.1445726       39.18079
2013    23      2       0.1010822       29.92918
2013    23      3       0.07115335      23.20011
2013    23      4       0.07155799      23.27959
2013    23      5       0.09035849      27.63169
2013    23      6       0.1346602       37.65304
2013    23      7       0.2417075       59.65057
2013    24      0       0.3053238       71.72405
2013    24      1       0.3247394       75.19798
2013    24      2       0.3593122       81.21325
2013    24      3       0.4404066       94.48131
2013    24      4       0.3749917       83.75727
2013    24      5       0.1456215       40.14143
2013    24      6       0.06709981      22.36024
2013    24      7       0.1383271       38.70416
2013    25      0       0.119162        34.19277
2013    25      1       0.05564089      19.63082
2013    25      2       0.06605386      22.07738
2013    25      3       0.1190898       34.0311
2013    25      4       0.2071749       52.40721
2013    25      5       0.1686695       44.70404
2013    25      6       0.1357759       37.83781
2013    25      7       0.1539847       41.58732
2013    26      0       0.1708689       45.32725
2013    26      1       0.1400208       38.79491
2013    26      2       0.1286942       36.32244
2013    26      3       0.1053859       31.27303
2013    26      4       0.1303893       36.86837
2013    26      5       0.1761876       46.56633
2013    26      6       0.3248655       74.76341
2013    26      7       0.3461969       78.51091
2013    27      0       0.2693131       64.81996
2013    27      1       0.1537664       41.62991
2013    27      2       0.1408791       38.92325
2013    27      3       0.1695235       45.03709
2013    27      4       0.2123819       54.00646
2013    27      5       0.2529373       62.14136
2013    27      6       0.2517232       62.20769
2013    27      7       0.2676862       65.32596
2013    28      0       0.250513        62.16176
2013    28      1       0.2083226       53.97089
2013    28      2       0.1865065       49.45508
2013    28      3       0.1735374       46.64627
2013    28      4       0.1764531       47.07084
2013    28      5       0.1708514       45.79937
2013    28      6       0.1702225       45.55315
2013    28      7       0.3840238       85.50138
2013    29      0       0.4536003       96.6193
2013    29      1       0.5527072       110.9555
2013    29      2       0.5160037       105.1499
2013    29      3       0.4530867       95.42406
2013    29      4       0.3407525       76.65483
2013    29      5       0.1899684       48.89585
2013    29      6       0.06945123      22.81286
2013    29      7       0.09112574      27.57871
2013    30      0       0.1286138       35.90979
2013    30      1       0.2809526       66.11486
2013    30      2       0.3705901       82.39674
2013    30      3       0.3329977       76.04074
2013    30      4       0.189221        48.99234
2013    30      5       0.1244158       35.08601
2013    30      6       0.1266724       35.42511
2013    30      7       0.1433338       39.15372
2013    31      0       0.1610179       42.95292
2013    31      1       0.1873396       48.40119
2013    31      2       0.2529792       61.16927
2013    31      3       0.3541643       79.87016
2013    31      4       0.4003982       87.96609
2013    31      5       0.3825626       84.97381
2013    31      6       0.2552926       62.56051
2013    31      7       0.1013955       30.65805
2014    1       0       0.3228006       74.14127
2014    1       1       0.2972323       69.47232
2014    1       2       0.274807        65.301
2014    1       3       0.28814         67.72066
2014    1       4       0.274436        65.51634
2014    1       5       0.190413        49.50384
2014    1       6       0.1456667       40.08849
2014    1       7       0.1470493       40.17426
2014    2       0       0.1848745       48.4697
2014    2       1       0.174979        46.16787
2014    2       2       0.1914974       49.62109
2014    2       3       0.1437261       39.57179
2014    2       4       0.1084414       31.80631
2014    2       5       0.119947        34.33361
2014    2       6       0.1120156       32.41434
2014    2       7       0.1893834       48.55889
2014    3       0       0.2331977       57.44632
2014    3       1       0.3061122       71.00304
2014    3       2       0.4297993       92.31661
2014    3       3       0.6193202       120.9554
2014    3       4       0.6796216       130.1731
2014    3       5       0.5207631       109.5371
2014    3       6       0.2334402       58.73152
2014    3       7       0.1596759       43.07137
2014    4       0       0.126568        35.68568
2014    4       1       0.1641044       43.82927
2014    4       2       0.181261        47.40495
2014    4       3       0.1961963       50.35148
2014    4       4       0.2061538       52.14924
2014    4       5       0.2351295       57.6255
2014    4       6       0.3641163       81.17521
2014    4       7       0.4653668       98.0419
2014    5       0       0.4693399       98.74636
2014    5       1       0.3970151       87.06287
2014    5       2       0.3466935       78.66766
2014    5       3       0.2753384       66.25525
2014    5       4       0.2549624       62.50651
2014    5       5       0.2750469       66.21811
2014    5       6       0.3084671       72.4561
2014    5       7       0.2820826       67.77765
2014    6       0       0.2197514       55.66279
2014    6       1       0.2019912       51.87922
2014    6       2       0.1766077       46.01691
2014    6       3       0.2330396       57.00902
2014    6       4       0.4427308       94.16027
2014    6       5       0.4131463       89.52321
2014    6       6       0.2719377       64.75938
2014    6       7       0.3303508       75.13618
2014    7       0       0.4794992       99.75223
2014    7       1       0.5584008       111.7687
2014    7       2       0.4893144       101.8855
2014    7       3       0.2598615       63.43057
2014    7       4       0.1349192       38.09484
2014    7       5       0.1994548       50.83975
2014    7       6       0.2301315       57.22462
2014    7       7       0.1663101       44.54591
2014    8       0       0.1348714       37.70776
2014    8       1       0.1139258       32.92814
2014    8       2       0.1507588       40.93887
2014    8       3       0.2283035       57.02233
2014    8       4       0.2934558       69.5603
2014    8       5       0.267588        64.69207
2014    8       6       0.185192        47.97336
2014    8       7       0.1635989       43.29693
2014    9       0       0.1837795       47.3134
2014    9       1       0.1901192       48.82936
2014    9       2       0.2008032       51.43404
2014    9       3       0.192587        50.09823
2014    9       4       0.1884843       49.38322
2014    9       5       0.1935363       50.24109
2014    9       6       0.2051708       52.25545
2014    9       7       0.2169746       54.52543
2014    10      0       0.2329572       57.66851
2014    10      1       0.3094092       72.21323
2014    10      2       0.3295095       76.24927
2014    10      3       0.3175695       74.62127
2014    10      4       0.3204771       75.36955
2014    10      5       0.2774234       67.51446
2014    10      6       0.255237        63.2995
2014    10      7       0.221137        56.56613
2014    11      0       0.2136541       54.99482
2014    11      1       0.2403272       60.02415
2014    11      2       0.2500444       61.625
2014    11      3       0.2496751       61.50787
2014    11      4       0.2196672       55.87525
2014    11      5       0.1737565       46.76414
2014    11      6       0.1245139       36.23744
2014    11      7       0.09324987      29.07261
2014    12      0       0.07677821      25.0502
2014    12      1       0.06259786      21.54195
2014    12      2       0.06314988      21.64221
2014    12      3       0.06742492      22.66721
2014    12      4       0.08190714      26.09326
2014    12      5       0.08873482      27.58806
2014    12      6       0.08774747      27.23575
2014    12      7       0.08674171      26.87384
2014    13      0       0.08665991      26.829
2014    13      1       0.09347915      28.38012
2014    13      2       0.1441409       39.8582
2014    13      3       0.3958348       88.14964
2014    13      4       0.5086503       105.7941
2014    13      5       0.3381224       77.45893
2014    13      6       0.3296234       75.72211
2014    13      7       0.2377874       58.42951
2014    14      0       0.1383131       38.78996
2014    14      1       0.17807         47.35149
2014    14      2       0.2462311       60.96899
2014    14      3       0.3624348       82.19964
2014    14      4       0.3539529       80.37724
2014    14      5       0.3535724       80.4959
2014    14      6       0.3910893       87.0827
2014    14      7       0.3797832       85.07279
2014    15      0       0.4243992       92.04347
2014    15      1       0.3700939       83.06648
2014    15      2       0.2971828       70.27101
2014    15      3       0.2310509       57.73757
2014    15      4       0.1691799       45.07426
2014    15      5       0.1022363       30.51637
2014    15      6       0.09637092      29.26526
2014    15      7       0.1285946       36.40871
2014    16      0       0.1103327       32.32466
2014    16      1       0.1078291       31.3797
2014    16      2       0.1655676       43.79598
2014    16      3       0.2777802       65.59178
2014    16      4       0.4819567       100.6295
2014    16      5       0.595258        117.2861
2014    16      6       0.6269062       121.4765
2014    16      7       0.4742228       99.58017
2014    17      0       0.3477939       79.31272
2014    17      1       0.2762194       66.46014
2014    17      2       0.2963509       69.77768
2014    17      3       0.3998057       87.26432
2014    17      4       0.4669718       97.77601
2014    17      5       0.5562957       110.9554
2014    17      6       0.559975        111.338
2014    17      7       0.5539905       110.4991
2014    18      0       0.5128582       104.6096
2014    18      1       0.3963739       86.53321
2014    18      2       0.4001648       86.97717
2014    18      3       0.3689511       81.68061
2014    18      4       0.3414414       77.06924
2014    18      5       0.3029024       70.20071
2014    18      6       0.3050089       70.69793
2014    18      7       0.3612286       80.53393
2014    19      0       0.3123067       72.01959
2014    19      1       0.333923        75.64441
2014    19      2       0.3021079       70.03331
2014    19      3       0.194907        49.85275
2014    19      4       0.1389636       38.34827
2014    19      5       0.1119443       32.4722
2014    19      6       0.1182696       34.07866
2014    19      7       0.1639094       43.80135
2014    20      0       0.2350086       57.98628
2014    20      1       0.2693987       64.35534
2014    20      2       0.3083455       71.35996
2014    20      3       0.269459        64.60047
2014    20      4       0.1947553       50.17405
2014    20      5       0.1902257       49.1055
2014    20      6       0.3156451       72.61221
2014    20      7       0.2533726       61.73636
2014    21      0       0.2210112       54.92925
2014    21      1       0.3889336       85.09486
2014    21      2       0.2945247       69.1033
2014    21      3       0.1918913       49.31316
2014    21      4       0.3772314       83.71377
2014    21      5       0.4581065       97.12073
2014    21      6       0.4080268       89.28457
2014    21      7       0.4157939       90.74748
2014    22      0       0.3833013       85.23165
2014    22      1       0.4205642       90.83674
2014    22      2       0.4297443       92.53567
2014    22      3       0.2958398       69.19327
2014    22      4       0.230731        56.842
2014    22      5       0.2296957       56.44045
2014    22      6       0.3419681       76.57405
2014    22      7       0.3490924       77.69812
2014    23      0       0.2818457       65.84201
2014    23      1       0.163799        42.75702
2014    23      2       0.1718665       44.26
2014    23      3       0.1272811       35.15626
2014    23      4       0.1607267       42.20709
2014    23      5       0.1858205       47.40135
2014    23      6       0.157577        41.8229
2014    23      7       0.1343084       36.93107
2014    24      0       0.07536564      23.96933
2014    24      1       0.07316427      23.52386
2014    24      2       0.1168013       33.34851
2014    24      3       0.2022277       51.83615
2014    24      4       0.2309827       57.74658
2014    24      5       0.2134124       54.24427
2014    24      6       0.2639338       64.18526
2014    24      7       0.2260215       56.33511
2014    25      0       0.1722345       45.43411
2014    25      1       0.2317004       57.22753
2014    25      2       0.3633519       81.67127
2014    25      3       0.3599402       81.28131
2014    25      4       0.2896927       69.19427
2014    25      5       0.168417        45.29283
2014    25      6       0.1253914       35.93704
2014    25      7       0.1771592       46.68786
2014    26      0       0.184696        47.88843
2014    26      1       0.2074304       52.18617
2014    26      2       0.3015191       69.39947
2014    26      3       0.2452188       59.43386
2014    26      4       0.2273414       55.66336
2014    26      5       0.2347929       56.859
2014    26      6       0.2465728       59.11856
2014    26      7       0.2262581       55.0587
2014    27      0       0.1660236       43.03296
2014    27      1       0.163165        42.47001
2014    27      2       0.1419352       38.14498
2014    27      3       0.1172073       33.04259
2014    27      4       0.1059037       30.65653
2014    27      5       0.08416137      25.92473
2014    27      6       0.06842387      22.42436
2014    27      7       0.07239647      23.27818
2014    28      0       0.1113703       31.81977
2014    28      1       0.207373        51.81169
2014    28      2       0.2471168       59.78238
2014    28      3       0.264897        63.25057
2014    28      4       0.3611347       80.30979
2014    28      5       0.3444187       77.75952
2014    28      6       0.1966403       50.32069
2014    28      7       0.06459858      21.70589
2014    29      0       0.0728305       23.59989
2014    29      1       0.05955881      20.45885
2014    29      2       0.05594389      19.58659
2014    29      3       0.07655052      24.36091
2014    29      4       0.1258252       35.04733
2014    29      5       0.2009569       50.06326
2014    29      6       0.204283        50.61038
2014    29      7       0.2085688       51.3616
2014    30      0       0.1944997       48.68859
2014    30      1       0.1875087       47.32066
2014    30      2       0.1354529       36.83434
2014    30      3       0.1986629       49.70491
2014    30      4       0.2338324       56.73052
2014    30      5       0.2158727       53.46915
2014    30      6       0.2094297       52.43003
2014    30      7       0.1735291       45.4924
2014    31      0       0.1931453       49.36354
2014    31      1       0.1948286       49.8136
2014    31      2       0.2018527       51.38378
2014    31      3       0.2217031       55.40033
2014    31      4       0.2095609       53.02778
2014    31      5       0.2442797       59.62788
2014    31      6       0.2969781       69.55748
2014    31      7       0.2351768       58.28813
2015    1       0       0.1044103       30.38787
2015    1       1       0.09834742      29.12474
2015    1       2       0.08333729      25.78908
2015    1       3       0.07624449      24.21275
2015    1       4       0.1577363       41.92619
2015    1       5       0.1530789       41.03606
2015    1       6       0.2590336       61.8686
2015    1       7       0.3453166       77.74226
2015    2       0       0.4154522       89.58531
2015    2       1       0.3284105       75.44097
2015    2       2       0.2336942       58.10498
2015    2       3       0.2308106       57.57614
2015    2       4       0.1949035       50.50907
2015    2       5       0.1762396       46.65059
2015    2       6       0.180623        47.17512
2015    2       7       0.167021        44.74356
2015    3       0       0.1243677       35.66561
2015    3       1       0.1952999       50.37319
2015    3       2       0.5366639       109.3106
2015    3       3       0.5418572       110.2857
2015    3       4       0.3526474       80.57973
2015    3       5       0.210561        53.96664
2015    3       6       0.1009563       30.52789
2015    3       7       0.09090323      28.32422
2015    4       0       0.07133935      23.65213
2015    4       1       0.06224108      21.3268
2015    4       2       0.06671482      22.13676
2015    4       3       0.1416973       39.05089
2015    4       4       0.3632156       82.23416
2015    4       5       0.3391205       77.69792
2015    4       6       0.2699006       65.59699
2015    4       7       0.2741466       65.99689
2015    5       0       0.242668        59.67278
2015    5       1       0.307349        72.31339
2015    5       2       0.3775013       84.31486
2015    5       3       0.3846276       84.92053
2015    5       4       0.4129429       89.36091
2015    5       5       0.2705536       64.82512
2015    5       6       0.2991429       69.72205
2015    5       7       0.2780242       65.84964
2015    6       0       0.1366457       38.02756
2015    6       1       0.05507019      19.45704
2015    6       2       0.07859259      25.21387
2015    6       3       0.09438192      28.94355
2015    6       4       0.1147069       33.25961
2015    6       5       0.2134982       53.90095
2015    6       6       0.3409483       78.04986
2015    6       7       0.2807064       66.67429
2015    7       0       0.2168555       54.43548
2015    7       1       0.2022814       51.96338
2015    7       2       0.09799567      29.60827
2015    7       3       0.1066385       31.52303
2015    7       4       0.2109751       54.17924
2015    7       5       0.2367379       59.19261
2015    7       6       0.2848476       68.69856
2015    7       7       0.4048144       90.28325
2015    8       0       0.4069704       91.31275
2015    8       1       0.3374678       79.13932
2015    8       2       0.2920555       70.29975
2015    8       3       0.4190268       93.26558
2015    8       4       0.125178        35.95372
2015    8       5       0.07158897      23.33704
2015    8       6       0.1458297       39.91901
2015    8       7       0.3974265       87.94394
2015    9       0       0.4806306       103.1482
2015    9       1       0.4620903       100.3044
2015    9       2       0.5816671       117.7483
2015    9       3       0.4950841       105.3724
2015    9       4       0.3642838       83.06995
2015    9       5       0.2852982       68.56318
2015    9       6       0.3499411       80.67879
2015    9       7       0.3535317       80.8492
2015    10      0       0.3204798       75.36307
2015    10      1       0.2990672       71.51569
2015    10      2       0.2027822       52.92227
2015    10      3       0.2230007       56.83604
2015    10      4       0.203181        52.70491
2015    10      5       0.3583319       82.00025
2015    10      6       0.4121279       91.17341
2015    10      7       0.5442673       111.5255
2015    11      0       0.5095446       106.7817
2015    11      1       0.3645593       83.29085
2015    11      2       0.3846934       86.18373
2015    11      3       0.2695018       65.94226
2015    11      4       0.3095198       72.67283
2015    11      5       0.3490323       79.77302
2015    11      6       0.3177977       74.39466
2015    11      7       0.3694807       83.10754
2015    12      0       0.3748508       84.12577
2015    12      1       0.3989107       88.10474
2015    12      2       0.5057482       104.2216
2015    12      3       0.5170441       106.0323
2015    12      4       0.5556823       111.661
2015    12      5       0.6636965       126.2221
2015    12      6       0.6459163       123.7953
2015    12      7       0.6062706       118.7935
2015    13      0       0.4810374       100.9072
2015    13      1       0.3965159       87.7484
2015    13      2       0.2779545       66.51605
2015    13      3       0.2530235       61.50097
2015    13      4       0.1765612       46.33882
2015    13      5       0.08083318      25.54644
2015    13      6       0.1404557       39.13096
2015    13      7       0.1808096       47.98882
2015    14      0       0.1977746       51.88821
2015    14      1       0.198346        51.60671
2015    14      2       0.2738227       65.93163
2015    14      3       0.2710494       65.35169
2015    14      4       0.1481649       41.0354
2015    14      5       0.08504894      26.94444
2015    14      6       0.1118529       33.09309
2015    14      7       0.1863557       49.05651
2015    15      0       0.3387529       77.57045
2015    15      1       0.4207145       90.75024
2015    15      2       0.296981        69.44885
2015    15      3       0.1801257       46.68615
2015    15      4       0.2763536       64.96107
2015    15      5       0.2798464       65.43983
2015    15      6       0.2712537       63.90734
2015    15      7       0.2837636       66.16428
2015    16      0       0.2607462       61.8294
2015    16      1       0.240326        57.90015
2015    16      2       0.2038648       51.01482
2015    16      3       0.2127747       52.68242
2015    16      4       0.1998884       50.25069
2015    16      5       0.194275        49.22528
2015    16      6       0.166094        43.6915
2015    16      7       0.1251726       35.16712
2015    17      0       0.1309961       36.03494
2015    17      1       0.1798488       45.96462
2015    17      2       0.1684659       43.62679
2015    17      3       0.1353115       36.63173
2015    17      4       0.1177623       32.90831
2015    17      5       0.09489452      28.09716
2015    17      6       0.09842709      29.07818
2015    17      7       0.07815907      24.45813
2015    18      0       0.1390947       37.77774
2015    18      1       0.2411932       58.72733
2015    18      2       0.2879583       67.86
2015    18      3       0.3107645       72.76281
2015    18      4       0.2251972       56.67617
2015    18      5       0.2923711       69.91531
2015    18      6       0.3895342       87.41017
2015    18      7       0.4084585       90.6924
2015    19      0       0.3059489       72.67634
2015    19      1       0.2202241       56.5314
2015    19      2       0.1492018       41.41114
2015    19      3       0.09175077      28.21429
2015    19      4       0.07603375      24.41849
2015    19      5       0.09059305      27.72626
2015    19      6       0.08931884      27.47353
2015    19      7       0.1353226       37.15959
2015    20      0       0.1998454       50.55963
2015    20      1       0.3258113       74.89227
2015    20      2       0.3933961       86.88493
2015    20      3       0.4084245       89.63442
2015    20      4       0.2387268       59.04517
2015    20      5       0.1849064       48.00975
2015    20      6       0.15878         42.6465
2015    20      7       0.370753        82.03987
2015    21      0       0.2446309       59.56257
2015    21      1       0.1486315       40.31919
2015    21      2       0.1934328       49.19623
2015    21      3       0.3132815       71.87998
2015    21      4       0.2482467       59.90255
2015    21      5       0.1191268       33.87774
2015    21      6       0.1481746       40.0845
2015    21      7       0.1840981       48.15811
2015    22      0       0.3063916       71.83741
2015    22      1       0.2750569       66.17981
2015    22      2       0.2688515       64.953
2015    22      3       0.2901039       68.6555
2015    22      4       0.3180559       73.76089
2015    22      5       0.2945688       69.43204
2015    22      6       0.2375869       58.85174
2015    22      7       0.3289209       75.71842
2015    23      0       0.3755559       83.56049
2015    23      1       0.2074371       52.95115
2015    23      2       0.1726951       45.78708
2015    23      3       0.1311073       36.86475
2015    23      4       0.139359        38.31794
2015    23      5       0.1214694       34.38931
2015    23      6       0.1738945       45.28832
2015    23      7       0.2535915       60.78992
2015    24      0       0.3357186       75.69216
2015    24      1       0.06268251      21.27164
2015    24      2       0.04854068      17.91103
2015    24      3       0.05377535      19.18197
2015    24      4       0.07213147      23.46951
2015    24      5       0.09793253      29.2428
2015    24      6       0.1096145       31.84131
2015    24      7       0.1299709       36.27625
2015    25      0       0.1406761       38.51255
2015    25      1       0.1850044       47.62996
2015    25      2       0.1783083       46.36646
2015    25      3       0.1551982       41.69546
2015    25      4       0.1363427       37.71754
2015    25      5       0.2240357       55.50852
2015    25      6       0.2840825       66.86258
2015    25      7       0.2307488       56.99002
2015    26      0       0.1231349       34.90999
2015    26      1       0.07437371      24.04516
2015    26      2       0.07111588      23.29844
2015    26      3       0.0683173       22.61435
2015    26      4       0.09629983      28.8308
2015    26      5       0.09857257      29.4005
2015    26      6       0.1246813       35.23086
2015    26      7       0.1585199       42.54974
2015    27      0       0.1717153       45.22965
2015    27      1       0.1667614       43.96408
2015    27      2       0.2327646       56.75821
2015    27      3       0.1663987       44.26137
2015    27      4       0.1699436       44.9451
2015    27      5       0.1317883       36.90578
2015    27      6       0.1095885       32.14811
2015    27      7       0.1236622       35.39013
2015    28      0       0.1685367       44.92996
2015    28      1       0.1760503       46.28985
2015    28      2       0.1546607       41.9534
2015    28      3       0.1720004       45.31828
2015    28      4       0.1185223       34.02548
2015    28      5       0.1155227       33.34496
2015    28      6       0.1310343       36.67465
2015    28      7       0.1732681       45.22789
2015    29      0       0.1823595       47.16455
2015    29      1       0.1770796       46.36155
2015    29      2       0.1701691       44.95791
2015    29      3       0.1506433       40.71314
2015    29      4       0.1538475       41.3219
2015    29      5       0.1628616       43.09822
2015    29      6       0.1764936       45.7377
2015    29      7       0.2126402       52.83724
2015    30      0       0.1983042       49.88649
2015    30      1       0.1898089       48.10465
2015    30      2       0.1679597       43.78859
2015    30      3       0.1491068       40.01819
2015    30      4       0.1704283       44.23509
2015    30      5       0.2008243       50.09515
2015    30      6       0.1895168       47.9181
2015    30      7       0.1809309       46.55261
2015    31      0       0.1456145       39.2986
2015    31      1       0.1264963       35.28893
2015    31      2       0.1582953       41.88445
2015    31      3       0.1909904       48.42723
2015    31      4       0.1699779       44.12294
2015    31      5       0.1419375       38.37328
2015    31      6       0.1150875       32.8597
2015    31      7       0.1545193       41.35683
2016    1       0       0.08837542      27.06625
2016    1       1       0.09376603      28.29594
2016    1       2       0.1644381       43.92214
2016    1       3       0.3108541       72.34329
2016    1       4       0.3848876       84.69247
2016    1       5       0.3375425       76.55104
2016    1       6       0.2762023       65.73687
2016    1       7       0.2959544       69.50752
2016    2       0       0.2768542       65.81309
2016    2       1       0.2272346       56.41587
2016    2       2       0.236703        58.11077
2016    2       3       0.2025183       51.23731
2016    2       4       0.1689939       44.29795
2016    2       5       0.2440028       58.96986
2016    2       6       0.3504798       78.41036
2016    2       7       0.3573301       79.9374
2016    3       0       0.3508856       78.83687
2016    3       1       0.2642248       63.29122
2016    3       2       0.2486424       60.34
2016    3       3       0.1954629       50.12753
2016    3       4       0.1287179       36.32351
2016    3       5       0.08490452      26.54611
2016    3       6       0.1057084       30.74665
2016    3       7       0.2701433       64.149
2016    4       0       0.2547697       61.8302
2016    4       1       0.1051496       31.01352
2016    4       2       0.09747848      29.18594
2016    4       3       0.1470111       40.00777
2016    4       4       0.2063636       52.44697
2016    4       5       0.2627427       63.65839
2016    4       6       0.2908331       69.24672
2016    4       7       0.3536563       80.77414
2016    5       0       0.3313181       76.92928
2016    5       1       0.2762858       66.98676
2016    5       2       0.3047493       72.32521
2016    5       3       0.2660551       65.2058
2016    5       4       0.2912476       69.85148
2016    5       5       0.2594933       63.30103
2016    5       6       0.07257154      23.7316
2016    5       7       0.1469524       40.06218
2016    6       0       0.07902566      25.17274
2016    6       1       0.06336062      21.35957
2016    6       2       0.06758533      22.25909
2016    6       3       0.08812183      26.91762
2016    6       4       0.1055495       30.76163
2016    6       5       0.1107308       32.01234
2016    6       6       0.2541189       60.88532
2016    6       7       0.4115056       88.24788
2016    7       0       0.3867342       84.38969
2016    7       1       0.3193708       72.8298
2016    7       2       0.2463773       59.43361
2016    7       3       0.1943772       49.20004
2016    7       4       0.1359451       37.11853
2016    7       5       0.05875299      20.11737
2016    7       6       0.06072834      20.5858
2016    7       7       0.07479566      23.84125
2016    8       0       0.05894387      20.21269
2016    8       1       0.06537627      21.52221
2016    8       2       0.08488367      25.96411
2016    8       3       0.1189732       33.32511
2016    8       4       0.1754167       45.2196
2016    8       5       0.2307921       56.06161
2016    8       6       0.2508375       60.60368
2016    8       7       0.3072454       70.9956
2016    9       0       0.480102        99.9982
2016    9       1       0.3424874       77.9928
2016    9       2       0.3509937       79.75097
2016    9       3       0.2929535       69.57789
2016    9       4       0.2814222       67.28246
2016    9       5       0.2266487       57.05546
2016    9       6       0.1602077       43.38297
2016    9       7       0.2985972       70.39346
2016    10      0       0.4299449       92.85774
2016    10      1       0.4552527       97.02891
2016    10      2       0.3269014       76.22684
2016    10      3       0.2929013       69.70002
2016    10      4       0.2386749       59.94694
2016    10      5       0.2758878       67.3446
2016    10      6       0.3281206       76.71533
2016    10      7       0.4048632       90.28493
2016    11      0       0.4522914       98.22255
2016    11      1       0.4152804       91.87355
2016    11      2       0.3156112       74.73506
2016    11      3       0.3376616       78.30363
2016    11      4       0.4559991       97.48552
2016    11      5       0.1481958       40.95997
2016    11      6       0.05822982      20.29055
2016    11      7       0.05561466      19.57707
2016    12      0       0.05858532      20.24283
2016    12      1       0.08072972      25.24149
2016    12      2       0.1507392       40.55739
2016    12      3       0.2345496       58.03502
2016    12      4       0.2534015       61.86529
2016    12      5       0.276848        66.16471
2016    12      6       0.2715542       64.91798
2016    12      7       0.29608         69.30527
2016    13      0       0.1735108       45.62847
2016    13      1       0.1429464       39.12781
2016    13      2       0.1158191       33.06736
2016    13      3       0.1183376       33.69353
2016    13      4       0.1620926       43.14914
2016    13      5       0.2413606       58.99389
2016    13      6       0.2792182       66.41821
2016    13      7       0.261583        63.56131
2016    14      0       0.3030923       71.32133
2016    14      1       0.3269902       75.73889
2016    14      2       0.3545451       80.38203
2016    14      3       0.3749848       83.90582
2016    14      4       0.4013415       88.33871
2016    14      5       0.3940383       87.69728
2016    14      6       0.434513        94.43433
2016    14      7       0.4810615       102.1388
2016    15      0       0.542123        111.7383
2016    15      1       0.5491619       113.0516
2016    15      2       0.5279125       110.0775
2016    15      3       0.4378049       96.05593
2016    15      4       0.3704821       84.35545
2016    15      5       0.2901917       69.55267
2016    15      6       0.3972339       89.55507
2016    15      7       0.4713875       102.0889
2016    16      0       0.4996573       106.3824
2016    16      1       0.5186457       109.0859
2016    16      2       0.6276394       124.8036
2016    16      3       0.6718287       130.9371
2016    16      4       0.671136        130.6998
2016    16      5       0.5726163       117.2223
2016    16      6       0.4509877       98.72718
2016    16      7       0.5291598       110.2404
2016    17      0       0.5358605       109.933
2016    17      1       0.6129804       120.7361
2016    17      2       0.7198107       134.2028
2016    17      3       0.6607722       125.8682
2016    17      4       0.5770565       114.1043
2016    17      5       0.2769282       65.80893
2016    17      6       0.3267084       74.20753
2016    17      7       0.261724        61.84483
2016    18      0       0.08727601      26.59449
2016    18      1       0.06833239      22.20694
2016    18      2       0.07675227      24.02026
2016    18      3       0.112194        31.68905
2016    18      4       0.150417        39.76045
2016    18      5       0.09682784      28.76999
2016    18      6       0.07084771      23.01481
2016    18      7       0.07573095      24.14098
2016    19      0       0.08203444      25.65983
2016    19      1       0.09226269      27.9871
2016    19      2       0.1058388       30.92126
2016    19      3       0.1546285       41.24228
2016    19      4       0.1491042       40.62074
2016    19      5       0.08393109      26.21524
2016    19      6       0.09528071      28.77651
2016    19      7       0.100439        30.3247
2016    20      0       0.1709151       46.30838
2016    20      1       0.2443064       61.33225
2016    20      2       0.3482386       80.58186
2016    20      3       0.4763061       101.2235
2016    20      4       0.6400736       124.4491
2016    20      5       0.4565745       97.77577
2016    20      6       0.391774        87.28808
2016    20      7       0.3480222       80.19287
2016    21      0       0.3134505       74.19134
2016    21      1       0.3080885       73.08045
2016    21      2       0.2677568       66.1175
2016    21      3       0.2992907       72.67821
2016    21      4       0.2119014       54.27886
2016    21      5       0.4108624       90.34503
2016    21      6       0.4958455       103.8072
2016    21      7       0.4821827       101.9568
2016    22      0       0.4733279       100.6527
2016    22      1       0.3619043       82.15723
2016    22      2       0.5353354       110.2555
2016    22      3       0.7458341       138.0707
2016    22      4       0.7339152       137.5404
2016    22      5       0.6463702       126.0879
2016    22      6       0.5477578       111.6277
2016    22      7       0.5548216       113.8371
2016    23      0       0.5643338       114.2627
2016    23      1       0.7013391       132.8414
2016    23      2       0.4780497       102.3717
2016    23      3       0.3706631       83.76377
2016    23      4       0.2916919       69.35066
2016    23      5       0.2112891       53.99035
2016    23      6       0.07034071      23.41571
2016    23      7       0.07521899      24.47609
2016    24      0       0.08706341      27.15323
2016    24      1       0.1112723       32.32399
2016    24      2       0.1613849       42.84683
2016    24      3       0.42353         92.87583
2016    24      4       0.08884146      27.9469
2016    24      5       0.1138111       33.80134
2016    24      6       0.08537933      27.16732
2016    24      7       0.1164696       34.32245
2016    25      0       0.1650575       45.17986
2016    25      1       0.2627635       64.50173
2016    25      2       0.3537966       81.23874
2016    25      3       0.6493867       125.744
2016    25      4       0.2895055       69.00931
2016    25      5       0.3364345       76.49205
2016    25      6       0.3176035       72.73769
2016    25      7       0.1901529       48.57125
2016    26      0       0.1393742       38.41945
2016    26      1       0.1117733       32.6999
2016    26      2       0.07871272      25.31043
2016    26      3       0.06478365      21.90731
2016    26      4       0.06934423      22.93837
2016    26      5       0.05811152      20.36294
2016    26      6       0.05293252      19.07751
2016    26      7       0.05658803      19.94664
2016    27      0       0.07870962      25.06233
2016    27      1       0.07300961      23.71878
2016    27      2       0.111842        32.8239
2016    27      3       0.1058422       31.32264
2016    27      4       0.0851602       26.4638
2016    27      5       0.07238536      23.49486
2016    27      6       0.1198277       34.48733
2016    27      7       0.1396797       39.11413
2016    28      0       0.1019212       30.43953
2016    28      1       0.1640005       44.559
2016    28      2       0.1596717       43.39601
2016    28      3       0.2446159       61.05216
2016    28      4       0.2159485       55.32037
2016    28      5       0.2025589       52.32653
2016    28      6       0.1925337       50.11228
2016    28      7       0.1501369       41.277
2016    29      0       0.1092238       32.2615
2016    29      1       0.1207149       34.76685
2016    29      2       0.1263944       36.01896
2016    29      3       0.1554016       42.21573
2016    29      4       0.1929236       50.15056
2016    29      5       0.2082856       53.35282
2016    29      6       0.1948263       50.80306
2016    29      7       0.1846334       48.83406
2016    30      0       0.1805398       47.877
2016    30      1       0.1816751       48.02975
2016    30      2       0.1567575       42.87323
2016    30      3       0.1334136       37.74147
2016    30      4       0.1044066       31.20452
2016    30      5       0.09355526      28.57364
2016    30      6       0.1308688       36.74347
2016    30      7       0.1603108       43.06312
2016    31      0       0.2072799       52.83536
2016    31      1       0.2129293       54.11565
2016    31      2       0.2893316       69.02407
2016    31      3       0.3303498       76.24185
2016    31      4       0.2793078       66.5965
2016    31      5       0.1912857       49.57794
2016    31      6       0.1629873       43.66845
2016    31      7       0.1658981       44.18018
2017    1       0       0.2466393       61.24877
2017    1       1       0.2646513       64.9286
2017    1       2       0.2767775       67.0074
2017    1       3       0.2485424       61.26438
2017    1       4       0.1827912       48.14363
2017    1       5       0.1683547       45.0323
2017    1       6       0.2512476       61.61572
2017    1       7       0.4687069       99.65971
2017    2       0       0.3902929       87.24498
2017    2       1       0.2800781       67.52433
2017    2       2       0.2920601       69.55729
2017    2       3       0.3310513       76.75588
2017    2       4       0.2284787       57.65637
2017    2       5       0.1481216       40.56464
2017    2       6       0.1673602       44.26637
2017    2       7       0.234849        58.07883
2017    3       0       0.2279943       57.00955
2017    3       1       0.2214515       55.69231
2017    3       2       0.2495003       60.97358
2017    3       3       0.2679714       64.2878
2017    3       4       0.2499151       60.80501
2017    3       5       0.2321605       57.4075
2017    3       6       0.2465241       60.30645
2017    3       7       0.2040101       52.15112
2017    4       0       0.202539        51.68473
2017    4       1       0.2261791       56.66964
2017    4       2       0.2338655       58.69681
2017    4       3       0.09466308      29.02725
2017    4       4       0.05850144      20.31707
2017    4       5       0.05581181      19.58172
2017    4       6       0.07379583      23.81959
2017    4       7       0.1568741       41.79912
2017    5       0       0.1241768       34.92052
2017    5       1       0.08660105      26.57167
2017    5       2       0.07159884      23.15618
2017    5       3       0.05858797      20.16884
2017    5       4       0.04964006      17.94761
2017    5       5       0.1052036       30.8978
2017    5       6       0.1380602       38.28773
2017    5       7       0.1688813       44.97741
2017    6       0       0.1477077       40.28987
2017    6       1       0.150801        40.8154
2017    6       2       0.2377141       58.26335
2017    6       3       0.2474468       60.0181
2017    6       4       0.1603096       42.85017
2017    6       5       0.09469626      28.44687
2017    6       6       0.1214309       34.3257
2017    6       7       0.1525542       40.62025
2017    7       0       0.1468052       39.25949
2017    7       1       0.1222891       34.01546
2017    7       2       0.1269272       34.98325
2017    7       3       0.05953129      20.16493
2017    7       4       0.07350996      23.30231
2017    7       5       0.1040581       30.06258
2017    7       6       0.1456538       38.92753
2017    7       7       0.2661472       62.75792
2017    8       0       0.3055489       70.17776
2017    8       1       0.3909405       85.3971
2017    8       2       0.4194669       90.57952
2017    8       3       0.4159229       90.12559
2017    8       4       0.4353796       93.4415
2017    8       5       0.3810566       85.01969
2017    8       6       0.3080514       72.39643
2017    8       7       0.2363735       58.13826
2017    9       0       0.3603104       81.9266
2017    9       1       0.2558635       62.697
2017    9       2       0.1364198       38.06121
2017    9       3       0.1042812       31.02313
2017    9       4       0.1083151       31.90489
2017    9       5       0.1349374       37.38367
2017    9       6       0.1119543       32.5989
2017    9       7       0.1056468       30.90939
2017    10      0       0.1042138       30.56562
2017    10      1       0.1779873       46.28896
2017    10      2       0.2050101       51.91844
2017    10      3       0.1896321       49.08673
2017    10      4       0.1944001       50.02948
2017    10      5       0.1922125       49.39936
2017    10      6       0.1806326       47.1557
2017    10      7       0.1631756       43.96035
2017    11      0       0.1433195       39.88158
2017    11      1       0.1497429       41.36716
2017    11      2       0.1579526       43.1752
2017    11      3       0.1697458       45.72627
2017    11      4       0.1361227       38.19081
2017    11      5       0.195984        50.41152
2017    11      6       0.1877645       49.15574
2017    11      7       0.17061         45.68967
2017    12      0       0.2902534       70.02967
2017    12      1       0.3187111       75.48699
2017    12      2       0.2931255       70.70284
2017    12      3       0.2906041       70.34625
2017    12      4       0.2834054       68.83134
2017    12      5       0.2844577       68.59509
2017    12      6       0.3106251       73.22602
2017    12      7       0.2620708       64.34419
2017    13      0       0.1859591       49.48903
2017    13      1       0.1162395       34.19456
2017    13      2       0.09018956      28.22673
2017    13      3       0.09419802      28.84645
2017    13      4       0.1598083       42.84583
2017    13      5       0.3999121       87.66225
2017    13      6       0.446577        96.24026
2017    13      7       0.5068164       106.1958
2017    14      0       0.528217        109.3997
2017    14      1       0.801508        143.8571
2017    14      2       0.7531349       137.1359
2017    14      3       0.5475245       110.1202
2017    14      4       0.5496663       109.9247
2017    14      5       0.3752231       82.82047
2017    14      6       0.1598537       43.18384
2017    14      7       0.1926714       49.53688
2017    15      0       0.08462513      26.20785
2017    15      1       0.101591        29.8372
2017    15      2       0.2052719       51.98794
2017    15      3       0.2443357       60.00153
2017    15      4       0.2764578       66.23112
2017    15      5       0.3487259       79.67645
2017    15      6       0.3735327       84.85033
2017    15      7       0.3657938       83.45988
2017    16      0       0.3090655       73.40132
2017    16      1       0.2923603       69.91102
2017    16      2       0.3545883       81.11904
2017    16      3       0.4040021       89.20966
2017    16      4       0.3783887       84.56632
2017    16      5       0.312004        72.93402
2017    16      6       0.3040721       71.74291
2017    16      7       0.3178713       74.02855
2017    17      0       0.3301227       75.5853
2017    17      1       0.3479849       78.32963
2017    17      2       0.3513516       79.02358
2017    17      3       0.3390803       77.29311
2017    17      4       0.4106624       89.16608
2017    17      5       0.4025794       87.6208
2017    17      6       0.325586        74.31362
2017    17      7       0.3032164       70.6143
2017    18      0       0.1991806       50.89819
2017    18      1       0.1106822       32.34391
2017    18      2       0.09878287      29.31515
2017    18      3       0.1427511       39.2997
2017    18      4       0.1622614       43.72966
2017    18      5       0.1705123       45.56503
2017    18      6       0.171883        45.85524
2017    18      7       0.1823021       47.95345
2017    19      0       0.2048515       52.54551
2017    19      1       0.2369233       58.97096
2017    19      2       0.3335165       77.03581
2017    19      3       0.3851726       85.93166
2017    19      4       0.4076384       89.53004
2017    19      5       0.4395313       94.74587
2017    19      6       0.3876822       86.59856
2017    19      7       0.3264365       76.32623
2017    20      0       0.3445237       79.50039
2017    20      1       0.4146837       91.29164
2017    20      2       0.3852711       86.36197
2017    20      3       0.3290774       76.54284
2017    20      4       0.3454826       79.22431
2017    20      5       0.4609114       98.34942
2017    20      6       0.4243859       92.84028
2017    20      7       0.2879171       69.83365
2017    21      0       0.2881305       69.67272
2017    21      1       0.2604333       64.15336
2017    21      2       0.2690785       65.76701
2017    21      3       0.2429146       60.50723
2017    21      4       0.2784756       66.6869
2017    21      5       0.3298937       75.60957
2017    21      6       0.2758319       65.95272
2017    21      7       0.2532029       61.68413
2017    22      0       0.193336        49.80391
2017    22      1       0.1291571       36.46806
2017    22      2       0.1054387       31.29951
2017    22      3       0.1222746       35.09976
2017    22      4       0.08079539      25.69504
2017    22      5       0.1208317       34.40375
2017    22      6       0.2056649       52.10468
2017    22      7       0.2498958       60.7206
2017    23      0       0.2388938       59.06845
2017    23      1       0.241769        59.54719
2017    23      2       0.263288        63.60851
2017    23      3       0.3172418       73.73273
2017    23      4       0.3315646       76.47064
2017    23      5       0.3556119       80.48529
2017    23      6       0.350121        79.49463
2017    23      7       0.3404181       77.72801
2017    24      0       0.2760221       65.85028
2017    24      1       0.2087582       52.82229
2017    24      2       0.06613603      22.13981
2017    24      3       0.05337146      19.05528
2017    24      4       0.0477728       17.69132
2017    24      5       0.06699107      22.20002
2017    24      6       0.07320753      23.55282
2017    24      7       0.1438443       39.1191
2017    25      0       0.3042858       70.78054
2017    25      1       0.5511432       111.2088
2017    25      2       0.5522538       111.7466
2017    25      3       0.4925403       103.1275
2017    25      4       0.5003011       103.5591
2017    25      5       0.4192702       90.77595
2017    25      6       0.1810131       47.94509
2017    25      7       0.1564591       42.3643
2017    26      0       0.2265417       56.64819
2017    26      1       0.1448887       40.0673
2017    26      2       0.09124954      27.80972
2017    26      3       0.1054572       30.93127
2017    26      4       0.1710693       45.12854
2017    26      5       0.2072618       52.84737
2017    26      6       0.222956        56.18016
2017    26      7       0.2333163       58.29082
2017    27      0       0.2431576       60.17038
2017    27      1       0.1066894       31.64025
2017    27      2       0.08240989      25.95168
2017    27      3       0.1320488       36.93899
2017    27      4       0.2669584       63.91633
2017    27      5       0.129538        36.52579
2017    27      6       0.1838016       47.80671
2017    27      7       0.1859405       48.53351
2017    28      0       0.2068633       53.08926
2017    28      1       0.2541329       62.49316
2017    28      2       0.292004        69.40049
2017    28      3       0.2336012       58.68447
2017    28      4       0.2067377       52.91137
2017    28      5       0.2562998       62.6937
2017    28      6       0.2444561       60.65056
2017    28      7       0.2191695       55.45547
2017    29      0       0.2524831       62.23856
2017    29      1       0.2529242       61.73736
2017    29      2       0.2832817       67.84571
2017    29      3       0.3258037       76.41616
2017    29      4       0.3416633       79.49658
2017    29      5       0.2730678       66.78538
2017    29      6       0.3531178       81.10992
2017    29      7       0.2011633       51.48442
2017    30      0       0.2642993       63.97117
2017    30      1       0.1726418       45.54253
2017    30      2       0.1618642       43.33772
2017    30      3       0.1953383       50.54625
2017    30      4       0.1976202       50.93509
2017    30      5       0.1771323       46.98311
2017    30      6       0.1969297       51.30764
2017    30      7       0.2141854       54.83132
2017    31      0       0.242403        60.4467
2017    31      1       0.2846578       68.48352
2017    31      2       0.3646074       82.57955
2017    31      3       0.3951207       87.50949
2017    31      4       0.3350872       76.9958
2017    31      5       0.2551838       62.14673
2017    31      6       0.1067895       31.45089
2017    31      7       0.08860256      27.41943
2018    1       0       0.5011288       102.6054
2018    1       1       0.308335        71.12976
2018    1       2       0.206954        51.92435
2018    1       3       0.1133587       32.5028
2018    1       4       0.1520303       40.95217
2018    1       5       0.1817195       46.87587
2018    1       6       0.1500807       40.43753
2018    1       7       0.2170158       53.87554
2018    2       0       0.1765305       45.58849
2018    2       1       0.1041688       30.26931
