####################################################################################################
# Month: 01Jan                                                                                     #
# Station: SPX                                                                                     #
# Frequency: 230 GHz                                                                               #
# Columns are: year    day     tau     Tb (K)                                                      #
####################################################################################################
2009    1       0.04863594      16.2928325
2009    2       0.0432008       15.00806125
2009    3       0.03533248      12.9859815
2009    4       0.07945307      23.42090625
2009    5       0.09537604      26.754465
2009    6       0.10061874      28.1019075
2009    7       0.06968791      21.2048
2009    8       0.04736902      16.10440375
2009    9       0.04831193      16.285475
2009    10      0.04272216      14.9293025
2009    11      0.03055542      11.93226375
2009    12      0.02711637      11.10023
2009    13      0.05511469      17.901405
2009    14      0.05670155      18.2967975
2009    15      0.04305404      15.22748375
2009    16      0.05634764      18.38938875
2009    17      0.10921444      30.52867
2009    18      0.12434114      33.19523875
2009    19      0.217037        52.9714975
2009    20      0.16493688      42.3281675
2009    21      0.07349524      22.11084
2009    22      0.07962179      23.38037875
2009    23      0.25378237      59.50821875
2009    24      0.198169        48.72740125
2009    25      0.06338926      19.819495
2009    26      0.07855272      23.26980625
2009    27      0.08603456      25.08581625
2009    28      0.06288122      19.7951275
2009    29      0.07496627      22.75165875
2009    30      0.03603096      13.320605
2009    31      0.02979847      11.75046525
2010    1       0.18282484      45.9962475
2010    2       0.0384529       13.6794625
2010    3       0.04158645      14.42846
2010    4       0.08885775      25.6844975
2010    5       0.0489625       16.40780625
2010    6       0.05798173      18.41763375
2010    7       0.08255251      23.74344125
2010    8       0.24297811      58.51893875
2010    9       0.1544066       40.02938875
2010    10      0.11388433      30.88280625
2010    11      0.12118956      32.9454475
2010    12      0.07582692      22.791095
2010    13      0.21058608      51.16384875
2010    14      0.09349417      26.70869875
2010    15      0.10850697      30.1796125
2010    16      0.15393546      38.95096125
2010    17      0.10466804      28.26517625
2010    18      0.05505639      17.88771
2010    19      0.05779806      18.61313625
2010    20      0.09032935      25.23318
2010    21      0.09600683      27.3888525
2010    22      0.05444451      17.8625275
2010    23      0.04411226      15.1917625
2010    24      0.13450835      35.89923375
2010    25      0.14489606      37.69218
2010    26      0.06525286      20.06924625
2010    27      0.07587611      22.561535
2010    28      0.10891785      29.926265
2010    29      0.20120967      49.64504
2010    30      0.06437428      19.5911075
2010    31      0.04186804      14.32276375
2011    1       0.09259615      27.16176625
2011    2       0.06158218      19.3381725
2011    3       0.05122432      16.8176
2011    4       0.07094326      21.412085
2011    5       0.05285325      17.303195
2011    6       0.22118231      54.21191
2011    7       0.22636091      55.678825
2011    8       0.1880951       47.03999
2011    9       0.23253921      56.124555
2011    10      0.11385136      31.3611425
2011    11      0.08551748      24.48563125
2011    12      0.1990173       49.141935
2011    13      0.26829267      64.1457675
2011    14      0.07608982      22.92190875
2011    15      0.12915925      35.2175775
2011    16      0.05455496      18.003965
2011    17      0.08928261      26.26984375
2011    18      0.10434571      29.4877725
2011    19      0.03795674      13.62240362
2011    20      0.05852544      18.35201375
2011    21      0.03407805      12.62504875
2011    22      0.0371832       13.48657125
2011    23      0.06422377      19.87278875
2011    24      0.08704174      25.22112375
2011    25      0.05935107      18.878125
2011    26      0.07026737      21.30077875
2011    27      0.06288938      19.63449875
2011    28      0.04932276      16.4476175
2011    29      0.10669254      29.61375
2011    30      0.08349091      24.73454375
2011    31      0.04471125      15.413175
2012    1       0.13289798      36.13364875
2012    2       0.20950155      51.27736375
2012    3       0.10507839      29.41015625
2012    4       0.14078994      36.69491125
2012    5       0.23089088      55.73056125
2012    6       0.05689116      18.138285
2012    7       0.06349329      19.9759675
2012    8       0.1423495       36.90698
2012    9       0.09058947      26.16598625
2012    10      0.0813389       24.32150625
2012    11      0.07226068      22.1624775
2012    12      0.04133508      14.63301125
2012    13      0.0576733       18.66662625
2012    14      0.04891752      16.59298375
2012    15      0.07115766      21.777045
2012    16      0.05065262      16.81449
2012    17      0.07417369      22.25927125
2012    18      0.0622931       19.5921075
2012    19      0.17162972      44.14779125
2012    20      0.15911821      40.78776125
2012    21      0.20341754      50.00878625
2012    22      0.09027925      26.30140875
2012    23      0.08954568      25.85631
2012    24      0.11485785      31.0664375
2012    25      0.11586251      31.96020375
2012    26      0.06443596      20.2898
2012    27      0.12222649      32.9572075
2012    28      0.17214294      43.4960325
2012    29      0.11561577      31.52011875
2012    30      0.10637436      29.43862
2012    31      0.10197798      28.11391125
2013    1       0.22730584      55.1008925
2013    2       0.05781805      18.3429325
2013    3       0.12365759      34.08758125
2013    4       0.10074927      28.89637625
2013    5       0.1561844       41.5165625
2013    6       0.09251397      26.87829375
2013    7       0.14045332      37.67586
2013    8       0.13817585      37.340175
2013    9       0.06631478      20.492945
2013    10      0.138363        36.241645
2013    11      0.11962791      31.9092925
2013    12      0.09414826      26.62727375
2013    13      0.07457305      22.2755875
2013    14      0.05014034      16.565525
2013    15      0.07605156      22.357505
2013    16      0.05334246      17.25827375
2013    17      0.07861466      23.08389875
2013    18      0.0661034       20.1170125
2013    19      0.25483552      60.47350625
2013    20      0.22704442      55.31329
2013    21      0.11984526      32.735735
2013    22      0.05620281      18.03951625
2013    23      0.05649184      18.0557175
2013    24      0.06524964      20.0768425
2013    25      0.03542047      13.0732225
2013    26      0.04116493      14.39952875
2013    27      0.2071995       50.9593975
2013    28      0.12296821      32.64471625
2013    29      0.21481816      52.5621625
2013    30      0.13329452      35.0795675
2013    31      0.0843471       24.5239425
2014    1       0.11759502      32.36875125
2014    2       0.16758704      42.2797075
2014    3       0.16712171      42.8166475
2014    4       0.20574107      50.031365
2014    5       0.15438688      40.22114125
2014    6       0.21766142      54.3630325
2014    7       0.16129551      42.5123075
2014    8       0.1524754       40.01906375
2014    9       0.16430428      42.9763375
2014    10      0.13663252      36.312785
2014    11      0.14825218      38.96532375
2014    12      0.03102045      12.08198125
2014    13      0.17144527      43.44421375
2014    14      0.20777389      50.4262625
2014    15      0.12614355      33.95433625
2014    16      0.24261083      58.4224475
2014    17      0.1687179       42.39306875
2014    18      0.11654556      31.2380175
2014    19      0.19090421      48.01169875
2014    20      0.19368375      48.37652
2014    21      0.1265323       34.21965
2014    22      0.07215636      21.90400375
2014    23      0.0991412       27.85559625
2014    24      0.07785986      22.6389675
2014    25      0.07796826      23.08708
2014    26      0.1440237       36.834505
2014    27      0.06379838      19.6186175
2014    28      0.0460737       15.44051625
2014    29      0.10781454      29.58437
2014    30      0.13718734      36.02120625
2014    31      0.05402397      17.61155
2015    1       0.10843268      30.87214
2015    2       0.15828231      40.02753
2015    3       0.19785463      48.81906125
2015    4       0.05663953      18.280755
2015    5       0.07093614      21.8190375
2015    6       0.07995739      24.11952875
2015    7       0.06827003      21.06759
2015    8       0.14470829      38.37078875
2015    9       0.19543205      48.823825
2015    10      0.15408118      40.01231875
2015    11      0.12565348      33.28285875
2015    12      0.08766312      25.325435
2015    13      0.07935982      23.59981875
2015    14      0.12286355      33.15754875
2015    15      0.18214574      45.4472275
2015    16      0.21082142      51.81443
2015    17      0.18547671      46.13837375
2015    18      0.05588012      17.85137
2015    19      0.12367438      33.2193775
2015    20      0.1234036       33.3568575
2015    21      0.12411852      33.5155675
2015    22      0.14449024      37.884665
2015    23      0.07322354      22.14425875
2015    24      0.09497247      26.5319425
2015    25      0.04905846      16.21993575
2015    26      0.22412315      54.20071625
2015    27      0.0920783       26.27159125
2015    28      0.08857325      25.5395475
2015    29      0.1725632       43.46098625
2015    30      0.08437726      24.1091025
2015    31      0.08133954      23.61419125
2016    1       0.06301648      19.69648875
2016    5       0.10343048      28.81476875
2016    6       0.11404367      31.1593425
2016    7       0.14801243      37.24973875
2016    8       0.22969551      55.61635125
2016    9       0.26867582      62.7826775
2016    10      0.18361222      46.25634625
2016    11      0.2632725       61.78023625
2016    12      0.18466345      45.70692
2016    13      0.06142904      19.14184125
2016    14      0.07039659      21.43150375
2016    15      0.05481361      17.50347
2016    16      0.05149606      16.65054125
2016    17      0.03777017      13.51627425
2016    18      0.04269305      14.68634
2016    19      0.09099741      26.14352125
2016    20      0.06371252      19.89063375
2016    21      0.03782798      13.76195
2016    22      0.10527123      29.44762
2016    23      0.07925403      22.72651875
2016    24      0.14494032      38.4382625
2016    25      0.11210732      31.66594125
2016    26      0.09139347      26.8133825
2016    27      0.11395006      31.3573275
2016    28      0.15807604      41.22525125
2016    29      0.09648338      27.4374575
2016    30      0.14354317      37.2227
2016    31      0.30951679      71.5274975
2017    1       0.04201296      14.940165
2017    2       0.10088489      28.36975
2017    3       0.08243468      24.340875
2017    4       0.15821324      40.63810125
2017    5       0.04525598      15.3543225
2017    6       0.06767884      20.818825
2017    7       0.12324856      33.39362
2017    8       0.08928114      25.598315
2017    9       0.06129187      19.46648125
2017    10      0.17274028      43.391525
2017    11      0.09686038      27.7731175
2017    12      0.24692719      59.29401875
2017    13      0.1067823       29.37905625
2017    14      0.09731354      27.12359125
2017    15      0.04476811      15.16012625
2017    16      0.03037064      11.76715375
2017    17      0.04980447      16.52356375
2017    18      0.03385655      12.75076625
2017    19      0.03433171      12.87991125
2017    20      0.04416646      15.2741375
2017    21      0.03826428      13.8775475
2017    22      0.04776717      16.104065
2017    23      0.04810197      16.26055625
2017    24      0.06022758      19.16522375
2017    25      0.03568908      13.23503125
2017    26      0.04810649      16.24338
2017    27      0.10000665      28.199025
2017    28      0.13706386      36.44405125
2017    29      0.10394326      29.19452
2017    30      0.26442052      62.441455
2017    31      0.27916081      65.8341525
2018    1       0.14809942      38.09963375
2018    2       0.13719257      35.3030525
2018    3       0.18522068      46.19614375
2018    4       0.32831585      75.2338
2018    5       0.20221828      50.84134625
2018    6       0.10992061      30.89343125
2018    7       0.14907314      39.28131
2018    8       0.14779067      38.8364425
2018    9       0.19365247      48.1069225
2018    10      0.12234985      32.905425
2018    11      0.12937059      34.65842
2018    12      0.0915937       26.3565425
2018    13      0.05633008      18.30845125
2018    14      0.04431129      15.42799375
2018    15      0.11314753      30.3986925
2018    16      0.06902938      21.49605625
2018    17      0.09368991      26.43342375
2018    18      0.15472206      40.03451125
2018    19      0.11027417      30.29960625
2018    20      0.13876455      36.20241125
2018    21      0.22898539      55.1113975
2018    22      0.29706144      68.18916375
2018    23      0.09662846      27.81290625
2018    24      0.10507141      29.90584125
2018    25      0.14628191      38.519525
2018    26      0.18473484      46.56812625
2018    27      0.12458009      33.4657475
2018    28      0.13594206      36.81862
2018    29      0.04700803      16.2164675
2018    30      0.05110413      17.0973075
2018    31      0.12870509      34.85568625
