####################################################################################################
# Month: 04Apr                                                                                     #
# Station: KEN                                                                                     #
# Frequency: 345 GHz                                                                               #
# Columns are: year    day     tau     Tb (K)                                                      #
####################################################################################################
2009    1       1.89765938      227.008425
2009    2       0.98050749      168.262975
2009    3       0.80105149      145.98054125
2009    4       1.25481619      191.1824625
2009    5       1.86808782      218.8764375
2009    6       2.4248875       247.5146375
2009    7       1.883745        225.5251625
2009    8       1.33395446      196.4325875
2009    9       0.94697714      162.4626125
2009    10      1.44060425      204.257675
2009    11      1.71237159      213.396225
2009    12      1.86788138      225.2203875
2009    13      1.73759375      224.88435
2009    14      1.45423786      201.8475625
2009    15      1.08470302      180.907025
2009    16      1.55469876      203.214975
2009    17      2.52880388      250.1000625
2009    18      1.92140838      230.97345
2009    19      1.81178775      227.0675125
2009    20      2.24366925      241.56225
2009    21      2.29183525      244.0335625
2009    22      1.703197        223.3011625
2009    23      2.15246275      240.7050875
2009    24      2.1565655       241.2439875
2009    25      2.271093        245.41755
2009    26      1.88859512      233.265725
2009    27      2.02435975      234.458125
2009    28      1.46710395      203.4232625
2009    29      1.38643679      202.93865
2009    30      1.99570975      232.40375
2010    1       2.24441325      241.40525
2010    2       2.659393        254.2606375
2010    3       2.09587775      235.34395
2010    4       2.24945887      237.7741
2010    5       2.2771845       245.20025
2010    6       1.42829562      205.0394125
2010    7       1.813337        221.676975
2010    8       1.692311        221.947575
2010    9       1.21003166      191.3085125
2010    10      0.75086168      146.3244125
2010    11      1.02795378      171.109775
2010    12      1.86521362      224.4322625
2010    13      1.65090875      216.695125
2010    14      2.428013        240.7316125
2010    15      2.95859575      258.9308125
2010    16      2.44860687      249.7996625
2010    17      2.43611625      249.839425
2010    18      2.20716925      243.0693
2010    19      2.5618725       247.801
2010    20      2.31719288      244.9057
2010    21      1.73147062      224.3562125
2010    22      1.88087188      225.0822625
2010    23      2.17354712      240.8809625
2010    24      2.61453938      253.3850875
2010    25      2.70794688      252.4260875
2010    26      2.6844305       254.6843125
2010    27      2.13204712      240.5576125
2010    28      2.63807175      251.853025
2010    29      2.97194312      261.224475
2010    30      2.5462295       253.877925
2011    1       1.03562304      171.3635875
2011    2       1.25983014      181.171625
2011    3       1.42905349      200.8817125
2011    4       1.33707805      169.3257
2011    5       0.87753808      156.44567
2011    6       1.17343355      170.6178575
2011    7       1.49553825      210.1933
2011    8       1.03617484      173.9587375
2011    9       0.74679786      140.031975
2011    10      0.86039768      151.51400375
2011    11      0.72687401      137.5700225
2011    12      1.05516432      166.89623875
2011    13      0.86905995      154.3997875
2011    14      1.50514796      204.8882375
2011    15      1.80597662      225.6582625
2011    16      1.55139138      212.6127875
2011    17      1.28011462      196.6447125
2011    18      1.11648434      182.7498375
2011    19      1.51118171      204.078175
2011    20      1.56228212      213.9845625
2011    21      1.63749225      215.65035
2011    22      1.73188687      221.5809875
2011    23      2.18556188      237.136275
2011    24      2.23551312      240.77085
2011    25      2.403296        244.5955125
2011    26      2.06388525      237.8402125
2011    27      2.18421238      232.57955
2011    28      2.86985175      255.22745
2011    29      2.88753638      257.1503625
2011    30      2.4274875       248.0618875
2012    1       1.27751746      179.6450875
2012    2       1.7923785       223.9994625
2012    3       2.07810925      233.544575
2012    4       2.54561738      250.865525
2012    5       2.82259812      256.539975
2012    6       2.70172162      253.60895
2012    7       2.31386087      244.8655875
2012    8       2.0658415       235.77555
2012    9       2.07592812      239.1311625
2012    10      1.600939        216.1031375
2012    11      1.967776        226.9926625
2012    12      2.27308538      241.6278125
2012    13      2.546778        250.1511875
2012    14      2.48036988      246.4446
2012    15      2.85403688      255.5847375
2012    16      2.92241712      257.96255
2012    17      2.545055        250.7366125
2012    18      2.58073688      250.7018375
2012    19      2.37116212      244.6729625
2012    20      1.38790351      200.1360875
2012    21      2.387503        244.4371875
2012    22      2.69097425      252.4679875
2012    23      2.96070738      257.884175
2012    24      2.81930112      255.8966125
2012    25      2.82273988      255.5824125
2012    26      2.411181        248.29895
2012    27      2.68384938      253.5043625
2012    28      2.302073        240.1905125
2012    29      2.53270425      249.226925
2012    30      2.77796313      254.2709375
2013    1       2.87257038      256.6227875
2013    2       2.5305985       249.61705
2013    3       1.94060112      231.95245
2013    4       2.47373488      246.66465
2013    5       1.69035638      218.1277875
2013    6       2.44347988      244.330925
2013    7       2.27437688      242.797375
2013    8       2.61274062      251.653925
2013    9       2.45186375      250.1542375
2013    10      3.06563788      260.7531625
2013    11      2.95048038      258.5936375
2013    12      3.03657162      260.1557375
2013    13      2.94608288      257.99045
2013    14      2.89151975      257.18405
2013    15      2.872788        257.5179
2013    16      2.19537275      243.38385
2013    17      2.10765925      239.5275125
2013    18      2.09541425      236.8021875
2013    19      2.14535412      238.631825
2013    20      2.46762338      247.5758125
2013    21      2.009235        234.568475
2013    22      2.244123        241.61665
2013    23      1.70118062      221.78845
2013    24      2.07387862      234.6721625
2013    25      1.56849825      214.9992
2013    26      2.07613162      226.3687375
2013    27      2.75655825      254.7438875
2013    28      2.27893425      243.4822875
2013    29      2.6358425       253.4105125
2013    30      2.90437362      259.0264625
2014    1       1.12403194      177.95785
2014    2       1.88406736      213.1470625
2014    3       1.73311825      223.4684125
2014    4       2.07968437      228.4013625
2014    5       2.11740552      226.4757875
2014    6       1.64400088      211.9082
2014    7       1.80273279      207.58595
2014    8       0.53961162      114.60455
2014    9       0.39000908      90.39875625
2014    10      1.04873658      163.885855
2014    11      2.12482775      240.1635375
2014    12      2.07166375      239.1199125
2014    13      2.37282438      246.2364375
2014    14      1.86472688      228.4909
2014    15      2.05335975      229.789375
2014    16      1.61063575      219.4628375
2014    17      2.53873437      241.35825
2014    18      2.47145562      250.409375
2014    19      2.22741612      243.8431625
2014    20      1.97355425      236.080625
2014    21      1.9406185       230.4993125
2014    22      2.33154012      245.9196375
2014    23      1.38739094      201.1768
2014    24      2.325331        244.642325
2014    25      1.683558        221.127275
2014    26      1.01676959      174.908625
2014    27      0.7881908       148.434325
2014    28      0.64506304      131.7396875
2014    29      1.07330625      175.3938875
2014    30      1.4908544       203.5558125
2015    1       2.26325775      242.98145
2015    2       1.71126875      222.22575
2015    3       2.58504212      250.728375
2015    4       2.79662925      256.3748375
2015    5       2.09195325      237.7120375
2015    6       2.01253875      235.7201125
2015    7       2.25783925      242.1196625
2015    8       2.12756202      226.7709375
2015    9       2.55632         248.407375
2015    10      2.383762        246.2596375
2015    11      1.21697102      191.2961
2015    12      0.70033892      138.2290625
2015    13      1.27252891      179.46035125
2015    14      1.94356712      232.9497625
2015    15      1.47985778      205.8166125
2015    16      0.97215984      166.2034375
2015    17      1.569038        215.0368125
2015    18      1.87406038      228.9950125
2015    19      2.23521038      239.4602125
2015    20      1.87584962      228.2755375
2015    21      1.49907449      206.001825
2015    22      2.42206775      247.7399
2015    23      2.71139112      252.6271375
2015    24      1.87876025      227.8005
2015    25      1.58399237      213.004075
2015    26      2.56279775      249.923625
2015    27      2.520087        250.8876
2015    28      2.53282888      250.1216875
2015    29      2.2603835       243.7107625
2015    30      2.57602288      251.1710375
2016    1       1.43424121      208.014825
2016    2       1.25374742      189.8701875
2016    3       1.28972446      187.4497625
2016    4       2.59418437      251.8053625
2016    5       2.1671115       241.3697125
2016    6       2.06032488      236.2503875
2016    7       1.26214914      196.3187875
2016    8       1.16867088      185.8035375
2016    9       1.96514325      230.7383875
2016    10      1.71760112      221.0982125
2016    11      1.56680788      215.53335
2016    12      1.59526825      213.4139
2016    13      1.27278888      197.2568375
2016    14      2.03356388      236.8691125
2016    15      2.0635855       235.690625
2016    16      2.35090312      246.6356
2016    17      1.25768928      187.6899375
2016    18      1.73029         218.4886875
2016    19      2.74272425      252.122875
2016    20      2.61670325      254.51665
2016    21      2.68156288      255.0751125
2016    22      2.164173        243.8827625
2016    23      2.74002425      255.9098625
2016    24      3.12575725      261.8837875
2016    25      3.20341125      263.32815
2016    26      2.60007363      254.49535
2016    27      2.62469362      252.815625
2016    28      2.62806137      250.3563875
2016    29      3.10491888      260.8041875
2016    30      3.307438        263.417025
2017    1       0.5800263       119.06310375
2017    2       0.50297936      106.1184175
2017    3       1.01658921      164.400775
2017    4       1.36514415      195.730575
2017    5       1.40929832      202.175975
2017    6       2.22777412      233.573775
2017    7       2.69523762      254.24545
2017    8       2.279493        244.545475
2017    9       1.63058311      213.7926375
2017    10      2.0328295       233.1853
2017    11      1.8330115       224.6818125
2017    12      1.58761638      216.5267875
2017    13      0.87945896      160.2674625
2017    14      0.90341274      157.3942375
2017    15      1.54276245      196.9159875
2017    16      2.80108325      256.6877
2017    17      1.97531412      225.578125
2017    18      2.69708175      255.1581
2017    19      2.52744612      251.8879125
2017    20      2.04245262      238.9270375
2017    21      1.57114025      214.2390375
2017    22      1.67017325      218.5897625
2017    23      1.40504279      204.81005
2017    24      1.04872374      179.6248
2017    25      1.68560012      219.4028
2017    26      1.31680668      195.58165
2017    27      1.48779429      209.25365
2017    28      1.60204138      213.2750875
2017    29      2.31438412      241.7313
2017    30      2.74230275      254.9181125
2018    1       2.73338588      254.9478375
2018    2       2.63994625      254.7698625
2018    3       2.25328925      245.775725
2018    4       2.3579          246.376725
2018    5       2.81561738      255.0071875
2018    6       2.56399438      252.0298625
2018    7       2.63617975      253.9308
2018    8       2.4602275       248.6193625
2018    9       2.52977437      250.5360375
2018    10      2.46103938      248.489925
2018    11      2.95269712      258.838625
2018    12      2.917096        258.4359875
2018    13      2.787507        256.0202625
2018    14      2.96088725      259.3668625
2018    15      2.866532        257.4183375
2018    16      3.018521        260.1595375
2018    17      2.93316175      258.32615
2018    18      2.60063875      252.360925
2018    19      2.74335662      255.3618125
2018    20      2.856412        257.6842125
2018    21      3.0161385       260.0438375
2018    22      2.76055438      255.811275
2018    23      2.9631715       259.8953375
2018    24      2.991415        259.725975
2018    25      2.727641        254.47965
2018    26      1.85550388      224.476875
2018    27      2.435796        246.769575
2018    28      2.01630875      236.6227625
2018    29      1.98593488      235.401625
2018    30      2.11952425      240.515175
