####################################################################################################
# Month: 03Mar                                                                                     #
# Station: BAN                                                                                     #
# Frequency: 345 GHz                                                                               #
# Columns are: year    day     segment         tau     Tb (K)                                      #
####################################################################################################
2009    1       0       0.3310872       76.22556
2009    1       1       0.3138128       73.4544
2009    1       2       0.3253615       75.70698
2009    1       3       0.399622        88.55932
2009    1       4       0.5684406       114.5019
2009    1       5       0.9868842       164.5297
2009    1       6       1.380046        197.1468
2009    1       7       1.395955        197.9937
2009    2       0       0.9762125       166.082
2009    2       1       0.547617        114.4603
2009    2       2       0.7593697       143.1131
2009    2       3       0.9123302       160.0549
2009    2       4       0.9892469       167.3705
2009    2       5       0.9871714       167.6883
2009    2       6       0.9943932       168.5839
2009    2       7       1.106653        177.4455
2009    3       0       1.50152         206.1083
2009    3       1       1.501135        204.7652
2009    3       2       0.7065627       135.726
2009    3       3       0.654438        128.2969
2009    3       4       0.7243672       136.9533
2009    3       5       0.750679        140.0742
2009    3       6       0.7340713       137.43
2009    3       7       0.6336265       123.8778
2009    4       0       0.5622653       113.4507
2009    4       1       0.5574413       112.6527
2009    4       2       0.6112025       120.3518
2009    4       3       0.7109846       133.2525
2009    4       4       0.5849781       116.9531
2009    4       5       0.6019333       119.0154
2009    4       6       0.8450398       147.7334
2009    4       7       0.8383073       146.9957
2009    5       0       0.7366959       134.1794
2009    5       1       0.5524584       109.6469
2009    5       2       0.3523285       78.14649
2009    5       3       0.2223169       54.45256
2009    5       4       0.1602379       42.22604
2009    5       5       0.1678548       43.74401
2009    5       6       0.1449446       39.13267
2009    5       7       0.1245554       34.917
2009    6       0       0.1390185       37.9538
2009    6       1       0.1835083       46.97648
2009    6       2       0.2287671       56.04689
2009    6       3       0.3392443       76.81802
2009    6       4       0.4901088       102.3969
2009    6       5       0.7692098       141.7198
2009    6       6       0.8762681       155.0761
2009    6       7       1.186146        182.9995
2009    7       0       1.032208        170.9467
2009    7       1       0.9246837       159.6602
2009    7       2       0.9286958       158.9466
2009    7       3       0.9417195       160.0428
2009    7       4       0.9868155       163.2563
2009    7       5       0.7442663       137.0343
2009    7       6       0.6965194       130.3615
2009    7       7       0.6009974       116.9925
2009    8       0       0.5298494       106.8065
2009    8       1       0.5105283       102.9993
2009    8       2       0.431012        90.40415
2009    8       3       0.3953936       84.64629
2009    8       4       0.3365256       74.64054
2009    8       5       0.2274366       54.72633
2009    8       6       0.1924296       47.81975
2009    8       7       0.1762058       44.53929
2009    9       0       0.1708741       43.31347
2009    9       1       0.1553593       40.15425
2009    9       2       0.1437249       37.8032
2009    9       3       0.1360345       36.2374
2009    9       4       0.1311217       35.19575
2009    9       5       0.1319814       35.28221
2009    9       6       0.1308396       34.98589
2009    9       7       0.1281614       34.46351
2009    10      0       0.1244764       33.73361
2009    10      1       0.1195931       32.76946
2009    10      2       0.1173195       32.39268
2009    10      3       0.1199004       33.08234
2009    10      4       0.1239786       34.11709
2009    10      5       0.1275401       34.93073
2009    10      6       0.125098        34.51036
2009    10      7       0.122804        34.07199
2009    11      0       0.1199742       33.49978
2009    11      1       0.1289142       35.33784
2009    11      2       0.1484855       39.41698
2009    11      3       0.1491492       39.75611
2009    11      4       0.1742829       45.14811
2009    11      5       0.205919        51.80552
2009    11      6       0.3021567       70.73387
2009    11      7       0.4446319       95.21232
2009    12      0       0.4852079       101.3132
2009    12      1       0.5277619       107.3473
2009    12      2       0.6173442       119.4986
2009    12      3       0.6794189       127.7286
2009    12      4       0.6112417       119.4582
2009    12      5       0.5227428       107.4975
2009    12      6       0.6145361       120.0386
2009    12      7       1.021696        165.9602
2009    13      0       1.345998        193.0814
2009    13      1       1.318343        192.0414
2009    13      2       1.015043        166.9594
2009    13      3       1.202983        182.4371
2009    13      4       0.9281436       157.6328
2009    13      5       0.8740272       151.1255
2009    13      6       0.7168425       133.1874
2009    13      7       0.4976572       103.7443
2009    14      0       0.551499        110.9736
2009    14      1       0.6330545       121.9621
2009    14      2       0.6376893       122.5806
2009    14      3       0.7366776       134.8448
2009    14      4       0.6946808       129.8288
2009    14      5       0.6514765       124.3451
2009    14      6       0.5426657       109.8022
2009    14      7       0.4212638       90.97081
2009    15      0       0.4053499       88.23974
2009    15      1       0.3932378       86.62612
2009    15      2       0.4906738       101.9425
2009    15      3       0.6579859       125.3721
2009    15      4       0.7525308       136.9222
2009    15      5       0.6403007       123.3786
2009    15      6       0.5937031       117.2463
2009    15      7       0.5791334       115.3374
2009    16      0       0.8539764       148.3377
2009    16      1       0.7469329       136.2705
2009    16      2       0.4633747       97.98867
2009    16      3       0.3608774       80.75327
2009    16      4       0.3323027       75.43245
2009    16      5       0.3311201       75.08363
2009    16      6       0.3665387       81.06073
2009    16      7       0.4095004       88.18631
2009    17      0       0.4116683       88.66533
2009    17      1       0.4262792       91.19341
2009    17      2       0.4345882       92.67738
2009    17      3       0.4025466       87.65319
2009    17      4       0.3436609       77.70981
2009    17      5       0.2650094       63.45916
2009    17      6       0.2719401       64.73903
2009    17      7       0.4317237       92.17296
2009    18      0       0.4181111       90.18625
2009    18      1       0.3138958       72.27454
2009    18      2       0.2386438       58.28034
2009    18      3       0.2775908       65.66774
2009    18      4       0.3193231       73.37158
2009    18      5       0.3476283       78.14235
2009    18      6       0.4429532       93.93328
2009    18      7       0.9218259       155.7138
2009    19      0       0.6199899       121.7612
2009    19      1       0.9830476       162.4604
2009    19      2       0.6635485       126.0899
2009    19      3       0.6458235       123.1708
2009    19      4       0.6171508       119.4385
2009    19      5       0.6399007       122.98
2009    19      6       0.7290353       134.9955
2009    19      7       0.7868267       142.0466
2009    20      0       0.6533632       125.6484
2009    20      1       0.5411033       110.349
2009    20      2       0.5685315       114.1779
2009    20      3       0.825803        145.9141
2009    20      4       0.9166912       156.0241
2009    20      5       0.9821179       163.0775
2009    20      6       0.9412144       159.2015
2009    20      7       0.9034354       155.4536
2009    21      0       1.029368        168.606
2009    21      1       1.302708        190.812
2009    21      2       1.220363        185.2257
2009    21      3       0.4962006       103.6892
2009    21      4       0.270963        65.40374
2009    21      5       0.2444498       60.0587
2009    21      6       0.2309423       57.19412
2009    21      7       0.2118624       53.51986
2009    22      0       0.266601        63.62411
2009    22      1       0.3361697       76.37186
2009    22      2       0.6553547       125.4209
2009    22      3       0.7943717       142.1171
2009    22      4       0.786621        141.5212
2009    22      5       0.7134171       133.3993
2009    22      6       0.6710196       128.112
2009    22      7       0.6821604       129.4306
2009    23      0       0.6362643       123.7303
2009    23      1       0.5561089       112.8779
2009    23      2       0.496496        104.1633
2009    23      3       0.4862688       102.511
2009    23      4       0.4825422       101.675
2009    23      5       0.4541281       96.97251
2009    23      6       0.428018        92.58718
2009    23      7       0.4595084       97.51457
2009    24      0       0.617189        120.4387
2009    24      1       0.9950169       163.3764
2009    24      2       1.108791        173.8915
2009    24      3       1.054274        169.4741
2009    24      4       0.9336532       158.1865
2009    24      5       0.9748896       162.0841
2009    24      6       1.028004        166.5971
2009    24      7       0.9760105       161.4809
2009    25      0       0.8926933       153.5731
2009    25      1       0.9486541       159.0755
2009    25      2       0.8505726       148.7472
2009    25      3       0.8923122       152.8713
2009    25      4       0.8227205       145.4907
2009    25      5       0.81805         145.0381
2009    25      6       0.7848766       141.1917
2009    25      7       0.686253        129.3845
2009    26      0       0.5773348       115.3838
2009    26      1       0.506871        105.5876
2009    26      2       0.4182934       92.05671
2009    26      3       0.3978396       88.76806
2009    26      4       0.3311336       77.01832
2009    26      5       0.2342239       58.52827
2009    26      6       0.3005965       71.08612
2009    26      7       0.4844935       101.7723
2009    27      0       0.9219634       157.4708
2009    27      1       1.320034        192.595
2009    27      2       0.7914011       144.3368
2009    27      3       0.4815071       101.945
2009    27      4       0.4344197       93.24261
2009    27      5       0.4469179       94.77294
2009    27      6       0.4168827       89.43474
2009    27      7       0.5815942       113.7338
2009    28      0       0.5240948       106.0314
2009    28      1       0.4563472       96.17557
2009    28      2       0.4442633       94.33419
2009    28      3       0.4880849       101.0663
2009    28      4       0.5419458       108.9403
2009    28      5       0.5497595       110.0529
2009    28      6       0.5284968       107.0269
2009    28      7       0.5097501       104.2394
2009    29      0       0.519257        105.2647
2009    29      1       0.6255548       119.6275
2009    29      2       0.6468815       122.4742
2009    29      3       0.5764338       113.4541
2009    29      4       0.4783555       99.07203
2009    29      5       0.4112156       88.5942
2009    29      6       0.5337235       107.9444
2009    29      7       0.4003385       87.37418
2009    30      0       0.2566413       62.10209
2009    30      1       0.2803488       66.9406
2009    30      2       0.4207737       91.43666
2009    30      3       0.3278439       75.31706
2009    30      4       0.6415284       122.8259
2009    30      5       0.5678171       113.722
2009    30      6       0.7181683       133.7243
2009    30      7       0.8926531       153.6665
2009    31      0       0.7800892       141.2324
2009    31      1       0.5166403       106.7077
2009    31      2       0.3664764       82.23948
2009    31      3       0.3066148       71.2434
2009    31      4       0.4092559       88.77301
2009    31      5       0.397337        86.98666
2009    31      6       0.3458471       78.28765
2009    31      7       0.3718902       82.59022
2010    1       0       0.6769944       129.6832
2010    1       1       1.081716        174.0157
2010    1       2       1.138242        179.5566
2010    1       3       0.9857394       166.4282
2010    1       4       0.9745018       165.1973
2010    1       5       0.9339365       162.2794
2010    1       6       1.088564        176.7669
2010    1       7       1.255538        190.0959
2010    2       0       1.073758        176.2686
2010    2       1       1.127886        180.52
2010    2       2       1.349373        197.2758
2010    2       3       1.307282        194.9161
2010    2       4       1.288063        193.583
2010    2       5       1.328038        196.0763
2010    2       6       1.454142        203.9978
2010    2       7       1.50195         206.6636
2010    3       0       1.603952        211.4716
2010    3       1       1.634245        212.4858
2010    3       2       1.546695        207.4366
2010    3       3       1.183465        183.5318
2010    3       4       0.9578853       163.9325
2010    3       5       0.7842373       146.0785
2010    3       6       0.7613218       143.4057
2010    3       7       0.7084917       135.818
2010    4       0       0.6468059       127.2833
2010    4       1       0.4071758       91.62042
2010    4       2       0.2770267       68.06544
2010    4       3       0.2688744       66.06752
2010    4       4       0.2822791       68.64676
2010    4       5       0.3780691       86.17806
2010    4       6       0.4137812       91.95504
2010    4       7       0.4101318       91.25367
2010    5       0       0.3569755       81.8505
2010    5       1       0.3805171       85.85325
2010    5       2       0.6296886       124.2099
2010    5       3       0.643315        125.5397
2010    5       4       0.4764738       100.5807
2010    5       5       0.7297409       136.5883
2010    5       6       0.8922147       155.2783
2010    5       7       0.9973013       165.3654
2010    6       0       0.8027908       146.1454
2010    6       1       0.5763994       117.4811
2010    6       2       0.4514046       97.3149
2010    6       3       0.5704648       116.276
2010    6       4       0.7590243       142.4314
2010    6       5       0.8752219       156.3335
2010    6       6       0.7193859       138.0253
2010    6       7       0.557363        116.1262
2010    7       0       0.4434998       98.50542
2010    7       1       0.3988693       90.9223
2010    7       2       0.3982223       90.93857
2010    7       3       0.4094377       92.1635
2010    7       4       0.5271199       110.598
2010    7       5       0.5567054       114.8143
2010    7       6       0.5931524       118.8436
2010    7       7       0.7723451       141.2891
2010    8       0       0.9290561       158.3577
2010    8       1       1.10767         174.6397
2010    8       2       1.185074        180.9687
2010    8       3       0.9895199       163.7934
2010    8       4       0.6910245       130.3596
2010    8       5       0.5194866       106.3288
2010    8       6       0.3127064       72.59366
2010    8       7       0.1122233       32.62432
2010    9       0       0.1773124       46.52028
2010    9       1       0.2161602       54.51231
2010    9       2       0.1606713       43.11195
2010    9       3       0.1339225       37.29407
2010    9       4       0.157901        42.43296
2010    9       5       0.1712365       45.29282
2010    9       6       0.1429587       39.30475
2010    9       7       0.1259258       35.77139
2010    10      0       0.1938259       50.55619
2010    10      1       0.2214547       56.21744
2010    10      2       0.2209192       56.06788
2010    10      3       0.1941011       50.31914
2010    10      4       0.2358885       57.85805
2010    10      5       0.4632803       98.17733
2010    10      6       0.6345159       122.8966
2010    10      7       0.6505335       125.3487
2010    11      0       0.6126964       120.2734
2010    11      1       0.6066455       119.6923
2010    11      2       0.5348856       109.5087
2010    11      3       0.6026812       118.9796
2010    11      4       0.7417206       136.6429
2010    11      5       0.8219127       146.0951
2010    11      6       0.8805988       152.9205
2010    11      7       0.8021395       144.3929
2010    12      0       0.778742        141.6808
2010    12      1       0.3816816       84.99898
2010    12      2       0.4198812       90.62585
2010    12      3       0.341225        78.01314
2010    12      4       0.3009149       70.75034
2010    12      5       0.2621893       63.65763
2010    12      6       0.2471311       60.50362
2010    12      7       0.3039236       70.54964
2010    13      0       0.3722904       82.31202
2010    13      1       0.3769404       83.06109
2010    13      2       0.3965705       86.46748
2010    13      3       0.4503922       94.88421
2010    13      4       0.3916373       85.28712
2010    13      5       0.2599543       62.01672
2010    13      6       0.1362195       37.72485
2010    13      7       0.1032409       30.52127
2010    14      0       0.1255232       35.11391
2010    14      1       0.1991738       50.48665
2010    14      2       0.3876827       85.9509
2010    14      3       0.57092         114.3653
2010    14      4       0.7402024       137.4607
2010    14      5       0.6516095       127.8435
2010    14      6       0.6923228       133.3871
2010    14      7       0.8602032       152.952
2010    15      0       0.880532        156.1725
2010    15      1       0.9267373       161.2954
2010    15      2       1.242819        188.7315
2010    15      3       1.523814        206.5324
2010    15      4       0.8305924       151.4457
2010    15      5       0.3131134       75.88457
2010    15      6       0.6313774       126.3698
2010    15      7       1.087021        175.7637
2010    16      0       0.4238674       93.62544
2010    16      1       0.4500153       97.10001
2010    16      2       0.6641675       128.4774
2010    16      3       1.372014        196.7008
2010    16      4       1.439735        202.1013
2010    16      5       1.390299        199.8263
2010    16      6       1.741121        219.3269
2010    16      7       1.724936        218.5353
2010    17      0       1.864941        224.6869
2010    17      1       1.91643         226.546
2010    17      2       1.660218        215.1487
2010    17      3       0.5393082       112.7951
2010    17      4       0.7208465       137.1214
2010    17      5       0.9398842       160.5187
2010    17      6       0.967685        163.3232
2010    17      7       1.18001         181.9945
2010    18      0       1.072795        172.2865
2010    18      1       1.051189        169.9134
2010    18      2       1.010295        165.6495
2010    18      3       0.8483985       149.1794
2010    18      4       0.6542591       125.6039
2010    18      5       0.5763331       114.7512
2010    18      6       0.5214813       106.6435
2010    18      7       0.4963263       102.8008
2010    19      0       0.5272292       107.115
2010    19      1       0.5042588       103.9385
2010    19      2       0.387754        85.71395
2010    19      3       0.3163836       73.9092
2010    19      4       0.2676898       65.22478
2010    19      5       0.2608741       63.94232
2010    19      6       0.3161409       73.99893
2010    19      7       0.4682282       99.51618
2010    20      0       0.6738698       128.525
2010    20      1       0.9574052       161.1542
2010    20      2       0.9641551       162.688
2010    20      3       0.7223185       135.4826
2010    20      4       0.9730875       162.7623
2010    20      5       1.064797        170.6798
2010    20      6       1.060647        170.3296
2010    20      7       0.9502205       160.5712
2010    21      0       0.7015044       132.6595
2010    21      1       0.541528        110.3889
2010    21      2       0.4726225       100.4197
2010    21      3       0.4806104       101.4935
2010    21      4       0.6362657       123.5897
2010    21      5       0.9487447       159.3435
2010    21      6       0.9942193       163.4665
2010    21      7       0.9615949       160.5693
2010    22      0       0.9033777       154.853
2010    22      1       0.8417363       148.1005
2010    22      2       0.8722507       150.8585
2010    22      3       0.8286382       146.2762
2010    22      4       0.8647167       150.2034
2010    22      5       0.9222049       156.0532
2010    22      6       0.8965322       153.2824
2010    22      7       0.7971553       142.5666
2010    23      0       0.7189144       133.5672
2010    23      1       0.9749795       161.7208
2010    23      2       0.9757608       161.7885
2010    23      3       0.9356109       157.4359
2010    23      4       0.9125548       154.841
2010    23      5       0.9170018       155.1999
2010    23      6       0.7555911       137.8711
2010    23      7       0.839269        147.3885
2010    24      0       1.01471         165.4291
2010    24      1       1.173785        179.4493
2010    24      2       1.178783        179.5924
2010    24      3       1.072864        170.6868
2010    24      4       0.9396451       158.6251
2010    24      5       0.9402411       158.8849
2010    24      6       0.9621999       160.991
2010    24      7       1.078707        171.7604
2010    25      0       1.014952        167.6815
2010    25      1       1.07506         173.823
2010    25      2       1.371926        195.9164
2010    25      3       1.187245        182.5965
2010    25      4       1.283137        190.0778
2010    25      5       1.318351        192.5705
2010    25      6       1.144654        179.8917
2010    25      7       0.9898636       166.3582
2010    26      0       0.9942253       166.4865
2010    26      1       1.111289        176.5873
2010    26      2       1.139304        178.3211
2010    26      3       1.055379        170.6117
2010    26      4       0.9531652       160.9538
2010    26      5       0.9726436       162.9789
2010    26      6       1.040611        169.3034
2010    26      7       1.04058         169.2192
2010    27      0       0.8117974       146.3746
2010    27      1       0.5922065       118.7564
2010    27      2       0.4877376       102.1706
2010    27      3       0.82385         146.791
2010    27      4       1.084598        173.1172
2010    27      5       0.9692255       163.0024
2010    27      6       0.8629464       152.1138
2010    27      7       0.8161103       147.1768
2010    28      0       0.9718324       164.3315
2010    28      1       0.9452597       162.0697
2010    28      2       1.038498        171.3229
2010    28      3       1.133485        180.4844
2010    28      4       1.232775        187.3751
2010    28      5       0.7828028       144.1985
2010    28      6       0.8067252       145.9947
2010    28      7       1.002534        165.6268
2010    29      0       0.5545833       113.9594
2010    29      1       0.4085937       90.33904
2010    29      2       0.6617301       128.491
2010    29      3       0.9485514       160.8505
2010    29      4       0.7924296       144.1155
2010    29      5       0.8093014       146.2585
2010    29      6       1.054978        171.6645
2010    29      7       1.117311        176.1136
2010    30      0       1.101991        174.3601
2010    30      1       0.5901249       118.6214
2010    30      2       0.493604        104.3297
2010    30      3       0.4383595       95.65268
2010    30      4       0.4158782       91.97884
2010    30      5       0.3438415       79.52966
2010    30      6       0.3487592       80.31956
2010    30      7       0.518342        108.2847
2010    31      0       0.5728945       116.3858
2010    31      1       0.5450848       112.17
2010    31      2       0.5314765       109.9466
2010    31      3       0.4958737       104.4
2010    31      4       0.5248144       108.73
2010    31      5       0.5928806       118.1555
2010    31      6       0.6414805       124.4432
2010    31      7       0.8368241       147.8471
2011    1       0       0.1906307       47.50493
2011    1       1       0.1709839       43.65739
2011    1       2       0.1733219       44.17107
2011    1       3       0.1748048       44.50114
2011    1       4       0.1842968       46.44512
2011    1       5       0.191605        47.96898
2011    1       6       0.1909916       47.87997
2011    1       7       0.2144905       52.51114
2011    2       0       0.2462846       58.88153
2011    2       1       0.2613969       61.94655
2011    2       2       0.2793617       65.478
2011    2       3       0.2819011       66.03947
2011    2       4       0.3080128       70.42963
2011    2       5       0.3506469       77.84815
2011    2       6       0.474522        98.00276
2011    2       7       0.7150869       131.803
2011    3       0       0.9017955       153.9796
2011    3       1       1.060321        170.8244
2011    3       2       0.6704011       127.4206
2011    3       3       0.6067718       118.4627
2011    3       4       0.4998797       103.1422
2011    3       5       0.4633777       97.37977
2011    3       6       0.4545614       95.7608
2011    3       7       0.4916294       101.2101
2011    4       0       0.4054576       87.96878
2011    4       1       0.3413544       77.10945
2011    4       2       0.3327846       75.55794
2011    4       3       0.3101644       71.25153
2011    4       4       0.3147535       71.89668
2011    4       5       0.2892411       67.55304
2011    4       6       0.2794714       65.83571
2011    4       7       0.2905496       67.74421
2011    5       0       0.3602152       79.90995
2011    5       1       0.4002385       86.69464
2011    5       2       0.3911021       85.02959
2011    5       3       0.4386244       92.62724
2011    5       4       0.4885423       100.3399
2011    5       5       0.4952724       101.4121
2011    5       6       0.4906085       100.7337
2011    5       7       0.5063807       102.9275
2011    6       0       0.480737        99.1036
2011    6       1       0.4662705       96.90513
2011    6       2       0.4541857       94.98241
2011    6       3       0.4296374       91.17536
2011    6       4       0.4005611       86.66548
2011    6       5       0.3471287       77.93873
2011    6       6       0.2886301       67.87433
2011    6       7       0.2553314       61.93917
2011    7       0       0.2340316       57.99841
2011    7       1       0.2254422       56.3242
2011    7       2       0.2326154       57.57984
2011    7       3       0.2439288       59.63667
2011    7       4       0.2574598       62.22152
2011    7       5       0.2703201       64.50453
2011    7       6       0.2673372       63.76411
2011    7       7       0.2797868       66.01797
2011    8       0       0.3017203       70.11349
2011    8       1       0.3217616       73.63354
2011    8       2       0.3457895       77.7607
2011    8       3       0.3521917       78.91535
2011    8       4       0.340897        76.97001
2011    8       5       0.2975414       69.30377
2011    8       6       0.2473459       60.13189
2011    8       7       0.3260257       74.68559
2011    9       0       0.4771648       98.98792
2011    9       1       0.5951759       116.1299
2011    9       2       0.6960717       129.3879
2011    9       3       0.6579718       124.8841
2011    9       4       0.6939342       129.561
2011    9       5       0.5665324       113.0247
2011    9       6       0.4484893       95.42121
2011    9       7       0.4185532       90.01327
2011    10      0       0.7498183       135.8987
2011    10      1       0.9038578       153.2013
2011    10      2       0.799428        143.1092
2011    10      3       0.7299079       134.5932
2011    10      4       0.7109552       132.6402
2011    10      5       0.6502082       125.1051
2011    10      6       0.6153105       120.1111
2011    10      7       0.7883462       141.0899
2011    11      0       0.8366434       146.5697
2011    11      1       0.8234701       145.0659
2011    11      2       0.768334        138.5919
2011    11      3       0.5586305       112.0148
2011    11      4       0.412935        89.94481
2011    11      5       0.4240878       91.22128
2011    11      6       0.468824        97.94543
2011    11      7       0.527307        106.8718
2011    12      0       0.5696785       113.1783
2011    12      1       0.4399609       94.1397
2011    12      2       0.399037        87.1788
2011    12      3       0.4870878       101.654
2011    12      4       0.5306703       108.2509
2011    12      5       0.5995071       118.42
2011    12      6       0.7772539       141.1609
2011    12      7       0.9882766       162.8404
2011    13      0       0.8141724       144.2688
2011    13      1       0.579644        115.4393
2011    13      2       0.6154121       120.6437
2011    13      3       0.8502593       148.4823
2011    13      4       0.5568893       112.2691
2011    13      5       0.4669474       98.15971
2011    13      6       0.6244986       120.991
2011    13      7       0.8016648       143.0508
2011    14      0       1.001094        164.6072
2011    14      1       1.232994        185.3727
2011    14      2       1.421998        198.9825
2011    14      3       1.487885        203.2379
2011    14      4       1.347494        193.4922
2011    14      5       0.7297176       135.8087
2011    14      6       0.6133505       121.8256
2011    14      7       0.8352767       148.765
2011    15      0       0.8431551       148.9262
2011    15      1       0.919044        156.8627
2011    15      2       0.9580726       160.4506
2011    15      3       0.7805458       141.456
2011    15      4       0.5868674       117.3738
2011    15      5       0.6381403       124.5936
2011    15      6       0.8274371       147.1571
2011    15      7       1.013419        165.0939
2011    16      0       1.012924        165.5978
2011    16      1       1.089814        173.476
2011    16      2       0.9869406       164.5946
2011    16      3       0.8619016       152.1252
2011    16      4       0.8304556       148.735
2011    16      5       0.7658766       141.4586
2011    16      6       0.8184754       147.1865
2011    16      7       0.9218564       157.8556
2011    17      0       0.7307638       136.4609
2011    17      1       0.4524851       97.55482
2011    17      2       0.4587622       98.22918
2011    17      3       0.4661664       99.35249
2011    17      4       0.3801444       84.98748
2011    17      5       0.3597768       81.35414
2011    17      6       0.3168828       73.44823
2011    17      7       0.3105821       72.11639
2011    18      0       0.2881168       68.14479
2011    18      1       0.2714709       65.15514
2011    18      2       0.2973845       69.68995
2011    18      3       0.3521328       79.41594
2011    18      4       0.3890994       85.72465
2011    18      5       0.3598656       80.94399
2011    18      6       0.3227026       74.62858
2011    18      7       0.3231946       74.89106
2011    19      0       0.3533569       80.27117
2011    19      1       0.3985185       87.91259
2011    19      2       0.4188688       90.97964
2011    19      3       0.4251306       91.90024
2011    19      4       0.4405007       94.42103
2011    19      5       0.4525981       96.43733
2011    19      6       0.4819538       101.0229
2011    19      7       0.473321        100.0052
2011    20      0       0.4886218       102.5314
2011    20      1       0.6088235       120.1459
2011    20      2       0.6637269       127.4428
2011    20      3       0.7042225       132.2988
2011    20      4       0.8209224       145.4652
2011    20      5       0.9327071       156.6975
2011    20      6       0.9200045       155.1379
2011    20      7       0.825771        145.3609
2011    21      0       0.772043        139.6335
2011    21      1       0.7865856       141.3731
2011    21      2       0.7945274       141.9271
2011    21      3       0.7860146       141.3382
2011    21      4       0.6798301       129.2511
2011    21      5       0.6124668       120.7743
2011    21      6       0.5369463       110.151
2011    21      7       0.8439682       149.2151
2011    22      0       1.060735        170.2683
2011    22      1       0.9658253       162.315
2011    22      2       0.9864948       164.5901
2011    22      3       1.028527        168.6691
2011    22      4       1.245974        186.3513
2011    22      5       1.233247        185.1299
2011    22      6       1.206551        182.9327
2011    22      7       0.9758114       162.7084
2011    23      0       0.6662206       128.1849
2011    23      1       0.5980211       119.4103
2011    23      2       0.5128878       107.0185
2011    23      3       0.4486814       96.62698
2011    23      4       0.4566399       97.64402
2011    23      5       0.4933811       103.2564
2011    23      6       0.5955626       117.7604
2011    23      7       0.8290807       146.2732
2011    24      0       1.081513        171.496
2011    24      1       1.10085         173.2531
2011    24      2       1.040928        167.9542
2011    24      3       0.9673733       161.3002
2011    24      4       0.8643172       151.1676
2011    24      5       0.7867974       142.9294
2011    24      6       0.6983505       132.7876
2011    24      7       0.6140066       121.9856
2011    25      0       0.5400339       111.9534
2011    25      1       0.5460423       113.1719
2011    25      2       0.6752078       129.9869
2011    25      3       0.7291476       136.1502
2011    25      4       0.7628307       140.5842
2011    25      5       0.8214192       148.2556
2011    25      6       0.8078194       147.2312
2011    25      7       0.762749        141.9758
2011    26      0       0.7051155       134.9889
2011    26      1       0.6473142       127.7092
2011    26      2       0.5867248       119.473
2011    26      3       0.5746886       117.7532
2011    26      4       0.660649        129.5143
2011    26      5       0.8356997       150.508
2011    26      6       0.8974465       156.8646
2011    26      7       0.8131626       146.9379
2011    27      0       0.8033068       145.7113
2011    27      1       0.7947133       145.164
2011    27      2       0.8354903       149.8657
2011    27      3       0.8315997       149.4776
2011    27      4       0.820226        148.0195
2011    27      5       0.7872982       144.1312
2011    27      6       0.7060145       134.2741
2011    27      7       0.702475        133.4395
2011    28      0       0.6950014       132.3161
2011    28      1       0.695887        132.3656
2011    28      2       0.7680024       140.8168
2011    28      3       0.9239938       157.3558
2011    28      4       0.9867815       163.3679
2011    28      5       0.8384539       148.6434
2011    28      6       0.8586387       150.9538
2011    28      7       0.9820012       163.4704
2011    29      0       0.7779561       142.2722
2011    29      1       0.6745221       129.8226
2011    29      2       0.7411873       137.7809
2011    29      3       0.7183249       135.0593
2011    29      4       0.70321         133.2311
2011    29      5       0.6797308       130.4259
2011    29      6       0.7709979       142.0061
2011    29      7       0.7290419       136.8232
2011    30      0       0.8589318       151.5169
2011    30      1       0.7834598       143.3913
2011    30      2       0.7110415       134.0915
2011    30      3       0.9098022       156.1222
2011    30      4       1.122694        175.4463
2011    30      5       1.145337        178.1853
2011    30      6       0.939379        160.5407
2011    30      7       0.9120394       157.1701
2011    31      0       0.7696706       141.9402
2011    31      1       0.7269423       136.8638
2011    31      2       0.6143972       122.3212
2011    31      3       0.6160171       121.9443
2011    31      4       0.4638706       99.54542
2011    31      5       0.4101994       90.56253
2011    31      6       0.4733081       100.3272
2011    31      7       0.4261355       93.13509
2012    1       0       0.563718        111.9041
2012    1       1       0.5588148       111.0524
2012    1       2       0.5650842       111.6783
2012    1       3       0.5748428       112.9457
2012    1       4       0.5651177       111.7415
2012    1       5       0.5526371       110.06
2012    1       6       0.633218        121.0868
2012    1       7       0.6055404       117.3044
2012    2       0       0.5463778       109.4673
2012    2       1       0.4495762       95.3703
2012    2       2       0.3921682       85.65683
2012    2       3       0.411055        88.28952
2012    2       4       0.470997        97.85586
2012    2       5       0.5459229       109.5853
2012    2       6       0.7144485       132.6317
2012    2       7       0.6352508       123.1971
2012    3       0       0.4235389       92.01463
2012    3       1       0.3848946       85.1616
2012    3       2       0.4688733       98.405
2012    3       3       0.631856        121.6527
2012    3       4       0.7628093       138.3218
2012    3       5       0.8923886       152.5586
2012    3       6       0.5908933       117.1702
2012    3       7       0.3834257       85.48734
2012    4       0       0.3750678       83.33502
2012    4       1       0.471196        98.75184
2012    4       2       0.4365952       93.5343
2012    4       3       0.3571177       80.45062
2012    4       4       0.3612613       81.11531
2012    4       5       0.3569595       80.06125
2012    4       6       0.3567286       79.67559
2012    4       7       0.2950917       69.30474
2012    5       0       0.2279585       56.75853
2012    5       1       0.3326016       75.60838
2012    5       2       0.4279524       91.32907
2012    5       3       0.4466598       94.30898
2012    5       4       0.4414983       93.53852
2012    5       5       0.4171849       89.53413
2012    5       6       0.4533454       94.96962
2012    5       7       0.4618173       96.14345
2012    6       0       0.4093569       87.78764
2012    6       1       0.3676379       80.85787
2012    6       2       0.3517056       78.18825
2012    6       3       0.3824104       83.35561
2012    6       4       0.3475997       77.37065
2012    6       5       0.2781699       65.02988
2012    6       6       0.3341519       74.84069
2012    6       7       0.3595576       79.12822
2012    7       0       0.4767566       98.37186
2012    7       1       0.5344002       107.5054
2012    7       2       0.5245424       106.4061
2012    7       3       0.5219901       106.0834
2012    7       4       0.4746214       99.28171
2012    7       5       0.4738575       99.15536
2012    7       6       0.5260195       106.7043
2012    7       7       0.467606        97.99794
2012    8       0       0.6433435       123.4262
2012    8       1       0.9569158       158.9984
2012    8       2       1.089108        171.502
2012    8       3       1.062365        169.8076
2012    8       4       1.003269        164.6841
2012    8       5       1.091265        172.8434
2012    8       6       0.9536118       161.1009
2012    8       7       1.139934        178.594
2012    9       0       1.490097        203.1661
2012    9       1       1.685538        214.3476
2012    9       2       1.76347         218.9859
2012    9       3       1.756704        219.0605
2012    9       4       1.62526         212.4444
2012    9       5       1.093972        175.8788
2012    9       6       0.3959898       89.57141
2012    9       7       0.4135224       92.00379
2012    10      0       0.5012958       105.5181
2012    10      1       0.5885433       117.8646
2012    10      2       0.5544347       112.5336
2012    10      3       0.506667        105.1129
2012    10      4       0.5038236       104.6207
2012    10      5       0.5489045       111.2528
2012    10      6       0.6302126       122.5438
2012    10      7       0.7165539       133.6169
2012    11      0       0.7447916       136.9807
2012    11      1       0.8194497       145.9467
2012    11      2       1.034299        167.9776
2012    11      3       0.8453441       149.7548
2012    11      4       0.5577352       113.2107
2012    11      5       0.8210258       146.6875
2012    11      6       0.6481671       125.7766
2012    11      7       0.7000791       131.7217
2012    12      0       0.7920247       142.878
2012    12      1       0.7450467       137.5238
2012    12      2       0.6320406       123.3016
2012    12      3       0.6216232       121.5667
2012    12      4       0.4688553       98.74605
2012    12      5       0.2171489       54.82772
2012    12      6       0.1780482       46.78798
2012    12      7       0.4038975       88.31917
2012    13      0       0.8985147       153.6874
2012    13      1       0.8741373       151.6515
2012    13      2       0.6579829       126.499
2012    13      3       0.49744         103.5085
2012    13      4       0.5307915       108.3816
2012    13      5       0.5517733       111.5564
2012    13      6       0.6104459       119.4518
2012    13      7       0.6133543       119.3889
2012    14      0       0.552369        111.0567
2012    14      1       0.4260866       91.44603
2012    14      2       0.3121806       72.07354
2012    14      3       0.2957135       68.88556
2012    14      4       0.3931324       85.90586
2012    14      5       0.3892759       85.64963
2012    14      6       0.2751971       65.43473
2012    14      7       0.4134207       89.27339
2012    15      0       0.3807475       84.17292
2012    15      1       0.4964328       102.3075
2012    15      2       0.6493713       124.2957
2012    15      3       0.6354883       122.8684
2012    15      4       0.5822458       115.5567
2012    15      5       0.5194145       107.0144
2012    15      6       0.6781024       128.8716
2012    15      7       1.231353        185.3922
2012    16      0       1.171192        180.8123
2012    16      1       0.7947631       144.4722
2012    16      2       1.133669        178.1529
2012    16      3       0.6810656       130.6511
2012    16      4       0.5912806       118.2929
2012    16      5       0.4864706       102.4701
2012    16      6       0.380072        85.38339
2012    16      7       0.4142419       90.87166
2012    17      0       0.3681894       83.26726
2012    17      1       0.3656048       83.00791
2012    17      2       0.3546202       81.10483
2012    17      3       0.3537267       80.43667
2012    17      4       0.4091664       89.64499
2012    17      5       0.4367919       94.10217
2012    17      6       0.456897        97.25037
2012    17      7       0.5139773       106.1978
2012    18      0       0.756741        138.1278
2012    18      1       0.9939091       162.9341
2012    18      2       1.072682        170.791
2012    18      3       1.041124        168.3538
2012    18      4       0.8754559       152.2211
2012    18      5       0.7732979       140.9756
2012    18      6       0.4767755       100.844
2012    18      7       0.4009742       88.30627
2012    19      0       0.2755782       66.38021
2012    19      1       0.1847811       48.08331
2012    19      2       0.3110872       72.29897
2012    19      3       0.4343404       93.22092
2012    19      4       0.5022125       103.807
2012    19      5       0.4798142       100.4987
2012    19      6       0.5353945       108.7421
2012    19      7       0.6118801       119.4715
2012    20      0       0.5693966       113.4895
2012    20      1       0.4596333       97.05158
2012    20      2       0.3607062       80.77049
2012    20      3       0.3155633       72.87337
2012    20      4       0.3957904       86.82352
2012    20      5       0.5860208       115.1124
2012    20      6       0.6349803       121.4444
2012    20      7       0.6735161       126.5212
2012    21      0       0.6199876       120.2119
2012    21      1       0.557748        111.9349
2012    21      2       0.6873241       129.6858
2012    21      3       0.6223986       121.3497
2012    21      4       0.4630052       98.61708
2012    21      5       0.5957871       117.8256
2012    21      6       0.7181176       133.0481
2012    21      7       0.6305268       122.4514
2012    22      0       0.5539484       111.5067
2012    22      1       0.5440082       109.714
2012    22      2       0.550407        110.7581
2012    22      3       0.6028823       118.174
2012    22      4       0.6264597       121.3489
2012    22      5       0.5470947       110.3417
2012    22      6       0.4551319       96.51507
2012    22      7       0.6880552       129.2435
2012    23      0       0.7431965       135.9185
2012    23      1       0.6970383       130.2773
2012    23      2       0.6838937       128.5231
2012    23      3       0.5576304       111.8742
2012    23      4       0.4275776       92.3809
2012    23      5       0.4263708       91.93727
2012    23      6       0.4194238       90.4242
2012    23      7       0.4790978       99.56001
2012    24      0       0.4664092       97.51245
2012    24      1       0.3366891       76.2548
2012    24      2       0.2631173       62.87282
2012    24      3       0.3132864       72.61651
2012    24      4       0.426485        92.00257
2012    24      5       0.4444027       94.64247
2012    24      6       0.5044976       103.9748
2012    24      7       0.5850909       115.7594
2012    25      0       0.5690334       113.5082
2012    25      1       0.5938914       117.3871
2012    25      2       0.5091021       105.787
2012    25      3       0.4236422       92.75707
2012    25      4       0.4043986       89.64205
2012    25      5       0.4653497       99.87926
2012    25      6       0.3291367       77.36089
2012    25      7       0.4772768       101.3948
2012    26      0       0.5748563       115.9835
2012    26      1       0.301655        72.05075
2012    26      2       0.2476271       60.96417
2012    26      3       0.3015896       70.4559
2012    26      4       0.3617439       81.65601
2012    26      5       0.3267682       75.52973
2012    26      6       0.3334018       76.66713
2012    26      7       0.3837888       85.7601
2012    27      0       0.4351853       94.98832
2012    27      1       0.5067405       106.5668
2012    27      2       0.575735        116.8276
2012    27      3       0.6359591       125.3135
2012    27      4       0.5854435       118.3672
2012    27      5       0.6311179       124.6518
2012    27      6       0.7631094       140.7405
2012    27      7       0.8695023       152.6826
2012    28      0       0.9312252       159.1754
2012    28      1       1.043513        170.1114
2012    28      2       1.149032        179.4071
2012    28      3       0.9517929       161.9991
2012    28      4       0.7486516       139.7329
2012    28      5       0.8629921       152.5974
2012    28      6       1.032255        169.1321
2012    28      7       0.915123        158.7162
2012    29      0       1.044489        170.8897
2012    29      1       1.131951        179.2756
2012    29      2       0.6669988       129.031
2012    29      3       0.5616197       114.6539
2012    29      4       0.4781511       102.547
2012    29      5       0.4351269       95.28113
2012    29      6       0.4719278       100.8135
2012    29      7       0.9790286       163.8111
2012    30      0       0.9341792       159.593
2012    30      1       0.8662499       152.9241
2012    30      2       0.4866728       103.1797
2012    30      3       0.5605779       112.9262
2012    30      4       0.4540097       96.92904
2012    30      5       0.4134059       90.44401
2012    30      6       0.3854366       86.16692
2012    30      7       0.51802         107.2075
2012    31      0       0.5329281       109.6268
2012    31      1       0.3546655       80.89062
2012    31      2       0.341103        78.71801
2012    31      3       0.3581993       81.62678
2012    31      4       0.3143511       73.5311
2012    31      5       0.2860615       68.45123
2012    31      6       0.3024223       71.41328
2012    31      7       0.3644581       82.79677
2013    1       0       0.3477234       78.87534
2013    1       1       0.8414265       148.0941
2013    1       2       1.289079        189.9486
2013    1       3       0.663466        129.3935
2013    1       4       0.1257349       35.95168
2013    1       5       0.1096853       32.28019
2013    1       6       0.1357378       37.99733
2013    1       7       0.1627229       43.57804
2013    2       0       0.1822416       47.60923
2013    2       1       0.2116999       53.68058
2013    2       2       0.2118556       53.38897
2013    2       3       0.2525405       61.07335
2013    2       4       0.3727784       82.46001
2013    2       5       0.4780041       99.65324
2013    2       6       0.4883002       101.8842
2013    2       7       0.5118503       105.7543
2013    3       0       0.5626442       113.2
2013    3       1       0.6485402       124.718
2013    3       2       0.7500875       136.8755
2013    3       3       0.5629864       111.7918
2013    3       4       0.3907657       85.30493
2013    3       5       0.2780429       65.3936
2013    3       6       0.2589623       61.87407
2013    3       7       0.3536157       79.12044
2013    4       0       0.4598261       96.71497
2013    4       1       0.4640886       97.19268
2013    4       2       0.449989        94.71327
2013    4       3       0.4264353       90.96865
2013    4       4       0.4152985       89.09921
2013    4       5       0.4058798       87.4063
2013    4       6       0.3803297       83.04805
2013    4       7       0.3482971       77.59839
2013    5       0       0.3229395       73.2155
2013    5       1       0.3232553       73.32596
2013    5       2       0.3154698       72.12422
2013    5       3       0.2719445       64.38443
2013    5       4       0.2780772       65.42437
2013    5       5       0.3027594       69.869
2013    5       6       0.2950203       68.55465
2013    5       7       0.3002777       69.68647
2013    6       0       0.303623        70.26089
2013    6       1       0.2896127       67.6876
2013    6       2       0.2430184       59.27186
2013    6       3       0.2175892       54.57965
2013    6       4       0.2037813       52.01026
2013    6       5       0.1845569       48.18348
2013    6       6       0.2063053       52.32132
2013    6       7       0.2396017       58.78488
2013    7       0       0.2533918       61.39837
2013    7       1       0.2517337       60.9313
2013    7       2       0.2870232       67.48313
2013    7       3       0.3095445       71.64566
2013    7       4       0.3237733       74.34951
2013    7       5       0.3198273       73.76367
2013    7       6       0.3012542       70.68492
2013    7       7       0.3202846       74.13387
2013    8       0       0.36324         81.424
2013    8       1       0.4314263       92.3247
2013    8       2       0.4282514       91.74738
2013    8       3       0.4006564       87.83115
2013    8       4       0.3955089       87.76177
2013    8       5       0.4101026       90.19119
2013    8       6       0.4504523       96.81037
2013    8       7       0.4792581       101.5616
2013    9       0       0.5041495       105.3221
2013    9       1       0.5749198       115.6521
2013    9       2       0.7321004       137.1074
2013    9       3       0.6603606       127.8288
2013    9       4       0.9879249       165.8988
2013    9       5       1.064894        173.72
2013    9       6       0.8484492       151.8717
2013    9       7       0.8571952       151.4755
2013    10      0       0.7893282       142.944
2013    10      1       0.4675846       99.67857
2013    10      2       0.8527458       151.2017
2013    10      3       0.5052186       106.634
2013    10      4       0.2256425       56.97919
2013    10      5       0.3001131       71.0501
2013    10      6       0.4802127       100.4952
2013    10      7       0.6392336       122.7247
2013    11      0       0.6615876       125.2953
2013    11      1       0.8065985       142.6545
2013    11      2       0.7421179       135.2008
2013    11      3       0.6995799       129.8044
2013    11      4       0.6693396       125.8657
2013    11      5       0.5910087       115.4376
2013    11      6       0.4336352       92.38961
2013    11      7       0.3492343       78.70001
2013    12      0       0.3651458       81.63389
2013    12      1       0.4107022       89.24922
2013    12      2       0.4135055       89.51474
2013    12      3       0.3726499       82.73438
2013    12      4       0.3078218       71.3933
2013    12      5       0.33097         75.51108
2013    12      6       0.4027828       87.6515
2013    12      7       0.6155071       119.172
2013    13      0       0.6319373       121.7111
2013    13      1       0.8384799       146.4405
2013    13      2       0.9776545       161.5049
2013    13      3       1.054146        169.1675
2013    13      4       1.009168        164.1526
2013    13      5       1.022328        165.3895
2013    13      6       0.9915151       162.5176
2013    13      7       0.9577675       159.3141
2013    14      0       0.8439615       147.7034
2013    14      1       0.7878928       140.9969
2013    14      2       0.6706308       126.7391
2013    14      3       0.5889642       116.5658
2013    14      4       0.8115412       144.3424
2013    14      5       0.8068926       144.7942
2013    14      6       0.9720505       162.1269
2013    14      7       1.119823        175.1193
2013    15      0       1.190346        181.5904
2013    15      1       1.2035          182.9663
2013    15      2       1.29858         189.4293
2013    15      3       1.196247        182.2301
2013    15      4       0.8754335       152.5304
2013    15      5       0.6703172       128.9181
2013    15      6       0.5878031       117.1414
2013    15      7       0.4926175       103.1428
2013    16      0       0.5356134       108.9639
2013    16      1       0.7685214       139.2685
2013    16      2       0.973819        161.1932
2013    16      3       0.9215367       156.0677
2013    16      4       0.9978178       163.5334
2013    16      5       0.7597374       138.4107
2013    16      6       0.745566        136.2802
2013    16      7       0.6733216       127.2948
2013    17      0       0.7340039       134.496
2013    17      1       0.6351907       121.8458
2013    17      2       0.441312        93.69432
2013    17      3       0.3308457       74.99511
2013    17      4       0.3021487       69.56577
2013    17      5       0.3196636       72.43014
2013    17      6       0.3290382       73.85426
2013    17      7       0.3406792       75.78191
2013    18      0       0.359602        79.10991
2013    18      1       0.4543754       94.49441
2013    18      2       0.368144        80.4307
2013    18      3       0.3117799       70.63717
2013    18      4       0.2714858       63.43908
2013    18      5       0.2352342       56.6374
2013    18      6       0.2109137       52.16447
2013    18      7       0.1849639       47.24816
2013    19      0       0.2360839       57.24009
2013    19      1       0.3659406       80.70849
2013    19      2       0.4276507       90.9617
2013    19      3       0.3944468       85.66751
2013    19      4       0.3602802       79.9368
2013    19      5       0.3318805       74.88057
2013    19      6       0.2754069       65.03637
2013    19      7       0.6103079       118.6556
2013    20      0       0.4900945       100.9176
2013    20      1       0.6010214       117.2479
2013    20      2       0.7013147       130.5162
2013    20      3       0.6548661       124.5808
2013    20      4       0.7495103       137.1811
2013    20      5       0.9334078       157.9824
2013    20      6       1.169251        179.7158
2013    20      7       1.078064        172.997
2013    21      0       1.015513        168.0306
2013    21      1       1.302839        190.7864
2013    21      2       1.148225        179.0851
2013    21      3       1.126758        176.9031
2013    21      4       1.012224        165.1179
2013    21      5       0.79496         142.1383
2013    21      6       0.6637373       126.0661
2013    21      7       0.6398446       122.4121
2013    22      0       0.5424807       108.739
2013    22      1       0.4161209       89.29923
2013    22      2       0.3357991       75.7198
2013    22      3       0.264683        62.765
2013    22      4       0.2194007       54.09232
2013    22      5       0.2213449       54.55042
2013    22      6       0.2080471       52.05395
2013    22      7       0.1894359       48.46884
2013    23      0       0.1754507       45.6645
2013    23      1       0.163377        43.224
2013    23      2       0.1569067       41.94758
2013    23      3       0.1486785       40.26403
2013    23      4       0.1358259       37.59683
2013    23      5       0.1320683       36.85577
2013    23      6       0.1304168       36.54416
2013    23      7       0.1162026       33.44723
2013    24      0       0.1238494       35.10385
2013    24      1       0.1867894       48.10204
2013    24      2       0.248804        60.36112
2013    24      3       0.2747785       65.40207
2013    24      4       0.2921219       68.71539
2013    24      5       0.313552        72.86829
2013    24      6       0.335529        76.853
2013    24      7       0.3752729       83.57444
2013    25      0       0.4191788       91.24965
2013    25      1       0.4350377       94.15084
2013    25      2       0.4183891       91.59985
2013    25      3       0.4001308       88.78825
2013    25      4       0.3904452       87.18318
2013    25      5       0.4049839       89.52142
2013    25      6       0.4237452       92.66138
2013    25      7       0.4276895       93.47773
2013    26      0       0.4459022       96.62825
2013    26      1       0.5056627       106.2073
2013    26      2       0.6103892       121.4199
2013    26      3       0.7271121       136.2996
2013    26      4       0.9014707       155.545
2013    26      5       0.8771704       153.0771
2013    26      6       0.599968        119.4551
2013    26      7       0.7426668       137.7404
2013    27      0       0.7885289       143.7883
2013    27      1       0.6661986       129.3338
2013    27      2       0.6110669       122.1283
2013    27      3       0.5138404       108.122
2013    27      4       0.469583        101.2207
2013    27      5       0.4831335       103.2931
2013    27      6       0.6214469       123.2496
2013    27      7       0.6788557       130.4512
2013    28      0       0.5476427       113.1616
2013    28      1       0.5049113       106.389
2013    28      2       0.5302381       110.1505
2013    28      3       0.5111327       107.5769
2013    28      4       0.538487        111.4424
2013    28      5       0.5677551       115.541
2013    28      6       0.5521493       113.133
2013    28      7       0.5646177       114.5223
2013    29      0       0.6972773       131.8173
2013    29      1       0.765808        139.937
2013    29      2       0.6678012       128.2268
2013    29      3       0.6624941       127.8563
2013    29      4       0.6349525       124.555
2013    29      5       0.4920141       104.0693
2013    29      6       0.4790975       101.6086
2013    29      7       0.5446973       111.1901
2013    30      0       0.6560249       126.3134
2013    30      1       0.7049846       133.0377
2013    30      2       0.5842518       117.4308
2013    30      3       0.5778952       116.5809
2013    30      4       0.6874518       131.3227
2013    30      5       0.7541096       139.0477
2013    30      6       1.071992        171.3078
2013    30      7       1.344109        193.6664
2013    31      0       1.346887        193.998
2013    31      1       0.9732745       163.6556
2013    31      2       0.4988117       105.7004
2013    31      3       0.3538907       81.58406
2013    31      4       0.3152958       74.39002
2013    31      5       0.32914         76.55612
2013    31      6       0.4179231       91.42036
2013    31      7       0.4931003       103.7309
2014    1       0       0.09603846      28.34913
2014    1       1       0.1169038       32.8051
2014    1       2       0.1249527       34.46711
2014    1       3       0.1199654       33.51577
2014    1       4       0.130611        35.82886
2014    1       5       0.1435397       38.5756
2014    1       6       0.1484777       39.60061
2014    1       7       0.1514553       40.21172
2014    2       0       0.1475341       39.39044
2014    2       1       0.1459988       39.07253
2014    2       2       0.150208        40.01087
2014    2       3       0.1519965       40.4661
2014    2       4       0.1497844       40.05901
2014    2       5       0.1346185       36.93315
2014    2       6       0.1152544       32.83404
2014    2       7       0.1419964       38.47605
2014    3       0       0.2249245       55.37255
2014    3       1       0.2876195       67.41056
2014    3       2       0.3194452       73.60207
2014    3       3       0.341159        77.55745
2014    3       4       0.3984843       87.25447
2014    3       5       0.544949        109.4978
2014    3       6       0.5609896       111.9213
2014    3       7       0.543847        109.8192
2014    4       0       0.4423034       94.39075
2014    4       1       0.4335489       93.09458
2014    4       2       0.6106161       118.4711
2014    4       3       0.5110494       104.8628
2014    4       4       0.3127884       71.95399
2014    4       5       0.2145344       53.28334
2014    4       6       0.205774        51.45177
2014    4       7       0.2680083       63.06746
2014    5       0       0.2961351       67.97258
2014    5       1       0.2334386       56.44864
2014    5       2       0.2037382       50.78023
2014    5       3       0.1985937       49.94266
2014    5       4       0.1701535       44.37563
2014    5       5       0.1522104       40.85576
2014    5       6       0.139999        38.6262
2014    5       7       0.1283296       36.36651
2014    6       0       0.125052        35.6445
2014    6       1       0.1278888       36.1845
2014    6       2       0.1383917       38.38316
2014    6       3       0.1519186       41.29398
2014    6       4       0.1456681       40.07496
2014    6       5       0.1879615       49.0087
2014    6       6       0.123813        35.27115
2014    6       7       0.12633         35.8321
2014    7       0       0.1278726       36.23088
2014    7       1       0.1526735       41.3083
2014    7       2       0.2357003       57.86027
2014    7       3       0.4515521       96.25128
2014    7       4       0.7149477       134.2337
2014    7       5       0.5771967       116.931
2014    7       6       0.4213815       92.74469
2014    7       7       0.5474407       111.4113
2014    8       0       1.087522        172.8367
2014    8       1       1.356072        194.1579
2014    8       2       1.714112        215.8
2014    8       3       1.75261         218.1007
2014    8       4       1.217695        186.2503
2014    8       5       0.96777         162.7369
2014    8       6       0.644072        124.2354
2014    8       7       0.6266374       122.4367
2014    9       0       0.8848976       154.2954
2014    9       1       1.235388        187.179
2014    9       2       1.630923        211.4241
2014    9       3       1.36952         196.6527
2014    9       4       0.466575        100.3087
2014    9       5       0.432692        95.6013
2014    9       6       0.6343844       125.0668
2014    9       7       0.6721986       129.4868
2014    10      0       0.6276435       123.1043
2014    10      1       0.6584164       126.9973
2014    10      2       0.6370239       124.3431
2014    10      3       0.5014484       104.9882
2014    10      4       0.525683        108.5974
2014    10      5       0.5984989       118.6771
2014    10      6       0.5876199       117.0764
2014    10      7       0.5531654       112.5466
2014    11      0       0.5429933       111.1874
2014    11      1       0.492577        104.162
2014    11      2       0.5201794       108.6442
2014    11      3       0.486673        103.6671
2014    11      4       0.4109773       91.67541
2014    11      5       0.4489115       96.56082
2014    11      6       1.134256        178.6956
2014    11      7       1.284513        190.1505
2014    12      0       1.288794        191.1838
2014    12      1       1.17572         183.2933
2014    12      2       1.008222        169.3653
2014    12      3       0.9562463       163.0654
2014    12      4       0.974168        163.6307
2014    12      5       0.7387676       138.0688
2014    12      6       0.9574829       162.9242
2014    12      7       0.5117344       108.8469
2014    13      0       0.4097885       91.51961
2014    13      1       0.8291953       148.5023
2014    13      2       0.8958907       154.4552
2014    13      3       0.4126988       90.97241
2014    13      4       0.3715454       84.14536
2014    13      5       0.3641176       82.20935
2014    13      6       0.4593675       97.57762
2014    13      7       0.4955362       103.3829
2014    14      0       0.6012217       118.5507
2014    14      1       0.741361        137.0327
2014    14      2       0.8475562       149.16
2014    14      3       0.8103579       144.3285
2014    14      4       0.937045        158.2158
2014    14      5       1.056732        170.0589
2014    14      6       1.16238         179.6144
2014    14      7       1.230195        184.1386
2014    15      0       1.057434        170.4158
2014    15      1       0.6231555       122.9227
2014    15      2       0.5118638       106.5413
2014    15      3       0.4067879       89.97586
2014    15      4       0.4268533       93.53619
2014    15      5       0.2825219       68.29128
2014    15      6       0.1341062       37.09989
2014    15      7       0.4234632       92.12346
2014    16      0       1.3042          191.2998
2014    16      1       1.372865        195.6913
2014    16      2       0.8200268       147.3348
2014    16      3       0.6926614       131.9335
2014    16      4       0.6982212       132.4218
2014    16      5       0.6643344       128.4952
2014    16      6       0.7661541       141.1893
2014    16      7       0.9473043       160.3746
2014    17      0       0.7866914       143.1563
2014    17      1       0.7317773       136.7169
2014    17      2       1.004418        164.9233
2014    17      3       1.072392        171.0756
2014    17      4       0.9528035       160.421
2014    17      5       0.5636969       113.6541
2014    17      6       0.6323013       123.2193
2014    17      7       0.8153424       145.2165
2014    18      0       0.9661281       161.2102
2014    18      1       0.6506093       125.3647
2014    18      2       0.3520597       79.92211
2014    18      3       0.4735637       100.323
2014    18      4       0.5387544       110.0077
2014    18      5       0.5265198       108.3762
2014    18      6       0.4394649       95.07009
2014    18      7       0.4710925       99.58432
2014    19      0       0.6165018       120.1872
2014    19      1       0.7762774       140.8141
2014    19      2       1.028999        167.0683
2014    19      3       1.01405         166.4108
2014    19      4       0.8858814       154.056
2014    19      5       0.461319        99.60641
2014    19      6       0.3723868       84.69517
2014    19      7       0.3405066       78.83394
2014    20      0       0.3183169       74.63912
2014    20      1       0.4003092       88.62845
2014    20      2       0.4347085       94.27154
2014    20      3       0.6561735       125.6894
2014    20      4       0.6054226       118.0502
2014    20      5       0.4307302       91.93569
2014    20      6       0.3587306       79.76345
2014    20      7       0.3178851       72.37115
2014    21      0       0.2962052       68.24164
2014    21      1       0.2916297       67.24775
2014    21      2       0.311296        70.62899
2014    21      3       0.2924998       67.31206
2014    21      4       0.2904502       66.86345
2014    21      5       0.2843134       65.66568
2014    21      6       0.2688424       62.83775
2014    21      7       0.256785        60.61782
2014    22      0       0.2574283       60.84115
2014    22      1       0.2575674       61.04704
2014    22      2       0.248813        59.52254
2014    22      3       0.2315003       56.43151
2014    22      4       0.2220214       54.75658
2014    22      5       0.2129841       53.10999
2014    22      6       0.1973113       50.10037
2014    22      7       0.1909789       48.844
2014    23      0       0.1816178       47.07541
2014    23      1       0.1695531       44.64804
2014    23      2       0.1593537       42.45984
2014    23      3       0.1463072       39.68685
2014    23      4       0.1514195       40.68015
2014    23      5       0.1567762       41.76209
2014    23      6       0.1555578       41.54124
2014    23      7       0.1793076       46.34122
2014    24      0       0.243635        58.7909
2014    24      1       0.2406394       57.98707
2014    24      2       0.2191778       53.83974
2014    24      3       0.1820841       46.70939
2014    24      4       0.1497592       40.1618
2014    24      5       0.1334575       36.7473
2014    24      6       0.1236698       34.66907
2014    24      7       0.1184453       33.57331
2014    25      0       0.1582653       42.09433
2014    25      1       0.2624531       62.70184
2014    25      2       0.3908036       85.40346
2014    25      3       0.5776272       113.9078
2014    25      4       0.7417255       135.5529
2014    25      5       0.7792405       140.022
2014    25      6       0.7215571       133.279
2014    25      7       0.6151682       119.9516
2014    26      0       0.5091101       104.9323
2014    26      1       0.4785711       99.678
2014    26      2       0.4420589       93.61709
2014    26      3       0.4758951       98.48466
2014    26      4       0.4808546       98.85272
2014    26      5       0.4020903       86.28319
2014    26      6       0.2639022       62.52553
2014    26      7       0.1913761       48.91333
2014    27      0       0.1778794       46.36538
2014    27      1       0.1791305       46.58959
2014    27      2       0.179945        46.59121
2014    27      3       0.1696684       44.40466
2014    27      4       0.1571615       41.84209
2014    27      5       0.1496294       40.17704
2014    27      6       0.1397557       38.04199
2014    27      7       0.1363821       37.41225
2014    28      0       0.1355058       37.33896
2014    28      1       0.1309312       36.39777
2014    28      2       0.131738        36.55037
2014    28      3       0.1223231       34.53472
2014    28      4       0.1112371       32.12745
2014    28      5       0.1053078       30.86724
2014    28      6       0.09738948      29.16942
2014    28      7       0.1005293       29.89973
2014    29      0       0.1317296       36.67067
2014    29      1       0.1546531       41.44519
2014    29      2       0.1836971       47.369
2014    29      3       0.2717606       64.36848
2014    29      4       0.3107009       71.36295
2014    29      5       0.2642578       62.84575
2014    29      6       0.2527874       60.95238
2014    29      7       0.2912727       68.4473
2014    30      0       0.4076021       88.89906
2014    30      1       0.33783         76.67559
2014    30      2       0.2708105       64.14782
2014    30      3       0.2147078       53.31236
2014    30      4       0.1625494       42.84725
2014    30      5       0.1168231       33.20328
2014    30      6       0.1010591       29.6843
2014    30      7       0.1008871       29.66801
2014    31      0       0.100463        29.62527
2014    31      1       0.100378        29.64374
2014    31      2       0.1027833       30.19152
2014    31      3       0.1044552       30.56019
2014    31      4       0.106937        31.02417
2014    31      5       0.1166679       33.08945
2014    31      6       0.1287962       35.75117
2014    31      7       0.1407884       38.36456
2015    1       0       0.4066938       89.5514
2015    1       1       0.3985185       88.131
2015    1       2       0.4423598       95.08578
2015    1       3       0.5287229       108.2411
2015    1       4       0.5963824       118.204
2015    1       5       0.652281        126.2541
2015    1       6       0.6591695       127.5023
2015    1       7       0.7089862       133.4047
2015    2       0       0.8361233       146.841
2015    2       1       0.8771657       150.864
2015    2       2       0.3855766       84.92229
2015    2       3       0.2492238       59.76755
2015    2       4       0.1901641       48.18486
2015    2       5       0.1278362       35.52754
2015    2       6       0.1263822       35.19528
2015    2       7       0.1314844       36.23038
2015    3       0       0.1469767       39.52466
2015    3       1       0.1611906       42.43886
2015    3       2       0.1731919       44.81606
2015    3       3       0.204088        51.04331
2015    3       4       0.2253729       55.32516
2015    3       5       0.2411157       58.45021
2015    3       6       0.2200075       54.53999
2015    3       7       0.2353911       57.70019
2015    4       0       0.2619815       63.1923
2015    4       1       0.3218743       74.38485
2015    4       2       0.439471        94.61186
2015    4       3       0.3306589       76.97766
2015    4       4       0.6054686       120.3293
2015    4       5       0.5890565       119.1828
2015    4       6       0.6250747       123.5574
2015    4       7       0.518032        108.3437
2015    5       0       0.4556436       98.65607
2015    5       1       0.4947311       104.6893
2015    5       2       0.6636917       127.8364
2015    5       3       0.835292        148.6821
2015    5       4       0.8238645       147.4956
2015    5       5       0.8448068       149.5085
2015    5       6       0.8594564       151.3655
2015    5       7       0.8827924       153.9526
2015    6       0       1.070272        171.5959
2015    6       1       1.268772        187.924
2015    6       2       1.394077        196.8961
2015    6       3       1.212829        184.1084
2015    6       4       0.9572658       161.6575
2015    6       5       1.088528        172.9683
2015    6       6       1.013832        166.0133
2015    6       7       0.7824264       142.2075
2015    7       0       0.5459164       111.4618
2015    7       1       0.4705177       99.95928
2015    7       2       0.4421835       95.40554
2015    7       3       0.4170839       91.14206
2015    7       4       0.428298        93.21776
2015    7       5       0.4113763       90.55865
2015    7       6       0.4438923       95.50113
2015    7       7       0.487154        102.4233
2015    8       0       0.5859114       117.2341
2015    8       1       0.7100593       133.851
2015    8       2       0.807702        145.7373
2015    8       3       0.9523858       161.2959
2015    8       4       1.079787        173.9092
2015    8       5       0.815309        148.1489
2015    8       6       0.7666622       142.986
2015    8       7       0.5189933       108.9301
2015    9       0       0.7129976       135.0596
2015    9       1       0.7937746       145.0945
2015    9       2       0.9443012       161.0288
2015    9       3       0.9740469       163.3903
2015    9       4       0.8831893       154.0955
2015    9       5       0.6031086       121.0522
2015    9       6       0.4790211       102.8576
2015    9       7       0.3835227       86.7513
2015    10      0       0.3118587       73.18444
2015    10      1       0.4300761       93.2067
2015    10      2       0.3634398       81.91258
2015    10      3       0.3375284       77.48876
2015    10      4       0.3158544       73.5001
2015    10      5       0.325333        75.20131
2015    10      6       0.4458031       95.20493
2015    10      7       0.5446273       110.3826
2015    11      0       0.5930932       117.7349
2015    11      1       0.6918137       131.2277
2015    11      2       0.8808569       153.923
2015    11      3       1.156882        180.3462
2015    11      4       1.462708        201.64
2015    11      5       1.535872        206.397
2015    11      6       1.614463        210.9984
2015    11      7       1.326791        194.4155
2015    12      0       1.366708        197.4459
2015    12      1       1.087201        176.377
2015    12      2       1.645653        213.319
2015    12      3       1.23987         188.3946
2015    12      4       1.424014        200.7245
2015    12      5       1.022517        169.128
2015    12      6       0.5187096       108.8932
2015    12      7       1.114601        176.3682
2015    13      0       0.8888696       155.5029
2015    13      1       0.3496731       81.19993
2015    13      2       0.4324303       94.48453
2015    13      3       0.5181612       107.8223
2015    13      4       0.9281949       159.8301
2015    13      5       0.5606262       115.7625
2015    13      6       0.5845839       120.7068
2015    13      7       0.6459388       128.4689
2015    14      0       0.8117158       149.5525
2015    14      1       0.8693809       156.0397
2015    14      2       0.9234293       161.8357
2015    14      3       1.438349        202.4663
2015    14      4       1.618273        212.1956
2015    14      5       1.515664        206.7955
2015    14      6       1.509247        206.1971
2015    14      7       1.876706        224.2344
2015    15      0       1.305702        192.9512
2015    15      1       1.081869        174.1654
2015    15      2       0.6813864       129.8643
2015    15      3       0.44691         95.82229
2015    15      4       0.4587332       96.92605
2015    15      5       0.4584483       96.29072
2015    15      6       0.3140142       72.41745
2015    15      7       0.2716886       64.59349
2015    16      0       0.190819        49.19788
2015    16      1       0.2171665       54.50432
2015    16      2       0.2330625       57.57894
2015    16      3       0.2519414       61.26944
2015    16      4       0.3028486       70.8335
2015    16      5       0.3607825       81.2629
2015    16      6       0.3544755       80.42121
2015    16      7       0.2781042       66.99429
2015    17      0       0.2264366       56.56181
2015    17      1       0.2074063       52.55179
2015    17      2       0.2165742       54.69546
2015    17      3       0.2314163       57.76778
2015    17      4       0.2553593       62.48249
2015    17      5       0.263688        64.08366
2015    17      6       0.2458229       60.68557
2015    17      7       0.2035438       52.33937
2015    18      0       0.1690421       45.31949
2015    18      1       0.1798919       47.76152
2015    18      2       0.21463         55.12346
2015    18      3       0.402509        90.03239
2015    18      4       0.6238513       123.7504
2015    18      5       0.675913        130.4895
2015    18      6       0.5929323       119.0058
2015    18      7       0.5059751       105.4463
2015    19      0       0.5080373       106.5921
2015    19      1       0.5448719       112.0056
2015    19      2       0.7765808       141.5346
2015    19      3       1.064891        170.6798
2015    19      4       0.9825503       163.6427
2015    19      5       0.8357807       148.8751
2015    19      6       0.7583041       139.9202
2015    19      7       0.7468247       138.6254
2015    20      0       0.8590382       150.7988
2015    20      1       1.077452        171.8473
2015    20      2       1.084117        172.1374
2015    20      3       0.8209345       146.7063
2015    20      4       0.574116        116.4563
2015    20      5       0.5125463       107.5051
2015    20      6       0.4770571       101.6846
2015    20      7       0.6223549       122.6294
2015    21      0       0.851885        150.5443
2015    21      1       1.350612        194.1139
2015    21      2       1.596803        209.2189
2015    21      3       1.536163        205.9989
2015    21      4       1.423928        199.1158
2015    21      5       1.338047        193.638
2015    21      6       1.212494        184.8199
2015    21      7       1.000912        167.355
2015    22      0       1.026531        169.1143
2015    22      1       0.9822342       164.6436
2015    22      2       0.8668219       152.7209
2015    22      3       0.8693295       152.4317
2015    22      4       0.838263        148.9378
2015    22      5       0.777575        141.8097
2015    22      6       0.6832253       130.0582
2015    22      7       0.4795238       101.6205
2015    23      0       0.320606        74.83426
2015    23      1       0.3081596       72.655
2015    23      2       0.3001182       71.2508
2015    23      3       0.3005764       71.36758
2015    23      4       0.3850053       86.23004
2015    23      5       0.5093078       105.6952
2015    23      6       0.5652985       113.7324
2015    23      7       0.6616487       126.9992
2015    24      0       0.5960388       118.0369
2015    24      1       0.5158654       106.3234
2015    24      2       0.471283        99.49192
2015    24      3       0.4266631       92.38534
2015    24      4       0.5150438       105.9872
2015    24      5       0.6664631       127.0075
2015    24      6       0.7610144       138.7556
2015    24      7       0.6689626       127.2544
2015    25      0       0.6746775       128.4908
2015    25      1       0.6046207       119.9468
2015    25      2       0.3248011       75.84195
2015    25      3       0.327999        76.36738
2015    25      4       0.3421954       78.51235
2015    25      5       0.3686682       82.77835
2015    25      6       0.4637147       98.06062
2015    25      7       0.7909824       142.036
2015    26      0       1.021154        166.5109
2015    26      1       1.151839        178.3768
2015    26      2       0.9629847       162.8108
2015    26      3       0.8853459       155.6736
2015    26      4       1.434976        200.5606
2015    26      5       1.546685        208.0863
2015    26      6       1.646312        213.2101
2015    26      7       1.547344        208.926
2015    27      0       0.997091        167.2242
2015    27      1       0.8134454       147.3716
2015    27      2       0.9358549       160.524
2015    27      3       1.391782        198.1566
2015    27      4       1.483316        204.6201
2015    27      5       1.673359        215.2228
2015    27      6       1.662105        215.2064
2015    27      7       1.359592        197.6738
2015    28      0       1.740326        218.053
2015    28      1       1.656363        213.6845
2015    28      2       1.585364        208.9316
2015    28      3       1.196208        183.071
2015    28      4       0.9295397       158.4967
2015    28      5       1.031154        167.6872
2015    28      6       0.700099        133.2711
2015    28      7       0.5070832       106.0637
2015    29      0       0.4589992       98.11714
2015    29      1       0.4925177       103.7871
2015    29      2       0.735444        137.3391
2015    29      3       1.333963        193.5845
2015    29      4       0.8422836       151.2974
2015    29      5       0.6718287       130.1642
2015    29      6       1.024114        168.3105
2015    29      7       1.417333        198.324
2015    30      0       0.8027794       144.9039
2015    30      1       0.7052538       133.9406
2015    30      2       0.6676606       128.9591
2015    30      3       0.4791602       102.4743
2015    30      4       0.3609745       82.46298
2015    30      5       0.3219871       74.90336
2015    30      6       0.3010066       70.47766
2015    30      7       0.643086        124.872
2015    31      0       1.541521        207.1908
2015    31      1       1.457142        202.5847
2015    31      2       1.53654         207.2684
2015    31      3       1.711231        216.6674
2015    31      4       1.294379        192.8654
2015    31      5       1.0915          177.0152
2015    31      6       1.491885        205.1698
2015    31      7       1.375355        196.5268
2016    1       0       0.4809999       101.9976
2016    1       1       0.3340834       77.36257
2016    1       2       0.3387704       77.86349
2016    1       3       0.3656736       82.42225
2016    1       4       0.3804694       84.9942
2016    1       5       0.3343034       77.39235
2016    1       6       0.324505        75.75284
2016    1       7       0.3303914       76.8103
2016    2       0       0.2917303       69.67292
2016    2       1       0.3262469       75.64079
2016    2       2       0.3685247       82.53932
2016    2       3       0.4087489       89.40544
2016    2       4       0.4810741       100.8516
2016    2       5       0.6327197       122.1439
2016    2       6       0.8442801       147.4496
2016    2       7       0.92315         156.032
2016    3       0       0.9706058       160.937
2016    3       1       0.9674          161.0862
2016    3       2       0.8262461       147.1199
2016    3       3       0.7802648       141.5194
2016    3       4       0.7492429       137.3924
2016    3       5       1.068707        170.2629
2016    3       6       1.086683        171.7125
2016    3       7       0.9799984       161.6933
2016    4       0       0.7961376       142.9399
2016    4       1       0.6454273       125.2133
2016    4       2       0.4550774       98.20098
2016    4       3       0.4367142       95.2582
2016    4       4       0.6854987       130.8533
2016    4       5       0.7791554       142.244
2016    4       6       0.8844308       154.3555
2016    4       7       0.8268832       147.7206
2016    5       0       1.065423        172.2962
2016    5       1       1.016479        168.9857
2016    5       2       1.030385        170.0999
2016    5       3       0.6521378       128.9655
2016    5       4       0.4196585       93.03452
2016    5       5       0.563847        114.3378
2016    5       6       0.9530704       161.5063
2016    5       7       1.414726        199.1718
2016    6       0       1.015637        167.4825
2016    6       1       0.4573537       99.03448
2016    6       2       0.462245        99.70311
2016    6       3       0.4502297       98.22604
2016    6       4       0.4310214       95.3443
2016    6       5       0.5499576       113.0386
2016    6       6       1.135833        176.8786
2016    6       7       1.344352        192.5356
2016    7       0       1.452572        200.3401
2016    7       1       1.087           174.1418
2016    7       2       0.7297398       137.5225
2016    7       3       0.5116354       107.0694
2016    7       4       0.7220079       135.3247
2016    7       5       0.6285812       123.5896
2016    7       6       0.4601526       99.0819
2016    7       7       0.4725947       100.9299
2016    8       0       0.6575524       126.5472
2016    8       1       0.7136719       134.5201
2016    8       2       0.5797437       116.8564
2016    8       3       0.7938858       143.8185
2016    8       4       0.7849261       142.787
2016    8       5       0.6854062       130.8228
2016    8       6       0.6176001       121.7602
2016    8       7       0.5516526       112.5329
2016    9       0       0.4704895       99.91358
2016    9       1       0.4233081       92.46757
2016    9       2       0.6413041       124.4211
2016    9       3       0.8835962       152.6109
2016    9       4       0.735987        136.3782
2016    9       5       0.6387058       124.2834
2016    9       6       0.598216        118.8885
2016    9       7       0.5325342       109.6438
2016    10      0       0.5530827       113.2142
2016    10      1       0.5364592       110.9587
2016    10      2       0.525946        109.4176
2016    10      3       0.6059977       120.1958
2016    10      4       0.9462739       159.4678
2016    10      5       1.286377        190.3438
2016    10      6       1.559159        208.0285
2016    10      7       0.9078486       157.3927
2016    11      0       0.899912        157.2591
2016    11      1       1.353996        195.681
2016    11      2       1.247013        187.6144
2016    11      3       1.109929        175.8289
2016    11      4       0.9979803       165.0231
2016    11      5       0.749695        138.1785
2016    11      6       0.643211        124.8803
2016    11      7       0.3657341       83.54616
2016    12      0       0.2522854       62.14477
2016    12      1       0.4508941       96.24526
2016    12      2       0.9337863       158.0301
2016    12      3       1.038578        168.5679
2016    12      4       0.9148463       157.6178
2016    12      5       0.9069001       158.2535
2016    12      6       0.889134        156.5912
2016    12      7       0.8535354       152.715
2016    13      0       0.8702206       154.1236
2016    13      1       0.8868711       155.7127
2016    13      2       1.047971        170.1216
2016    13      3       1.193548        182.031
2016    13      4       1.196583        181.9652
2016    13      5       0.9357792       157.9456
2016    13      6       0.6408717       124.5882
2016    13      7       0.4983246       104.5256
2016    14      0       0.2776517       67.27214
2016    14      1       0.169673        45.75645
2016    14      2       0.1250438       35.81139
2016    14      3       0.1389312       38.59766
2016    14      4       0.1539622       41.43188
2016    14      5       0.1525507       41.06878
2016    14      6       0.146163        39.92272
2016    14      7       0.1708571       45.3336
2016    15      0       0.2361982       58.612
2016    15      1       0.3446164       78.86484
2016    15      2       0.4611262       98.36767
2016    15      3       0.5941696       117.756
2016    15      4       0.607132        119.3888
2016    15      5       0.4304727       92.86088
2016    15      6       0.3710517       83.25678
2016    15      7       0.4168461       91.36208
2016    16      0       0.3565213       81.24041
2016    16      1       0.3748036       84.48678
2016    16      2       0.4339815       94.33137
2016    16      3       0.5012812       104.5073
2016    16      4       0.5487704       111.2534
2016    16      5       0.6478429       124.5912
2016    16      6       0.5375397       109.2734
2016    16      7       0.4652091       98.4885
2016    17      0       0.4849434       101.6195
2016    17      1       0.4752725       100.095
2016    17      2       0.386026        85.69783
2016    17      3       0.2881339       68.51754
2016    17      4       0.2979042       70.37408
2016    17      5       0.3766549       83.9749
2016    17      6       0.3526914       79.71397
2016    17      7       0.390746        86.24824
2016    18      0       0.4298505       92.43617
2016    18      1       0.3585004       80.49456
2016    18      2       0.2955443       69.52492
2016    18      3       0.2575543       62.47988
2016    18      4       0.2430477       59.43838
2016    18      5       0.2550771       61.48523
2016    18      6       0.2814107       66.25976
2016    18      7       0.3659983       81.49083
2016    19      0       0.5007543       103.6933
2016    19      1       0.6057          119.5187
2016    19      2       0.6897905       130.9656
2016    19      3       0.6901177       131.2964
2016    19      4       0.7543482       139.1223
2016    19      5       0.8708906       152.0695
2016    19      6       0.8643632       151.8243
2016    19      7       1.021985        168.6792
2016    20      0       1.051445        171.673
2016    20      1       1.206383        183.7999
2016    20      2       1.040453        169.5038
2016    20      3       1.045256        169.5138
2016    20      4       0.9942444       165.4725
2016    20      5       1.030164        168.9457
2016    20      6       1.218761        184.1305
2016    20      7       1.273641        187.8034
2016    21      0       1.184448        181.4518
2016    21      1       1.15936         179.4438
2016    21      2       1.195603        182.0242
2016    21      3       1.261071        186.9002
2016    21      4       1.194356        181.7907
2016    21      5       1.169072        179.9205
2016    21      6       1.110719        174.994
2016    21      7       1.140237        177.003
2016    22      0       1.079822        171.6943
2016    22      1       1.030263        167.3354
2016    22      2       0.9988973       164.5159
2016    22      3       0.9877921       163.3106
2016    22      4       0.9459973       159.5546
2016    22      5       0.8923932       154.3077
2016    22      6       0.8292099       147.5595
2016    22      7       0.9157457       156.3653
2016    23      0       0.8555932       149.8546
2016    23      1       0.8050175       144.3733
2016    23      2       0.7658592       139.8195
2016    23      3       0.764761        139.7477
2016    23      4       0.8003235       143.8812
2016    23      5       0.7711341       140.6566
2016    23      6       0.7301308       136.102
2016    23      7       0.7320648       136.2299
2016    24      0       1.027036        166.7358
2016    24      1       1.177043        179.6174
2016    24      2       1.13622         177.0146
2016    24      3       1.038041        168.6876
2016    24      4       1.028793        167.9664
2016    24      5       0.9948467       164.874
2016    24      6       0.9923893       163.8879
2016    24      7       0.8788064       152.5174
2016    25      0       0.8298446       147.4322
2016    25      1       0.7992816       144.1406
2016    25      2       0.8143378       145.6798
2016    25      3       0.6576547       126.9103
2016    25      4       0.5251046       108.5866
2016    25      5       0.5212934       108.02
2016    25      6       0.5119385       106.805
2016    25      7       0.5324568       109.7071
2016    26      0       0.6612627       127.2346
2016    26      1       0.6503581       126.5663
2016    26      2       0.590929        118.7646
2016    26      3       0.5649644       115.0226
2016    26      4       0.6189194       122.4653
2016    26      5       0.6564527       127.3761
2016    26      6       0.6012666       120.1788
2016    26      7       0.5800759       116.917
2016    27      0       0.4472793       96.94061
2016    27      1       0.4877004       105.5778
2016    27      2       0.4409135       98.05185
2016    27      3       0.5151932       109.7059
2016    27      4       0.5314619       112.3889
2016    27      5       0.6071834       122.714
2016    27      6       0.669415        130.3396
2016    27      7       0.7505411       140.5032
2016    28      0       0.8060177       146.7133
2016    28      1       0.9472631       161.1741
2016    28      2       0.96308         162.7016
2016    28      3       0.941369        160.7388
2016    28      4       0.9394044       160.6998
2016    28      5       0.6842125       132.2185
2016    28      6       0.4433533       96.87456
2016    28      7       0.4914862       103.1951
2016    29      0       0.5812714       117.3383
2016    29      1       0.6491606       127.2512
2016    29      2       0.8153021       147.7358
2016    29      3       0.9833175       165.9332
2016    29      4       1.199204        185.3274
2016    29      5       1.468315        204.1819
2016    29      6       1.534626        209.0766
2016    29      7       1.589373        212.6342
2016    30      0       1.395783        201.6323
2016    30      1       1.121281        181.3323
2016    30      2       1.22363         189.0481
2016    30      3       1.498212        207.8987
2016    30      4       1.417266        201.2467
2016    30      5       1.104826        177.2768
2016    30      6       1.100017        175.7738
2016    30      7       1.231336        186.4396
2016    31      0       0.9423037       161.1167
2016    31      1       0.8634033       152.79
2016    31      2       0.9100436       157.6344
2016    31      3       0.9608122       163.3826
2016    31      4       1.054251        172.8775
2016    31      5       1.131094        179.8587
2016    31      6       1.171369        183.5031
2016    31      7       1.237723        189.1224
2017    1       0       0.405371        86.78328
2017    1       1       0.4237981       89.8363
2017    1       2       0.4586477       95.36544
2017    1       3       0.4865492       99.72216
2017    1       4       0.4764776       97.91119
2017    1       5       0.4440955       92.71595
2017    1       6       0.4035512       86.31152
2017    1       7       0.37133         81.11574
2017    2       0       0.3087814       70.72926
2017    2       1       0.2852775       66.69021
2017    2       2       0.3593537       79.6084
2017    2       3       0.6503699       123.1007
2017    2       4       0.5794673       113.9501
2017    2       5       0.5838779       115.0971
2017    2       6       0.7499513       137.1165
2017    2       7       0.9448682       158.8015
2017    3       0       0.8075557       144.4973
2017    3       1       0.8478075       149.7799
2017    3       2       1.023476        167.9033
2017    3       3       0.8587679       152.0515
2017    3       4       1.014082        166.4074
2017    3       5       0.7870689       141.2307
2017    3       6       0.4822676       100.2205
2017    3       7       0.3851018       84.64952
2017    4       0       0.3729029       82.75652
2017    4       1       0.375319        83.06199
2017    4       2       0.3651583       81.03766
2017    4       3       0.3650387       80.75079
2017    4       4       0.403101        86.9051
2017    4       5       0.4899033       100.3076
2017    4       6       0.5325531       106.7226
2017    4       7       0.5644081       111.2674
2017    5       0       0.5452329       108.4217
2017    5       1       0.530574        106.152
2017    5       2       0.4689671       97.16554
2017    5       3       0.3757202       82.59278
2017    5       4       0.3094924       71.21297
2017    5       5       0.2972858       68.86055
2017    5       6       0.2485866       60.04378
2017    5       7       0.2319408       56.90342
2017    6       0       0.221446        54.89861
2017    6       1       0.2188407       54.35218
2017    6       2       0.2099875       52.37802
2017    6       3       0.197876        49.82697
2017    6       4       0.1965628       49.53174
2017    6       5       0.1989796       49.92815
2017    6       6       0.2117932       52.31043
2017    6       7       0.315079        71.63741
2017    7       0       0.4025377       86.57833
2017    7       1       0.4615867       95.95508
2017    7       2       0.4789237       98.60418
2017    7       3       0.3579809       79.10705
2017    7       4       0.282769        65.81966
2017    7       5       0.2820343       65.61238
2017    7       6       0.2862001       66.3939
2017    7       7       0.2759047       64.59429
2017    8       0       0.2798625       65.25874
2017    8       1       0.2881018       66.81023
2017    8       2       0.2924736       67.64555
2017    8       3       0.2719901       64.06911
2017    8       4       0.2565945       61.20513
2017    8       5       0.2705125       63.74504
2017    8       6       0.2652447       62.74528
2017    8       7       0.2444265       59.11976
2017    9       0       0.2425654       58.70843
2017    9       1       0.2500659       59.74542
2017    9       2       0.2551261       60.5517
2017    9       3       0.2623373       61.6954
2017    9       4       0.3011407       68.50428
2017    9       5       0.2903958       66.50537
2017    9       6       0.2639557       61.82807
2017    9       7       0.2551536       60.40976
2017    10      0       0.2609452       61.62398
2017    10      1       0.2665532       62.6834
2017    10      2       0.2474154       59.06347
2017    10      3       0.2532402       60.02505
2017    10      4       0.3177527       71.7176
2017    10      5       0.4038974       86.28311
2017    10      6       0.4788443       98.02116
2017    10      7       0.5406549       107.1485
2017    11      0       0.5401621       107.5115
2017    11      1       0.5001758       102.2787
2017    11      2       0.4525897       95.14011
2017    11      3       0.3532857       78.52601
2017    11      4       0.3783109       82.65877
2017    11      5       0.420856        89.55615
2017    11      6       0.4569993       95.65283
2017    11      7       0.4717717       98.41741
2017    12      0       0.5858679       115.324
2017    12      1       0.7200084       133.2416
2017    12      2       0.7852875       141.3588
2017    12      3       0.7888154       142.0067
2017    12      4       0.8462484       148.9404
2017    12      5       0.8878209       153.4931
2017    12      6       0.8139496       146.2945
2017    12      7       0.8230814       147.0247
2017    13      0       0.7433427       137.1823
2017    13      1       0.9012922       154.511
2017    13      2       1.072253        172.4094
2017    13      3       1.332348        193.4518
2017    13      4       1.101299        176.7102
2017    13      5       0.8487074       151.2607
2017    13      6       0.8022825       146.2799
2017    13      7       0.982506        165.4471
2017    14      0       1.16498         181.2964
2017    14      1       0.861196        153.084
2017    14      2       0.7655264       141.7753
2017    14      3       0.5733265       116.4519
2017    14      4       0.6948684       132.6106
2017    14      5       0.7900741       144.7532
2017    14      6       0.9755113       164.2528
2017    14      7       1.414189        198.0682
2017    15      0       1.474802        202.7457
2017    15      1       1.167562        183.4414
2017    15      2       1.081485        175.7698
2017    15      3       1.117017        178.5703
2017    15      4       0.4726531       100.8013
2017    15      5       0.3176227       74.48867
2017    15      6       0.3142678       73.46915
2017    15      7       0.3108602       72.68267
2017    16      0       0.4708091       99.61477
2017    16      1       0.4463651       96.01607
2017    16      2       0.4094725       89.63575
2017    16      3       0.3133988       72.88772
2017    16      4       0.3077362       71.94322
2017    16      5       0.407251        89.27588
2017    16      6       0.7541541       137.9112
2017    16      7       0.9209537       155.8648
2017    17      0       0.3982368       86.9041
2017    17      1       0.357353        80.64239
2017    17      2       0.4191433       90.56638
2017    17      3       0.5834496       114.8813
2017    17      4       0.487115        101.6691
2017    17      5       0.4656806       98.33965
2017    17      6       0.6444658       123.7262
2017    17      7       0.4733134       99.7402
2017    18      0       0.4994423       104.7773
2017    18      1       0.5201149       108.1152
2017    18      2       0.4049576       89.4428
2017    18      3       0.4798733       100.9046
2017    18      4       0.8145954       145.0192
2017    18      5       0.9978029       164.7782
2017    18      6       0.9624308       162.1673
2017    18      7       1.021557        168.0784
2017    19      0       1.201625        182.0787
2017    19      1       0.3662061       81.91072
2017    19      2       0.1982047       50.64961
2017    19      3       0.2327086       57.21616
2017    19      4       0.3661743       81.06635
2017    19      5       0.5468656       109.4872
2017    19      6       0.5330475       107.5195
2017    19      7       0.4918923       100.7927
2017    20      0       0.3073495       70.53793
2017    20      1       0.3371294       75.50862
2017    20      2       0.3217694       72.8404
2017    20      3       0.291023        67.7784
2017    20      4       0.2350901       57.82754
2017    20      5       0.1983576       50.73961
2017    20      6       0.1576915       42.41653
2017    20      7       0.1422716       38.99141
2017    21      0       0.1627975       43.24359
2017    21      1       0.1716115       45.30298
2017    21      2       0.185677        48.19358
2017    21      3       0.2046504       52.01731
2017    21      4       0.2536362       61.18638
2017    21      5       0.4501308       96.19886
2017    21      6       0.5000788       104.8016
2017    21      7       0.4067448       91.01144
2017    22      0       0.4491894       98.18382
2017    22      1       0.9240296       159.5721
2017    22      2       1.346745        195.5679
2017    22      3       1.598307        210.6352
2017    22      4       1.622751        211.7196
2017    22      5       1.466955        202.2808
2017    22      6       1.094653        176.027
2017    22      7       0.847521        152.336
2017    23      0       0.71875         136.4283
2017    23      1       0.9507191       161.5587
2017    23      2       1.036297        169.5661
2017    23      3       1.289737        189.8008
2017    23      4       1.228226        185.354
2017    23      5       1.051908        169.7143
2017    23      6       0.5313655       108.1181
2017    23      7       0.4797094       101.3017
2017    24      0       0.552051        111.7189
2017    24      1       0.3936477       87.0357
2017    24      2       0.3783775       84.53391
2017    24      3       0.444088        95.49504
2017    24      4       0.7105414       133.9083
2017    24      5       0.7935162       143.0238
2017    24      6       0.9256188       156.4821
2017    24      7       0.9697426       160.9417
2017    25      0       0.862481        151.1128
2017    25      1       0.9142316       156.5621
2017    25      2       0.8874681       154.1091
2017    25      3       0.7455795       138.6123
2017    25      4       0.5842376       117.4342
2017    25      5       0.6450822       125.2758
2017    25      6       0.875115        152.9922
2017    25      7       0.9816083       163.4791
2017    26      0       0.7151739       134.8746
2017    26      1       0.6075913       119.3408
2017    26      2       0.3506631       79.61463
2017    26      3       0.3649931       82.27405
2017    26      4       0.374906        83.86682
2017    26      5       0.2962856       70.16426
2017    26      6       0.3428081       78.00189
2017    26      7       0.5501768       111.5815
2017    27      0       0.6312444       123.5286
2017    27      1       0.707412        133.2148
2017    27      2       0.8700665       151.6794
2017    27      3       1.008896        165.3894
2017    27      4       1.061664        170.1452
2017    27      5       0.9752461       162.4252
2017    27      6       0.8205914       146.629
2017    27      7       0.9308974       158.7343
2017    28      0       0.8898326       154.094
2017    28      1       0.6946918       131.4492
2017    28      2       0.6072871       119.8546
2017    28      3       0.5508266       112.1709
2017    28      4       0.6985754       132.0592
2017    28      5       0.9450534       159.4725
2017    28      6       0.9447222       159.5736
2017    28      7       1.241029        185.0022
2017    29      0       1.135194        176.6368
2017    29      1       0.9818166       163.7001
2017    29      2       1.075524        171.6162
2017    29      3       0.7141624       134.4906
2017    29      4       0.683753        130.7407
2017    29      5       0.6604111       127.8586
2017    29      6       0.8081318       145.9031
2017    29      7       0.9832345       164.516
2017    30      0       0.7864447       144.1061
2017    30      1       0.8456628       149.9801
2017    30      2       0.9518898       160.4999
2017    30      3       0.9327813       158.6159
2017    30      4       0.9267265       157.8531
2017    30      5       1.03437         167.7856
2017    30      6       1.012748        165.9606
2017    30      7       1.118843        175.1138
2017    31      0       1.095101        173.4627
2017    31      1       0.7181714       135.6504
2017    31      2       0.6144436       122.5028
2017    31      3       0.4733721       101.5346
2017    31      4       0.5217506       107.9434
2017    31      5       0.9258012       158.0703
2017    31      6       1.155753        180.228
2017    31      7       1.166676        183.2843
2018    1       0       0.2024392       51.09208
2018    1       1       0.2292865       56.12161
2018    1       2       0.3668116       81.18149
2018    1       3       0.6749648       126.6486
2018    1       4       0.7467903       135.6326
2018    1       5       0.7129294       131.5938
2018    1       6       0.6359869       121.5709
2018    1       7       0.5274701       106.3689
2018    2       0       0.5585496       110.6441
2018    2       1       0.6283679       120.2753
2018    2       2       0.7302696       133.4692
2018    2       3       0.7212106       132.4311
2018    2       4       0.8389166       146.449
2018    2       5       0.8554748       148.5046
2018    2       6       0.8807075       151.4735
2018    2       7       0.9114479       154.7043
2018    3       0       0.8991867       153.6655
2018    3       1       0.85735         149.221
2018    3       2       0.824949        145.5421
2018    3       3       0.7694986       139.3555
2018    3       4       0.7286337       134.797
2018    3       5       0.7268407       134.8513
2018    3       6       0.7413734       136.469
2018    3       7       0.8065026       144.265
2018    4       0       0.700107        130.623
2018    4       1       0.543752        109.3037
2018    4       2       0.5195192       105.5421
2018    4       3       0.502044        103.2023
2018    4       4       0.4533765       95.86061
2018    4       5       0.4654401       97.46502
2018    4       6       0.4823739       100.2781
2018    4       7       0.4874556       101.0827
2018    5       0       0.4364183       93.24835
2018    5       1       0.4171888       90.32272
2018    5       2       0.3688126       82.48329
2018    5       3       0.3287655       75.68583
2018    5       4       0.2966145       70.05202
2018    5       5       0.3139815       73.20815
2018    5       6       0.3361114       77.0745
2018    5       7       0.3822402       84.63169
2018    6       0       0.5094057       104.0663
2018    6       1       0.4712838       97.8376
2018    6       2       0.3623025       80.12352
2018    6       3       0.2943521       67.98979
2018    6       4       0.2761807       64.45922
2018    6       5       0.2984354       68.30587
2018    6       6       0.2900466       66.9011
2018    6       7       0.3029291       69.54953
2018    7       0       0.2388394       58.26405
2018    7       1       0.1743305       45.71438
2018    7       2       0.1685227       44.35827
2018    7       3       0.2084321       52.03995
2018    7       4       0.2789821       65.45508
2018    7       5       0.3083309       70.9413
2018    7       6       0.2875656       67.08538
2018    7       7       0.2732028       64.61277
2018    8       0       0.2592341       62.80917
2018    8       1       0.2227881       56.14926
2018    8       2       0.2441526       60.00746
2018    8       3       0.2932832       69.31922
2018    8       4       0.3284893       75.69514
2018    8       5       0.377646        84.29702
2018    8       6       0.3820825       84.81027
2018    8       7       0.3626948       81.05791
2018    9       0       0.5700988       113.8983
2018    9       1       0.7480164       137.6374
2018    9       2       0.898017        154.792
2018    9       3       0.9589785       161.3246
2018    9       4       0.8410904       148.9116
2018    9       5       0.7705775       140.0085
2018    9       6       0.359297        82.02926
2018    9       7       0.2748177       66.41582
2018    10      0       0.3911041       86.48537
2018    10      1       0.7125501       133.5313
2018    10      2       0.8565118       151.0482
2018    10      3       0.9747896       162.8789
2018    10      4       1.024481        167.4126
2018    10      5       1.000295        164.9943
2018    10      6       0.8860889       154.4086
2018    10      7       0.8988475       155.8794
2018    11      0       0.830463        149.2362
2018    11      1       0.7368325       138.9584
2018    11      2       0.6885279       132.9229
2018    11      3       0.5876383       119.2346
2018    11      4       0.5060614       106.8662
2018    11      5       0.5549149       113.9903
2018    11      6       0.533646        111.2841
2018    11      7       0.4070212       91.798
2018    12      0       0.3798068       87.05958
2018    12      1       0.386657        87.97565
2018    12      2       0.4138565       91.86869
2018    12      3       0.4921399       104.2277
2018    12      4       0.4639512       100.1511
2018    12      5       0.3747441       85.35935
2018    12      6       0.3245764       76.17747
2018    12      7       0.3412425       79.40309
2018    13      0       0.395345        89.61472
2018    13      1       0.3846664       87.81436
2018    13      2       0.3158814       75.33443
2018    13      3       0.2915658       70.95989
2018    13      4       0.3003228       72.72794
2018    13      5       0.3085093       74.16148
2018    13      6       0.3098798       74.33671
2018    13      7       0.2938343       71.07062
2018    14      0       0.2617963       64.79019
2018    14      1       0.2344248       59.59941
2018    14      2       0.2418057       61.38058
2018    14      3       0.2725989       67.83636
2018    14      4       0.265859        66.65926
2018    14      5       0.2748179       68.0513
2018    14      6       0.3400997       79.69573
2018    14      7       0.3653341       84.01108
2018    15      0       0.4112109       92.43459
2018    15      1       0.4159622       92.64606
2018    15      2       0.4618648       100.297
2018    15      3       0.7494389       140.6431
2018    15      4       0.8163825       148.5169
2018    15      5       0.7543471       141.5229
2018    15      6       0.7544159       141.584
2018    15      7       0.8058508       147.3561
2018    16      0       0.8268299       149.5926
2018    16      1       0.8923872       156.3588
2018    16      2       0.9771822       164.9221
2018    16      3       1.035409        170.517
2018    16      4       1.108615        177.6805
2018    16      5       1.184996        184.2278
2018    16      6       0.9600159       164.8288
2018    16      7       0.6608905       130.3173
2018    17      0       0.5812541       119.5358
2018    17      1       0.9878616       168.2165
2018    17      2       0.6720389       131.5276
2018    17      3       0.6982811       134.2396
2018    17      4       0.6938303       133.7025
2018    17      5       0.6807864       132.8442
2018    17      6       0.6842818       132.4909
2018    17      7       0.6852717       131.6603
2018    18      0       0.6820438       131.6036
2018    18      1       0.6847593       132.1792
2018    18      2       0.7380527       138.2537
2018    18      3       0.8486435       150.1716
2018    18      4       0.835678        148.6489
2018    18      5       0.7320331       136.712
2018    18      6       0.6191272       122.2894
2018    18      7       0.5258895       109.3924
2018    19      0       0.494322        104.9464
2018    19      1       0.4832205       103.3572
2018    19      2       0.5195079       108.6095
2018    19      3       0.6381035       125.3126
2018    19      4       0.7581872       140.5696
2018    19      5       0.830488        148.4002
2018    19      6       0.8954592       155.0219
2018    19      7       0.9596605       161.0092
2018    20      0       0.952971        160.6158
2018    20      1       1.002118        164.8028
2018    20      2       0.8680057       151.2141
2018    20      3       0.8622122       150.4674
2018    20      4       0.8314946       146.9659
2018    20      5       0.7532986       137.7854
2018    20      6       0.8142147       144.7541
2018    20      7       0.925905        156.9454
2018    21      0       0.8935931       154.0176
2018    21      1       0.731611        136.0208
2018    21      2       0.5305537       109.3516
2018    21      3       0.4716238       100.5041
2018    21      4       0.4686762       99.99902
2018    21      5       0.5035068       105.2176
2018    21      6       0.5137501       106.8345
2018    21      7       0.5066776       105.9945
2018    22      0       0.473265        101.0776
2018    22      1       0.5493862       111.8455
2018    22      2       0.6327408       122.893
2018    22      3       0.7165524       133.7525
2018    22      4       0.7359874       136.2441
2018    22      5       0.7339101       136.1191
2018    22      6       0.8144742       146.2013
2018    22      7       0.9235528       158.8521
2018    23      0       1.322767        192.527
2018    23      1       1.48433         203.8085
2018    23      2       1.633077        212.2918
2018    23      3       1.651854        212.6351
2018    23      4       1.610415        209.8835
2018    23      5       1.320783        192.4393
2018    23      6       1.01243         166.0718
2018    23      7       0.5882072       116.3669
2018    24      0       0.3100303       72.52538
2018    24      1       0.4629303       98.74736
2018    24      2       0.5394105       110.1742
2018    24      3       0.5861258       116.1695
2018    24      4       0.6687302       126.5423
2018    24      5       0.7239483       132.9434
2018    24      6       0.5330809       107.1228
2018    24      7       0.5097541       103.7294
2018    25      0       0.6105198       118.0795
2018    25      1       0.6657558       125.9068
2018    25      2       0.6841986       128.4626
2018    25      3       0.6696761       126.3266
2018    25      4       0.6241377       119.8879
2018    25      5       0.5471531       109.0834
2018    25      6       0.5768378       113.5777
2018    25      7       0.6674042       126.0869
2018    26      0       0.7514595       136.4273
2018    26      1       0.7775776       139.9354
2018    26      2       0.8689793       150.5209
2018    26      3       0.6684833       127.2092
2018    26      4       0.4638019       97.97862
2018    26      5       0.6205205       120.2976
2018    26      6       0.6475134       123.5372
2018    26      7       0.5802328       114.5464
2018    27      0       0.6870924       128.761
2018    27      1       0.993218        162.4151
2018    27      2       1.215314        182.0797
2018    27      3       1.369187        194.2711
2018    27      4       1.195247        182.3488
2018    27      5       0.9433274       160.0118
2018    27      6       0.7944026       143.4826
2018    27      7       0.6438625       123.8815
2018    28      0       0.6605842       125.5396
2018    28      1       0.7136068       132.2299
2018    28      2       0.8431989       147.8092
2018    28      3       0.8189322       145.0398
2018    28      4       0.7139296       132.205
2018    28      5       0.6182255       119.7954
2018    28      6       0.6599763       125.5764
2018    28      7       0.7909285       141.4949
2018    29      0       0.7396671       135.4244
2018    29      1       0.7370818       135.169
2018    29      2       0.6613708       125.667
2018    29      3       0.5577161       111.3569
2018    29      4       0.4799707       99.64879
2018    29      5       0.4565833       96.15758
2018    29      6       0.4735777       98.89979
2018    29      7       0.5308996       107.5522
2018    30      0       0.5373329       108.352
2018    30      1       0.531104        107.1106
2018    30      2       0.5268463       106.365
2018    30      3       0.5627537       111.0063
2018    30      4       0.4483717       93.72834
2018    30      5       0.3071454       70.01622
2018    30      6       0.1502315       40.18531
2018    30      7       0.1519449       40.7183
2018    31      0       0.219578        54.06145
2018    31      1       0.2998906       69.05537
2018    31      2       0.2844658       66.3245
2018    31      3       0.2635313       62.60105
2018    31      4       0.2561602       61.27766
2018    31      5       0.2522517       60.63088
2018    31      6       0.2392227       58.27292
2018    31      7       0.2256442       55.72828
