####################################################################################################
# Month: 08Aug                                                                                     #
# Station: NZ                                                                                      #
# Frequency: 230 GHz                                                                               #
# Columns are: year    day     tau     Tb (K)                                                      #
####################################################################################################
2009    1       0.37432484      84.063905
2009    2       0.279727        65.94224125
2009    3       0.39324211      88.0286275
2009    4       0.35040686      79.20836375
2009    5       0.1743149       44.5202425
2009    6       0.25031891      61.682315
2009    7       0.11442156      32.67522375
2009    8       0.10525099      30.238695
2009    9       0.07930913      24.280675
2009    10      0.16913012      43.73596625
2009    11      0.5340684       111.0994425
2009    12      0.5461754       113.95785
2009    13      0.5384552       112.54199625
2009    14      0.42497468      94.93717875
2009    15      0.65041176      130.13425
2009    16      0.42980304      95.36454875
2009    17      0.41189161      89.9316625
2009    18      0.28111418      65.4642375
2009    19      0.18172804      48.0538425
2009    20      0.14878876      40.7002
2009    21      0.11616407      33.037665
2009    22      0.32827155      75.17391375
2009    23      0.48810815      104.731625
2009    24      0.3781539       87.51600875
2009    25      0.49786186      106.4419975
2009    26      0.38739999      87.96690125
2009    27      0.32165838      74.819195
2009    28      0.31066736      73.3927775
2009    29      0.35398324      81.993115
2009    30      0.49414465      102.993355
2009    31      0.35006414      80.4125425
2010    1       0.42438186      94.5207025
2010    2       0.27417158      64.07450625
2010    3       0.18577155      47.481245
2010    4       0.29450988      69.36765125
2010    5       0.14763253      39.87429625
2010    6       0.39064604      86.059035
2010    7       0.47297054      100.35819625
2010    8       0.23009882      55.25641625
2010    9       0.06433507      20.50008125
2010    10      0.13623239      36.8153025
2010    11      0.1453227       37.23992375
2010    12      0.52194516      110.602695
2010    13      0.68860276      132.4497975
2010    14      0.27288532      66.1483425
2010    15      0.23890838      60.26575125
2010    16      0.4228243       93.18428625
2010    17      0.44537998      96.57464875
2010    18      0.33217027      75.85492875
2010    19      0.17337105      45.514675
2010    20      0.16469315      43.61278
2010    21      0.31934171      74.37102
2010    22      0.37117224      83.23300875
2010    23      0.26503154      62.77674875
2010    24      0.14946404      40.37344875
2010    25      0.30188313      69.4860875
2010    26      0.28849018      68.78659
2010    27      0.45953361      98.90079625
2010    28      0.39796201      87.7435425
2010    29      0.40821544      90.19718875
2010    30      0.34150858      78.53736875
2010    31      0.22912385      56.98545875
2011    1       0.293252        70.46586625
2011    2       0.25299185      62.809705
2011    3       0.1867606       48.7668675
2011    4       0.33941296      76.27207375
2011    5       0.36552476      83.48011125
2011    6       0.28294196      67.42342875
2011    7       0.19040678      48.82720625
2011    8       0.11213241      31.84018875
2011    9       0.06135654      19.9739075
2011    10      0.06197859      20.093725
2011    11      0.08751669      26.17309625
2011    12      0.15555871      41.97225625
2011    13      0.26666508      64.14219
2011    14      0.26832778      62.9716025
2011    15      0.35297226      78.6381925
2011    16      0.21299358      52.37660375
2011    17      0.15173969      40.92429125
2011    18      0.09420134      27.95808125
2011    19      0.07332372      22.59904625
2011    20      0.23190918      56.10062625
2011    21      0.19722699      51.25424
2011    22      0.25444646      62.83410125
2011    23      0.16055669      43.03733375
2011    24      0.23192889      56.715605
2011    25      0.18657365      47.74024
2011    26      0.34148319      80.11002875
2011    27      0.25805862      61.47825
2011    28      0.21776464      55.035135
2011    29      0.37859234      86.49335625
2011    30      0.31651586      72.51746875
2011    31      0.297611        69.61889125
2012    1       0.16202591      43.45752
2012    2       0.28038851      66.84068
2012    3       0.3913818       88.03223
2012    4       0.4354014       95.1708075
2012    5       0.49290848      104.7955425
2012    6       0.26510789      64.33041125
2012    7       0.54952808      113.0808875
2012    8       0.38106234      85.5302825
2012    9       0.3134399       74.22372625
2012    10      0.30034999      71.4111525
2012    11      0.4208163       91.86705875
2012    12      0.55929784      114.3068625
2012    13      0.35066754      80.20695625
2012    14      0.46669196      100.09499875
2012    15      0.34350174      78.98690125
2012    16      0.32842539      76.4940675
2012    17      0.2684264       64.92010875
2012    18      0.13109273      35.9808475
2012    19      0.55539911      113.35733125
2012    20      0.43146509      93.95417
2012    21      0.33030824      75.571
2012    22      0.07924869      24.273695
2012    23      0.1334151       36.65600125
2012    24      0.31258619      73.7645125
2012    25      0.43512222      95.97621375
2012    26      0.4289458       94.06044125
2012    27      0.27188317      64.2705125
2012    28      0.25699721      62.24630375
2012    29      0.24995942      61.7369125
2012    30      0.18165606      47.835955
2012    31      0.22932641      57.16546875
2013    1       0.23876186      58.28928875
2013    2       0.47896656      101.1172425
2013    3       0.48910316      104.763665
2013    4       0.51186246      108.53614875
2013    5       0.30963914      72.992235
2013    6       0.28404054      66.38238875
2013    7       0.32193175      75.26298125
2013    8       0.35837881      81.44647875
2013    9       0.51321881      108.57090875
2013    10      0.23666932      59.2498125
2013    11      0.54883133      111.989995
2013    12      0.40467124      87.33989125
2013    13      0.46632304      100.75340125
2013    14      0.52007886      108.65261
2013    15      0.55699191      115.70442375
2013    16      0.40108254      89.6950875
2013    17      0.5129496       108.47685875
2013    18      0.50929808      106.40224
2013    19      0.48646901      103.5727025
2013    20      0.39726661      88.861275
2013    21      0.50543576      107.21985125
2013    22      0.41297971      92.13616625
2013    23      0.17316439      43.82293875
2013    24      0.46092302      99.70046125
2013    25      0.41877772      92.00118125
2013    26      0.21570641      53.90529125
2013    27      0.25268701      61.757585
2013    28      0.28798103      67.11580125
2013    29      0.11172785      31.9413525
2013    30      0.09290657      27.4553675
2013    31      0.0824224       24.92241
2014    1       0.37399635      86.39388375
2014    2       0.49528615      104.872215
2014    3       0.20354866      51.29242125
2014    4       0.16190893      43.076305
2014    5       0.29120655      67.47788375
2014    6       0.20579682      52.37631
2014    7       0.25566526      61.85454625
2014    8       0.15170826      39.9468425
2014    9       0.24133224      59.53071375
2014    10      0.28532884      68.54638125
2014    11      0.3358678       76.01703875
2014    12      0.21819108      53.89438625
2014    13      0.29235984      67.41155125
2014    14      0.20883917      51.94955
2014    15      0.26638751      64.59234625
2014    16      0.1098316       31.50675125
2014    17      0.15520931      41.567825
2014    18      0.12737665      35.3764025
2014    19      0.25163246      60.93889625
2014    20      0.19499738      50.0819675
2014    21      0.15759869      41.90909
2014    22      0.30755465      72.81103125
2014    23      0.15691781      42.26732
2014    24      0.15869181      42.98096375
2014    25      0.1304337       36.362665
2014    26      0.10910104      31.25335875
2014    27      0.12077492      34.00516375
2014    28      0.08661137      26.173905
2014    29      0.08847575      26.27195
2014    30      0.11764539      33.4097275
2014    31      0.09275954      27.559105
2015    1       0.27048717      64.93518
2015    2       0.58295261      119.22105375
2015    3       0.45996129      101.13846
2015    4       0.20460001      49.99633125
2015    5       0.1320035       36.653815
2015    6       0.3115738       72.49193625
2015    7       0.34764322      76.96675
2015    8       0.16769501      43.30585375
2015    9       0.2082674       52.03054625
2015    10      0.13094968      35.72884375
2015    11      0.15472851      41.10924125
2015    12      0.23835084      57.46290875
2015    13      0.43697592      95.796765
2015    14      0.4916677       104.35028875
2015    15      0.46990676      100.5992
2015    16      0.2238618       56.06573125
2015    17      0.22388494      56.64106625
2015    18      0.26782262      64.5649625
2015    19      0.19735146      49.69540375
2015    20      0.12130984      34.47759875
2015    21      0.11458559      32.88078625
2015    22      0.08471898      25.776715
2015    23      0.16617124      42.04513125
2015    24      0.38897821      87.49808
2015    25      0.15881117      41.807105
2015    26      0.13302563      36.8968
2015    27      0.11873019      33.68045125
2015    28      0.55045549      113.1590775
2015    29      0.51902986      109.98189
2015    30      0.26060391      63.72584625
2015    31      0.2345405       56.501925
2016    1       0.21332051      52.09121375
2016    2       0.36170878      79.0845225
2016    3       0.45820505      98.60912
2016    4       0.26092925      62.63051625
2016    5       0.2463214       59.39965125
2016    6       0.05538665      18.25861875
2016    7       0.08209573      24.422195
2016    8       0.10406073      29.53991625
2016    9       0.05777649      18.9091425
2016    10      0.04812459      16.5467275
2016    11      0.12655059      33.1322825
2016    12      0.58809856      117.75278
2016    13      0.21999076      55.1968275
2016    14      0.37994475      85.39665375
2016    15      0.21302036      53.3076425
2016    16      0.12482354      34.65419875
2016    17      0.15556889      41.9838075
2016    18      0.1739834       45.78541125
2016    19      0.15903775      42.273165
2016    20      0.27425025      66.9319075
2016    21      0.31199341      73.61992
2016    22      0.2223431       55.592725
2016    23      0.32530607      75.91162125
2016    24      0.39638434      88.8313775
2016    25      0.31138525      73.33180875
2016    26      0.46729191      99.5876475
2016    27      0.16452624      43.650015
2016    28      0.32436001      75.52665625
2016    29      0.27023024      65.48433625
2016    30      0.15402791      41.254715
2016    31      0.13426357      37.00946125
2017    1       0.11338671      32.25644875
2017    2       0.06847659      21.6550975
2017    3       0.06466609      20.4319025
2017    4       0.056302        18.651105
2017    5       0.33176249      74.05185875
2017    6       0.30455895      71.59116125
2017    7       0.27386425      66.79237625
2017    8       0.42709231      93.3421225
2017    9       0.33210914      76.957585
2017    10      0.35795049      81.83820875
2017    11      0.29378463      69.9359625
2017    12      0.28149805      67.48523125
2017    13      0.51208375      106.18611
2017    14      0.35713541      80.97597375
2017    15      0.23842826      57.41218625
2017    16      0.35624078      81.34902125
2017    17      0.33010775      77.71085125
2017    18      0.40378616      89.9804525
2017    19      0.3675477       83.82178875
2017    20      0.34500658      79.36074125
2017    21      0.18008179      46.49889875
2017    22      0.23880651      59.29062
2017    23      0.2406563       59.90570875
2017    24      0.30960535      73.41681875
2017    25      0.1797427       46.07871125
2017    26      0.2416122       60.07661125
2017    27      0.31669841      73.1513775
2017    28      0.29025968      67.27664625
2017    29      0.25271442      61.90982375
2017    30      0.25108733      61.80472
2017    31      0.28508747      67.99477375
2018    1       0.4047215       89.8636925
2018    2       0.40209141      88.83532375
2018    3       0.32082636      73.3939975
2018    4       0.17766798      46.382875
2018    5       0.2290938       57.37026375
2018    6       0.25106411      61.83734125
2018    7       0.38526869      86.15416125
2018    8       0.46247759      96.3693425
2018    9       0.36370757      81.791655
2018    10      0.17042667      45.13844
2018    11      0.11001213      31.82591625
2018    12      0.12124141      34.35002875
2018    13      0.34641808      80.18445375
2018    14      0.44599079      94.616735
2018    15      0.202889        51.78701125
2018    16      0.39893659      88.8792
2018    17      0.33195466      74.04618125
2018    18      0.05592918      18.4997575
2018    19      0.15572777      38.86270625
2018    20      0.48423705      102.81144625
2018    21      0.4101232       89.6997375
2018    22      0.24381893      60.2379875
2018    23      0.27213581      65.09653625
2018    24      0.3340844       76.6620575
2018    25      0.26439278      65.07504875
2018    26      0.19989048      51.3530975
2018    27      0.15941462      42.3060325
2018    28      0.30971439      72.2478875
2018    29      0.32617151      73.4198075
2018    30      0.31938389      74.5088075
2018    31      0.2186126       55.03576375
