####################################################################################################
# Month: 02Feb                                                                                     #
# Station: TRL                                                                                     #
# Frequency: 345 GHz                                                                               #
# Columns are: year    day     tau     Tb (K)                                                      #
####################################################################################################
2009    1       0.47075339      96.62698375
2009    2       0.33020254      72.99137875
2009    3       0.37475555      81.65136875
2009    4       0.3180776       71.82016875
2009    5       0.47728518      97.55409625
2009    6       0.48738631      99.152415
2009    7       0.42880895      89.1360775
2009    8       0.29240895      66.38301875
2009    9       0.33303494      73.58345125
2009    10      0.2613156       60.50124625
2009    11      0.22904464      54.56733875
2009    12      0.19985824      49.44177625
2009    13      0.30209956      68.45908875
2009    14      0.29129269      66.43155
2009    15      0.18763635      46.86566
2009    16      0.37464402      80.70863375
2009    17      0.29390354      66.226525
2009    18      0.18019309      45.06775625
2009    19      0.21389281      51.43672375
2009    20      0.19965855      49.3242875
2009    21      0.32050093      72.17732
2009    22      0.63941531      121.6084425
2009    23      0.43703387      91.14026125
2009    24      0.24371928      57.40632625
2009    25      0.3998398       84.4578875
2009    26      0.38551684      82.0137975
2009    27      0.32640088      72.05039125
2009    28      0.19966861      48.736805
2010    1       0.51442714      103.23146125
2010    2       0.67141715      126.7494875
2010    3       0.39894801      86.50080625
2010    4       0.58448967      110.68412625
2010    5       0.73504118      132.648925
2010    6       0.58781338      114.54404875
2010    7       0.48527475      99.774245
2010    8       0.90694661      153.9550625
2010    9       0.58414695      113.5535475
2010    10      0.73074675      134.719425
2010    11      0.73896845      135.335375
2010    12      0.69530816      130.074125
2010    13      0.65085681      123.405325
2010    14      0.56683544      111.1528875
2010    15      0.42782805      89.35102375
2010    16      0.41174786      87.469645
2010    17      0.31682938      71.16183625
2010    18      0.32005264      70.99924375
2010    19      0.3543446       76.1687325
2010    20      0.38124029      80.66876625
2010    21      0.36071225      76.7347325
2010    22      0.29669164      65.760855
2010    23      0.2403489       56.656365
2010    24      0.17499485      43.879665
2010    25      0.24978744      58.30403875
2010    26      0.42246481      88.9168525
2010    27      0.52788916      104.53967125
2010    28      0.30283572      68.05951375
2011    1       0.6501209       122.55815
2011    2       0.76461202      135.9689
2011    3       0.965654        159.165575
2011    4       0.61623202      118.498525
2011    5       0.324067        71.8509675
2011    6       0.29083362      67.34715125
2011    7       0.70024615      123.79223625
2011    8       0.64887405      122.5126875
2011    9       0.55237171      107.36405875
2011    10      0.28912085      66.56476875
2011    11      0.42526906      88.37057875
2011    12      0.56073858      107.30890125
2011    13      0.57667571      101.36193
2011    14      0.81021505      138.68640375
2011    15      0.62420722      119.7436075
2011    16      0.74119111      137.0809
2011    17      0.58761108      113.16826
2011    18      0.56982289      109.75247375
2011    19      0.31848124      70.89120375
2011    20      0.26490396      61.2827275
2011    21      0.68649081      126.89264125
2011    22      0.42786924      88.22301
2011    23      0.24297158      58.01605375
2011    24      0.1933207       48.0142375
2011    25      0.26966344      61.947075
2011    26      0.18296232      45.8526475
2011    27      0.24088736      56.71069625
2011    28      0.22273702      53.476725
2012    1       0.48161773      96.70155125
2012    2       0.52181936      103.87407
2012    3       0.39538358      82.669235
2012    4       0.229068        55.15603125
2012    5       0.71012282      126.7882
2012    6       0.26190035      61.20371875
2012    7       0.5034408       99.68340375
2012    8       0.40917641      85.2792575
2012    9       0.2932021       63.370605
2012    10      0.54018984      104.4814175
2012    11      0.46427246      95.5136475
2012    12      0.7474147       135.2038875
2012    13      0.62992412      117.2400575
2012    14      1.305289        180.9149125
2012    15      1.004123        157.7444375
2012    16      0.76980718      135.62366875
2012    17      0.88831399      149.8938625
2012    18      0.67146094      120.845495
2012    19      0.63170053      118.73606
2012    20      0.61367492      116.82835
2012    21      0.54277834      107.002625
2012    22      0.42026436      88.4032125
2012    23      0.23214708      55.0855675
2012    24      0.2241105       53.57923375
2012    25      0.25411256      59.2442825
2012    26      0.27872974      63.07211625
2012    27      0.44017534      92.6169
2012    28      0.5188928       102.46295875
2012    29      0.45668895      93.07010375
2013    1       0.26227984      60.712615
2013    2       0.33837699      74.5612575
2013    3       0.3844586       81.9731775
2013    4       0.43332292      90.80770125
2013    5       0.54902489      108.1215875
2013    6       0.47961735      97.80621875
2013    7       0.41585525      87.0947575
2013    8       0.23594104      55.8144125
2013    9       0.42878236      89.88305625
2013    10      0.33870651      74.837375
2013    11      0.39258875      83.1174775
2013    12      0.45914152      92.73242125
2013    13      0.44137908      90.58325875
2013    14      0.40163098      84.35954375
2013    15      0.43044375      88.5053675
2013    16      0.27507315      63.04976875
2013    17      0.19805618      48.29269
2013    18      0.25491645      59.094315
2013    19      0.42883534      88.39714625
2013    20      0.46472055      93.5680575
2013    21      0.18312941      45.8419375
2013    22      0.25002942      58.1583575
2013    23      0.33026569      73.1050625
2013    24      0.26058673      60.60063125
2013    25      0.35965334      78.6051
2013    26      0.48377814      100.00779125
2013    27      0.55828082      110.6455275
2013    28      0.39504884      84.90414125
2014    1       0.33789575      74.29299625
2014    2       0.28343296      64.3854125
2014    3       0.26530481      61.60661125
2014    4       0.33669549      74.64454
2014    5       0.5997351       113.01160125
2014    6       0.60801982      116.4505
2014    7       0.59346571      113.32373
2014    8       0.44806899      92.0654875
2014    9       0.56422595      110.0075625
2014    10      0.63475814      120.91479125
2014    11      0.27768438      64.49503875
2014    12      0.30283478      68.7013825
2014    13      0.41850364      88.79025375
2014    14      0.4346148       90.0850775
2014    15      0.37354434      79.8129925
2014    16      0.34124992      74.6065975
2014    17      0.30081194      68.24428125
2014    18      0.33054788      73.61701375
2014    19      0.35892114      77.985395
2014    20      0.18562662      46.00541875
2014    21      0.27597446      62.929965
2014    22      0.4066795       87.0764275
2014    23      0.41128686      86.27226
2014    24      0.45782471      94.09463375
2014    25      0.34406706      75.66891875
2014    26      0.27908254      64.07239375
2014    27      0.1729399       43.7028625
2014    28      0.17094716      43.18842
2015    1       0.45127222      94.196185
2015    2       0.40303524      86.67878125
2015    3       0.39968934      85.46319875
2015    4       0.44317242      91.881555
2015    5       0.44898648      93.14326375
2015    6       0.51704156      103.215625
2015    7       0.35859606      78.0379525
2015    8       0.52354285      104.174525
2015    9       0.38734295      83.23592875
2015    10      0.28930978      67.03693375
2015    11      0.31928092      72.014215
2015    12      0.455245        93.01015375
2015    13      0.33811565      74.3855875
2015    14      0.25084222      58.5444575
2015    15      0.21128015      51.92129375
2015    16      0.32715209      71.158265
2015    17      0.58772257      113.243825
2015    18      0.39753445      84.01144
2015    19      0.25927747      60.50946875
2015    20      0.25015994      58.76428
2015    21      0.19279297      47.57543875
2015    22      0.2545037       59.92652
2015    23      0.23776309      56.7698975
2015    24      0.40938584      86.44685
2015    25      0.72447709      130.2803625
2015    26      0.44451552      90.81097
2015    27      0.38279629      81.4432725
2015    28      0.51564601      102.9533925
2016    1       0.66126421      122.942575
2016    2       0.51912008      104.3911375
2016    3       0.51150092      103.2483925
2016    4       0.52500442      104.985615
2016    5       0.53132907      106.01585625
2016    6       0.68002345      125.2949875
2016    7       0.46092019      95.5846175
2016    8       0.55548557      109.0388675
2016    9       0.43167941      90.3031725
2016    10      0.44906245      93.00970875
2016    11      0.39615714      84.494315
2016    12      0.53652754      106.91297875
2016    13      0.4985216       99.7898625
2016    14      0.64446435      121.5457875
2016    15      0.4523323       93.29429875
2016    16      0.17647536      44.6529625
2016    17      0.17013229      43.59397125
2016    18      0.17426321      44.24264125
2016    19      0.26672311      60.04074125
2016    20      0.54406536      106.097675
2016    21      0.38757271      82.6064825
2016    22      0.34130856      74.0409025
2016    23      0.40233548      84.62414
2016    24      0.42164392      89.98494375
2016    25      0.38104664      82.290405
2016    26      0.51656476      103.93153875
2016    27      0.32737531      73.093845
2016    28      0.40873469      87.34247875
2016    29      0.36688449      80.1534425
2017    1       0.27865111      66.9286325
2017    2       0.28823564      68.3871075
2017    3       0.40833405      88.33743625
2017    4       0.53958789      108.34165625
2017    5       0.67885398      128.268775
2017    6       0.684589        128.206
2017    7       0.92589081      154.69375
2017    8       0.89880355      151.13135
2017    9       0.6935563       129.6101375
2017    10      0.51413546      104.30771125
2017    11      0.31525574      72.69831875
2017    12      0.35177391      79.35677125
2017    13      0.28974592      68.37938375
2017    14      0.40621811      88.5780975
2017    15      0.43371745      92.93266
2017    16      0.28820621      67.79151625
2017    17      0.27051678      64.71503
2017    18      0.29494268      68.80531125
2017    19      0.22311406      55.1908275
2017    20      0.21288796      53.56805875
2017    21      0.25540496      61.0049475
2017    22      0.32803148      74.16150875
2017    23      0.33792878      76.7855125
2017    24      0.2815927       67.17360375
2017    25      0.38825442      84.97256375
2017    26      0.45397055      95.23745125
2017    27      0.38731954      84.50760625
2017    28      0.42036868      89.6166075
2018    1       0.87827565      148.2319875
2018    2       1.061875        166.63055
2018    3       0.62510828      117.55621625
2018    4       0.64601168      122.0329875
2018    5       0.55549125      109.7957175
2018    6       0.47887788      99.50302625
2018    7       0.54096568      108.41663
2018    8       0.50267619      102.72101
2018    9       0.42052626      90.48526875
2018    10      0.48546838      99.84127625
2018    11      0.7233468       131.44825
2018    12      0.38793606      84.7302075
2018    13      0.28920631      68.22243875
2018    14      0.32803088      75.28053
2018    15      0.52493559      104.4469575
2018    16      0.43448371      91.8883375
2018    17      0.4322391       91.89905875
2018    18      0.46878978      97.260805
2018    19      0.46491105      96.50430125
2018    20      0.45164944      94.65103875
2018    21      0.40036282      85.98406
2018    22      0.8725187       147.5349125
2018    23      0.90497215      152.7986125
2018    24      0.6734207       126.406075
2018    25      0.67084629      124.54345
2018    26      0.45760808      94.70644125
2018    27      0.46808191      96.773835
2018    28      0.44609901      93.314965
