####################################################################################################
# Month: 10Oct                                                                                     #
# Station: BRZ                                                                                     #
# Frequency: 345 GHz                                                                               #
# Columns are: year    day     segment         tau     Tb (K)                                      #
####################################################################################################
2009    1       0       2.526902        255.8978
2009    1       1       2.472165        254.2637
2009    1       2       2.295324        249.8241
2009    1       3       2.163067        245.8852
2009    1       4       2.22821         247.5475
2009    1       5       2.209669        247.0575
2009    1       6       2.315366        250.0798
2009    1       7       2.367692        251.7274
2009    2       0       2.21015         247.4467
2009    2       1       2.044908        241.9723
2009    2       2       1.952045        238.4607
2009    2       3       1.879404        235.5319
2009    2       4       1.876306        235.5096
2009    2       5       1.912507        237.2083
2009    2       6       1.840794        234.5097
2009    2       7       2.098485        243.8511
2009    3       0       2.378539        251.5972
2009    3       1       2.472232        253.784
2009    3       2       2.49811         254.1591
2009    3       3       2.620814        256.4778
2009    3       4       2.556787        254.9076
2009    3       5       2.68132         257.1767
2009    3       6       3.250549        264.9482
2009    3       7       3.433006        266.3613
2009    4       0       3.200561        263.9128
2009    4       1       3.402939        265.8887
2009    4       2       3.350882        265.0856
2009    4       3       2.944589        259.7061
2009    4       4       2.275454        245.9809
2009    4       5       2.079701        240.5447
2009    4       6       2.332659        249.021
2009    4       7       2.133478        243.5241
2009    5       0       1.971394        238.0858
2009    5       1       1.697676        226.0194
2009    5       2       1.557028        217.9753
2009    5       3       1.333379        202.8826
2009    5       4       1.110338        184.4925
2009    5       5       1.009973        174.4849
2009    5       6       1.159419        188.6883
2009    5       7       0.8362424       156.2545
2009    6       0       0.8186373       154.2423
2009    6       1       0.7380183       143.6738
2009    6       2       0.5559194       117.7269
2009    6       3       0.4763197       105.4615
2009    6       4       0.5175527       112.1292
2009    6       5       0.6086063       125.8519
2009    6       6       0.8328997       155.548
2009    6       7       1.071093        178.8785
2009    7       0       1.183421        187.7772
2009    7       1       1.258103        193.2386
2009    7       2       1.460329        207.5658
2009    7       3       1.71902         222.5842
2009    7       4       2.105532        240.4783
2009    7       5       2.862228        259.8335
2009    7       6       3.199969        264.6641
2009    7       7       3.113764        263.3338
2009    8       0       3.048852        262.6747
2009    8       1       2.99593         262.6277
2009    8       2       3.066274        263.1638
2009    8       3       2.947987        261.4627
2009    8       4       3.039714        262.6318
2009    8       5       3.336074        266.1711
2009    8       6       3.791689        269.7353
2009    8       7       3.907426        270.4141
2009    9       0       4.158159        272.4178
2009    9       1       4.329785        273.1736
2009    9       2       4.435855        273.5668
2009    9       3       4.087388        271.5444
2009    9       4       3.538862        267.7636
2009    9       5       2.901998        260.1599
2009    9       6       2.035616        239.9837
2009    9       7       2.453426        252.735
2009    10      0       2.597665        255.9416
2009    10      1       2.315618        249.5488
2009    10      2       2.134994        244.063
2009    10      3       1.856707        233.5577
2009    10      4       1.758196        229.0462
2009    10      5       1.672959        224.9066
2009    10      6       2.048903        240.9938
2009    10      7       2.050069        240.8318
2009    11      0       1.665131        224.8003
2009    11      1       1.47395         214.0248
2009    11      2       1.602844        221.2003
2009    11      3       1.57823         219.7263
2009    11      4       1.350292        205.4792
2009    11      5       1.181109        192.9956
2009    11      6       2.183712        245.4683
2009    11      7       2.353844        250.3822
2009    12      0       1.573754        220.4054
2009    12      1       1.507275        216.4238
2009    12      2       0.9666021       173.5336
2009    12      3       0.8125968       156.487
2009    12      4       0.931288        169.8197
2009    12      5       0.8846942       165.6655
2009    12      6       1.474987        215.3133
2009    12      7       1.005585        178.9717
2009    13      0       1.207852        196.7939
2009    13      1       0.9941115       178.1136
2009    13      2       0.834951        160.3869
2009    13      3       0.859986        161.9044
2009    13      4       0.9952971       175.879
2009    13      5       1.472338        215.2073
2009    13      6       2.490146        254.7658
2009    13      7       2.672973        258.3285
2009    14      0       2.675425        258.5634
2009    14      1       2.649221        257.5985
2009    14      2       2.598805        256.4726
2009    14      3       2.724384        258.5642
2009    14      4       2.441581        253.0393
2009    14      5       2.581503        256.0827
2009    14      6       2.698885        258.4437
2009    14      7       2.52576         255.3817
2009    15      0       2.404015        252.5589
2009    15      1       2.82948         260.3397
2009    15      2       2.364032        250.684
2009    15      3       2.016465        240.2143
2009    15      4       1.88781         235.2869
2009    15      5       1.979882        238.4757
2009    15      6       2.30025         248.3945
2009    15      7       2.587573        255.2502
2009    16      0       2.831643        259.8667
2009    16      1       2.695749        257.6595
2009    16      2       2.893287        260.2362
2009    16      3       3.321142        265.414
2009    16      4       3.694089        269.0888
2009    16      5       3.647864        270.0925
2009    16      6       3.414776        268.732
2009    16      7       3.071267        264.7633
2009    17      0       3.054934        264.2855
2009    17      1       2.858394        261.5596
2009    17      2       2.654299        258.1816
2009    17      3       2.711101        258.7818
2009    17      4       2.580611        257.2633
2009    17      5       3.501526        269.3642
2009    17      6       4.193689        274.3491
2009    17      7       3.566118        269.6524
2009    18      0       3.224118        265.8262
2009    18      1       3.561362        268.8146
2009    18      2       3.399834        267.1973
2009    18      3       3.068443        263.7267
2009    18      4       2.408477        252.4113
2009    18      5       2.12389         244.7061
2009    18      6       2.393472        252.1468
2009    18      7       2.706476        258.6494
2009    19      0       2.650151        258.0177
2009    19      1       2.728108        259.5946
2009    19      2       3.132521        265.2338
2009    19      3       4.109098        273.8909
2009    19      4       4.390854        275.419
2009    19      5       3.569409        270.0202
2009    19      6       3.167505        265.3956
2009    19      7       3.217858        266.0518
2009    20      0       3.025329        263.8063
2009    20      1       3.330976        266.3859
2009    20      2       3.738581        270.32
2009    20      3       3.62058         270.4675
2009    20      4       3.179819        267.0255
2009    20      5       3.546922        269.5104
2009    20      6       3.551355        269.395
2009    20      7       3.621102        270.058
2009    21      0       3.343952        268.3293
2009    21      1       2.779151        260.821
2009    21      2       2.63319         258.074
2009    21      3       2.703           259.7413
2009    21      4       2.83638         262.3148
2009    21      5       2.922444        263.326
2009    21      6       3.54844         270.7111
2009    21      7       3.674273        271.8312
2009    22      0       2.81735         261.8287
2009    22      1       2.658277        258.9029
2009    22      2       3.228951        267.6982
2009    22      3       4.448668        275.685
2009    22      4       4.24078         274.5416
2009    22      5       3.697536        270.1641
2009    22      6       3.846808        270.9931
2009    22      7       2.715664        257.8081
2009    23      0       2.733085        258.7593
2009    23      1       2.445203        253.232
2009    23      2       2.297598        248.9992
2009    23      3       2.551463        254.5182
2009    23      4       2.518133        254.0067
2009    23      5       2.684784        258.9628
2009    23      6       2.537535        256.6095
2009    23      7       2.420493        253.5111
2009    24      0       1.396079        210.5275
2009    24      1       0.9078757       167.7422
2009    24      2       0.8457332       162.1893
2009    24      3       0.7437927       149.7859
2009    24      4       0.4453727       104.4223
2009    24      5       0.3663607       89.77737
2009    24      6       0.7735344       152.6532
2009    24      7       1.132941        189.7194
2009    25      0       1.136934        189.9465
2009    25      1       0.7372474       145.585
2009    25      2       0.6787157       137.1447
2009    25      3       0.6883994       137.5722
2009    25      4       0.8269415       155.9245
2009    25      5       0.8088528       153.7372
2009    25      6       0.9593293       170.6889
2009    25      7       1.553494        219.3021
2009    26      0       1.664003        224.9256
2009    26      1       1.622639        222.6881
2009    26      2       1.772059        229.6129
2009    26      3       1.836301        231.2806
2009    26      4       1.953097        234.6592
2009    26      5       2.247484        244.7596
2009    26      6       2.881714        260.1159
2009    26      7       2.555703        253.6532
2009    27      0       2.424263        250.5778
2009    27      1       2.492419        252.6821
2009    27      2       2.581527        254.5466
2009    27      3       2.872573        259.6827
2009    27      4       3.45861         266.6866
2009    27      5       3.973093        271.2228
2009    27      6       4.304533        273.0574
2009    27      7       4.28694         272.8277
2009    28      0       4.348993        273.288
2009    28      1       3.998088        271.3555
2009    28      2       3.745831        270.2808
2009    28      3       4.005428        271.5438
2009    28      4       3.829704        270.6686
2009    28      5       3.880958        271.0467
2009    28      6       3.902248        271.2692
2009    28      7       4.042466        272.1941
2009    29      0       4.210892        273.0516
2009    29      1       4.232013        273.69
2009    29      2       4.736027        275.8614
2009    29      3       4.603132        274.7859
2009    29      4       4.34437         273.6469
2009    29      5       4.569001        274.6603
2009    29      6       4.215686        272.9299
2009    29      7       4.541643        274.5645
2009    30      0       4.615712        274.855
2009    30      1       4.533306        274.7859
2009    30      2       4.498146        274.4131
2009    30      3       4.01728         271.7184
2009    30      4       3.86825         270.1687
2009    30      5       3.657421        268.411
2009    30      6       3.700504        269.2972
2009    30      7       3.907367        271.5055
2009    31      0       3.383724        267.4571
2009    31      1       2.931309        261.7281
2009    31      2       2.39652         250.7127
2009    31      3       1.957004        236.9921
2009    31      4       1.857798        232.8873
2009    31      5       2.41972         251.4111
2009    31      6       2.842739        260.9321
2009    31      7       2.455048        252.9857
2010    1       0       3.078871        265.9415
2010    1       1       2.136475        245.9828
2010    1       2       2.252899        249.3274
2010    1       3       2.567747        256.8057
2010    1       4       2.393716        253.106
2010    1       5       2.350702        252.3211
2010    1       6       2.938801        264.3371
2010    1       7       2.946535        264.3091
2010    2       0       3.162429        266.7221
2010    2       1       3.682704        271.0081
2010    2       2       3.683805        271.0218
2010    2       3       3.043422        264.3233
2010    2       4       2.770702        259.7575
2010    2       5       2.677406        258.1522
2010    2       6       3.02325         264.0118
2010    2       7       3.482755        269.0065
2010    3       0       3.58393         270.0644
2010    3       1       3.109222        265.361
2010    3       2       2.824162        261.3497
2010    3       3       3.464751        268.5391
2010    3       4       3.553443        268.6834
2010    3       5       3.854958        270.589
2010    3       6       3.93322         271.3493
2010    3       7       3.392259        267.4703
2010    4       0       2.954467        262.2192
2010    4       1       3.019395        263.2392
2010    4       2       3.379274        267.6076
2010    4       3       3.335665        267.1001
2010    4       4       3.070591        264.4785
2010    4       5       2.771036        260.1743
2010    4       6       2.621475        257.599
2010    4       7       2.655257        258.5049
2010    5       0       2.51892         255.8263
2010    5       1       2.489939        255.0331
2010    5       2       2.363687        251.9009
2010    5       3       2.614487        257.5944
2010    5       4       3.093121        265.4784
2010    5       5       3.835832        271.87
2010    5       6       3.52153         268.7914
2010    5       7       3.086898        264.9261
2010    6       0       2.603778        257.5973
2010    6       1       2.26197         249.3201
2010    6       2       2.212861        247.9944
2010    6       3       2.118136        245.1894
2010    6       4       1.560677        221.284
2010    6       5       1.544618        220.5939
2010    6       6       2.168053        247.9096
2010    6       7       1.786991        233.5973
2010    7       0       1.429463        213.5851
2010    7       1       1.282989        203.2058
2010    7       2       1.174802        193.4578
2010    7       3       1.18625         194.4664
2010    7       4       1.378002        208.5289
2010    7       5       1.856332        233.4575
2010    7       6       2.625817        256.1435
2010    7       7       3.360229        266.9311
2010    8       0       3.56224         269.7311
2010    8       1       3.007381        264.2109
2010    8       2       2.953751        264.1496
2010    8       3       2.693295        259.7578
2010    8       4       3.380835        269.1382
2010    8       5       3.015475        263.6978
2010    8       6       3.561447        269.5903
2010    8       7       3.420101        268.1366
2010    9       0       2.324512        250.606
2010    9       1       2.391946        252.8697
2010    9       2       1.080063        185.6964
2010    9       3       0.4878013       110.744
2010    9       4       0.2611267       67.92425
2010    9       5       0.2741148       69.92384
2010    9       6       0.3777196       91.31088
2010    9       7       0.5395999       118.1821
2010    10      0       0.5896529       125.8163
2010    10      1       0.4954384       110.4237
2010    10      2       0.7875662       150.3774
2010    10      3       0.933072        167.3282
2010    10      4       0.8712398       160.8373
2010    10      5       0.9205312       166.3727
2010    10      6       1.443869        211.1682
2010    10      7       2.155683        243.5804
2010    11      0       2.411629        251.2836
2010    11      1       2.548797        255.2768
2010    11      2       2.570742        255.3794
2010    11      3       2.275701        247.7872
2010    11      4       2.052547        240.8681
2010    11      5       1.695816        226.8217
2010    11      6       1.840173        233.6111
2010    11      7       2.697233        257.9287
2010    12      0       3.430887        268.7802
2010    12      1       3.90329         270.6655
2010    12      2       3.146898        264.8729
2010    12      3       2.379627        251.6559
2010    12      4       1.705893        227.4605
2010    12      5       1.29347         202.4093
2010    12      6       1.385894        209.4248
2010    12      7       1.399177        209.7946
2010    13      0       0.7980058       156.0304
2010    13      1       0.4901143       111.4359
2010    13      2       0.4711851       107.0164
2010    13      3       0.5823984       123.8004
2010    13      4       0.9071192       165.7397
2010    13      5       1.279292        200.0635
2010    13      6       1.532604        217.5227
2010    13      7       1.379987        208.5149
2010    14      0       0.8433875       159.3042
2010    14      1       0.6845136       138.7212
2010    14      2       0.6477392       133.6037
2010    14      3       0.6513764       132.7878
2010    14      4       0.9296611       167.7685
2010    14      5       1.444933        211.8926
2010    14      6       1.943363        238.159
2010    14      7       2.308952        249.9267
2010    15      0       2.379853        251.694
2010    15      1       2.300464        249.1023
2010    15      2       1.979149        238.2044
2010    15      3       1.55478         217.5881
2010    15      4       1.406682        207.2952
2010    15      5       1.434073        208.6537
2010    15      6       1.991194        237.9644
2010    15      7       2.463234        252.8173
2010    16      0       2.570298        255.704
2010    16      1       2.205409        245.7025
2010    16      2       1.979303        237.2909
2010    16      3       1.942425        235.227
2010    16      4       2.018487        237.846
2010    16      5       2.129732        241.8465
2010    16      6       2.614517        256.1598
2010    16      7       3.084698        263.6845
2010    17      0       2.95975         262.0308
2010    17      1       2.876321        260.756
2010    17      2       2.826467        259.7652
2010    17      3       2.74041         258.533
2010    17      4       2.665318        257.2759
2010    17      5       2.552849        255.6433
2010    17      6       3.184341        266.0867
2010    17      7       3.255169        266.2042
2010    18      0       3.019639        263.8594
2010    18      1       3.263816        267.2184
2010    18      2       3.423389        268.7773
2010    18      3       2.66786         257.7782
2010    18      4       2.725312        259.1701
2010    18      5       3.188404        265.8813
2010    18      6       3.929321        272.1037
2010    18      7       4.934534        277.8001
2010    19      0       3.984674        272.0726
2010    19      1       3.393207        267.8819
2010    19      2       2.708583        258.0637
2010    19      3       2.495156        253.4429
2010    19      4       2.107039        243.8283
2010    19      5       2.323076        250.6319
2010    19      6       3.529999        269.1652
2010    19      7       4.00379         272.3129
2010    20      0       2.701347        258.897
2010    20      1       2.391659        252.1882
2010    20      2       2.013306        240.6079
2010    20      3       1.028163        179.6893
2010    20      4       0.5050321       113.4584
2010    20      5       0.4118011       97.9357
2010    20      6       1.001686        178.6305
2010    20      7       1.214609        196.332
2010    21      0       0.604582        129.8448
2010    21      1       0.3996173       95.92935
2010    21      2       0.335162        83.7248
2010    21      3       0.2556712       67.52978
2010    21      4       0.1911813       53.36739
2010    21      5       0.222935        60.4031
2010    21      6       0.7316202       146.3266
2010    21      7       0.9375543       170.4818
2010    22      0       0.6777843       139.9958
2010    22      1       0.6582668       137.0732
2010    22      2       0.5295231       118.0682
2010    22      3       0.4084161       96.89013
2010    22      4       0.3554791       86.75036
2010    22      5       0.3886722       92.94597
2010    22      6       0.731977        147.7287
2010    22      7       0.9204348       169.9144
2010    23      0       0.7174071       144.2928
2010    23      1       0.6211886       129.5932
2010    23      2       0.6500069       133.3358
2010    23      3       0.7074233       139.9534
2010    23      4       0.7006703       138.6845
2010    23      5       0.672754        134.6379
2010    23      6       0.8634044       158.9977
2010    23      7       1.26759         197.3273
2010    24      0       1.907315        234.8311
2010    24      1       2.632899        256.3546
2010    24      2       2.694532        257.2227
2010    24      3       2.464512        252.1816
2010    24      4       2.26748         246.6298
2010    24      5       2.72405         256.893
2010    24      6       3.643873        268.4468
2010    24      7       3.647333        268.8174
2010    25      0       3.306333        266.3576
2010    25      1       2.515431        253.5897
2010    25      2       2.405581        250.8668
2010    25      3       2.108744        242.3498
2010    25      4       2.080307        240.9533
2010    25      5       2.176234        244.0248
2010    25      6       2.455941        252.7289
2010    25      7       2.606875        256.2169
2010    26      0       2.439817        252.6018
2010    26      1       2.643641        256.9149
2010    26      2       2.907062        260.9697
2010    26      3       2.85301         260.6079
2010    26      4       3.168697        265.0285
2010    26      5       3.207288        264.5894
2010    26      6       3.584475        268.0291
2010    26      7       3.206873        265.7031
2010    27      0       3.937443        273.2588
2010    27      1       3.730329        270.5136
2010    27      2       2.31333         249.5072
2010    27      3       1.077683        184.4466
2010    27      4       0.446751        103.9711
2010    27      5       0.4551427       105.8114
2010    27      6       0.7940057       155.4899
2010    27      7       1.090254        186.0988
2010    28      0       1.144278        191.0139
2010    28      1       0.8561375       161.8947
2010    28      2       0.7194171       146.0021
2010    28      3       0.6711657       139.7595
2010    28      4       0.504639        113.9713
2010    28      5       0.4186355       98.76114
2010    28      6       0.789296        155.9914
2010    28      7       0.8170713       158.8571
2010    29      0       0.8719476       164.6515
2010    29      1       0.6198478       132.2548
2010    29      2       0.39596         95.66411
2010    29      3       0.2765044       71.8272
2010    29      4       0.3306673       81.50456
2010    29      5       0.3358126       81.92875
2010    29      6       0.3671099       88.19189
2010    29      7       0.4686039       106.8386
2010    30      0       0.6916289       141.7584
2010    30      1       0.8127542       157.3595
2010    30      2       0.8510196       161.3883
2010    30      3       0.8540997       160.9049
2010    30      4       1.173496        192.8824
2010    30      5       1.52643         218.5128
2010    30      6       2.38477         252.5453
2010    30      7       2.953536        263.3315
2010    31      0       3.061366        264.3248
2010    31      1       3.253521        265.966
2010    31      2       2.838203        259.4334
2010    31      3       2.591634        254.3458
2010    31      4       2.868357        259.1181
2010    31      5       3.244059        264.0381
2010    31      6       3.510501        266.2348
2010    31      7       3.308402        265.031
2011    1       0       0.2957331       75.41672
2011    1       1       0.23293         61.59527
2011    1       2       0.2140696       57.15505
2011    1       3       0.1961042       52.88763
2011    1       4       0.2287961       59.62845
2011    1       5       0.2735884       68.42229
2011    1       6       0.4439543       101.4031
2011    1       7       0.4118676       95.07935
2011    2       0       0.3598883       83.77483
2011    2       1       0.3514475       81.65069
2011    2       2       0.3531935       82.65929
2011    2       3       0.3269546       78.56134
2011    2       4       0.3486617       82.7654
2011    2       5       0.3937865       90.70539
2011    2       6       0.7066011       140.6598
2011    2       7       0.8943599       164.3313
2011    3       0       1.264487        199.7988
2011    3       1       1.971185        238.9158
2011    3       2       2.380376        251.493
2011    3       3       2.645721        257.2735
2011    3       4       2.925235        261.7248
2011    3       5       3.230949        265.7653
2011    3       6       3.603975        268.9323
2011    3       7       3.631114        268.6752
2011    4       0       3.020009        263.198
2011    4       1       2.70475         257.9407
2011    4       2       2.294363        248.6775
2011    4       3       2.132077        244.1487
2011    4       4       2.258922        248.5174
2011    4       5       2.958757        262.9291
2011    4       6       3.279694        266.5388
2011    4       7       2.74509         259.7476
2011    5       0       2.552136        255.9955
2011    5       1       2.695406        258.4663
2011    5       2       2.633554        257.2531
2011    5       3       2.575344        255.7536
2011    5       4       3.062682        263.1395
2011    5       5       3.508315        267.6492
2011    5       6       3.639044        268.4612
2011    5       7       3.389417        265.9639
2011    6       0       3.185321        264.0326
2011    6       1       3.057259        262.6103
2011    6       2       3.023994        262.011
2011    6       3       3.038305        261.994
2011    6       4       3.042892        262.2084
2011    6       5       3.196415        263.8912
2011    6       6       3.30516         265.0855
2011    6       7       2.832627        258.8707
2011    7       0       2.430581        250.7518
2011    7       1       2.055333        239.1542
2011    7       2       1.817093        229.3727
2011    7       3       1.69323         223.4188
2011    7       4       1.857014        232.007
2011    7       5       2.263996        248.1006
2011    7       6       2.519012        254.8013
2011    7       7       2.166567        245.266
2011    8       0       2.002125        239.4095
2011    8       1       2.119207        242.9937
2011    8       2       2.19977         244.9302
2011    8       3       2.071           241.1228
2011    8       4       2.413523        252.0423
2011    8       5       2.187633        244.7223
2011    8       6       2.454692        252.2006
2011    8       7       2.151295        244.2134
2011    9       0       1.913484        236.3006
2011    9       1       2.010502        239.7782
2011    9       2       1.895599        234.9165
2011    9       3       1.676366        225.0194
2011    9       4       1.737542        227.766
2011    9       5       1.625413        222.197
2011    9       6       1.72469         227.892
2011    9       7       1.91659         236.3626
2011    10      0       2.09804         242.4494
2011    10      1       2.308668        248.5456
2011    10      2       2.677077        256.7532
2011    10      3       2.921375        260.9139
2011    10      4       2.800943        259.2658
2011    10      5       2.75867         259.1509
2011    10      6       3.121125        265.0063
2011    10      7       2.761048        259.2908
2011    11      0       2.279004        248.8442
2011    11      1       2.573102        256.4212
2011    11      2       3.620782        271.0497
2011    11      3       3.995094        272.8057
2011    11      4       3.921604        272.3349
2011    11      5       2.805687        259.7309
2011    11      6       2.898031        259.6973
2011    11      7       2.943943        261.5198
2011    12      0       3.790169        270.218
2011    12      1       4.053856        273.2242
2011    12      2       4.051487        272.7675
2011    12      3       3.810467        271.319
2011    12      4       3.338353        268.1571
2011    12      5       2.279891        249.5283
2011    12      6       2.241988        248.9227
2011    12      7       1.91739         236.6257
2011    13      0       1.834925        232.5816
2011    13      1       2.033955        240.238
2011    13      2       1.966704        236.9173
2011    13      3       1.651861        222.462
2011    13      4       1.654973        221.3955
2011    13      5       1.822675        229.5248
2011    13      6       2.442403        251.0474
2011    13      7       2.965084        260.5238
2011    14      0       2.990518        261.7967
2011    14      1       3.250775        264.5914
2011    14      2       3.542714        267.5803
2011    14      3       3.394491        266.9982
2011    14      4       3.281788        266.1061
2011    14      5       3.258089        266.4415
2011    14      6       3.897129        271.7572
2011    14      7       3.877372        271.9366
2011    15      0       3.558332        270.006
2011    15      1       3.337044        268.1889
2011    15      2       3.27706         267.4733
2011    15      3       3.389615        268.0498
2011    15      4       3.275347        266.9271
2011    15      5       3.470014        268.4414
2011    15      6       3.844172        271.1594
2011    15      7       3.875253        270.8182
2011    16      0       3.551237        269.1318
2011    16      1       3.809212        270.7268
2011    16      2       3.808948        271.1059
2011    16      3       3.921753        271.6355
2011    16      4       3.862161        271.324
2011    16      5       3.792503        271.6642
2011    16      6       3.978733        273.7753
2011    16      7       3.941321        272.8011
2011    17      0       4.122444        273.5367
2011    17      1       3.860703        272.1189
2011    17      2       3.769624        271.8967
2011    17      3       3.620304        270.3811
2011    17      4       3.523228        269.3213
2011    17      5       4.124351        274.0151
2011    17      6       4.443674        276.0153
2011    17      7       4.691102        277.2981
2011    18      0       3.699741        272.2652
2011    18      1       4.221289        274.5648
2011    18      2       3.446812        266.8747
2011    18      3       2.831399        259.9322
2011    18      4       1.989301        239.5283
2011    18      5       1.998038        239.418
2011    18      6       1.9856          238.3179
2011    18      7       1.301853        202.4428
2011    19      0       1.156378        190.027
2011    19      1       1.397517        206.4736
2011    19      2       1.274372        197.3282
2011    19      3       0.9424986       167.8547
2011    19      4       0.9131943       163.8979
2011    19      5       0.8030039       151.4242
2011    19      6       0.8486804       157.7356
2011    19      7       0.615838        128.7941
2011    20      0       0.4478581       101.905
2011    20      1       0.5009712       109.9276
2011    20      2       0.4144403       95.9249
2011    20      3       0.3503904       84.58161
2011    20      4       0.4165379       95.88291
2011    20      5       0.5102226       111.0379
2011    20      6       0.5653048       120.5514
2011    20      7       0.6677015       135.7803
2011    21      0       0.6310438       128.0181
2011    21      1       0.8141178       152.1805
2011    21      2       0.8212066       152.4003
2011    21      3       0.7326769       141.3957
2011    21      4       0.8395861       155.1087
2011    21      5       1.164997        188.5107
2011    21      6       1.532486        214.9649
2011    21      7       1.534768        215.3732
2011    22      0       1.536163        215.7437
2011    22      1       1.675314        223.965
2011    22      2       1.814247        231.0155
2011    22      3       1.913561        235.9149
2011    22      4       2.499216        253.492
2011    22      5       3.33195         265.6451
2011    22      6       3.799951        269.0786
2011    22      7       3.598053        267.9379
2011    23      0       3.51743         267.6764
2011    23      1       3.539922        267.7859
2011    23      2       3.480025        267.103
2011    23      3       3.485243        266.9896
2011    23      4       3.495972        266.7063
2011    23      5       3.416434        265.5342
2011    23      6       3.450303        265.2231
2011    23      7       3.190205        262.4739
2011    24      0       2.928572        259.0391
2011    24      1       2.675588        254.9033
2011    24      2       2.166038        242.936
2011    24      3       1.776428        228.6094
2011    24      4       1.518232        215.6308
2011    24      5       1.500696        215.0173
2011    24      6       1.875654        234.0598
2011    24      7       1.619075        222.0317
2011    25      0       1.22256         196.9081
2011    25      1       1.114813        187.7544
2011    25      2       1.101896        186.654
2011    25      3       1.14839         190.642
2011    25      4       1.366725        206.9194
2011    25      5       1.694336        226.1839
2011    25      6       2.033025        241.2041
2011    25      7       1.675299        226.2336
2011    26      0       1.565449        219.9779
2011    26      1       1.50465         216.0742
2011    26      2       1.764472        229.6999
2011    26      3       2.142137        244.4012
2011    26      4       1.826802        232.7036
2011    26      5       2.112           243.7891
2011    26      6       3.09877         264.3683
2011    26      7       3.561418        268.5936
2011    27      0       3.35099         266.9355
2011    27      1       2.814255        260.0921
2011    27      2       2.57791         255.4577
2011    27      3       2.486425        253.5401
2011    27      4       2.883615        260.2544
2011    27      5       3.411018        266.83
2011    27      6       3.5158          269.0249
2011    27      7       2.811347        260.9229
2011    28      0       2.142898        245.3798
2011    28      1       2.126874        244.6016
2011    28      2       1.918594        237.6802
2011    28      3       2.053098        242.0751
2011    28      4       1.317089        202.994
2011    28      5       1.042397        178.1794
2011    28      6       1.316563        201.36
2011    28      7       2.080092        241.937
2011    29      0       2.590467        257.8467
2011    29      1       3.685764        272.4842
2011    29      2       1.839533        234.0521
2011    29      3       1.091868        186.451
2011    29      4       1.134255        190.4097
2011    29      5       1.401026        210.8
2011    29      6       1.893923        237.8055
2011    29      7       1.771753        232.1212
2011    30      0       1.537398        219.9902
2011    30      1       1.169784        193.1752
2011    30      2       1.39498         209.8143
2011    30      3       1.821584        232.9228
2011    30      4       2.492052        253.7363
2011    30      5       3.093807        263.66
2011    30      6       3.829608        270.5077
2011    30      7       4.519891        275.3145
2011    31      0       4.076738        273.5963
2011    31      1       4.595695        274.4801
2011    31      2       4.450404        274.3481
2011    31      3       4.56945         274.9523
2011    31      4       3.756464        270.9761
2011    31      5       3.637601        269.349
2011    31      6       3.921813        270.6421
2011    31      7       4.038093        271.337
2012    1       0       0.318933        78.29759
2012    1       1       0.2979965       74.24592
2012    1       2       0.4137821       95.70422
2012    1       3       0.6198649       129.5088
2012    1       4       0.636003        132.9603
2012    1       5       0.58408         125.8956
2012    1       6       0.653074        136.6521
2012    1       7       0.8047915       156.6259
2012    2       0       0.5489978       120.682
2012    2       1       0.6336509       133.2354
2012    2       2       0.5998467       128.4944
2012    2       3       0.5790984       125.6107
2012    2       4       0.6959715       141.7714
2012    2       5       0.8250361       157.3147
2012    2       6       1.27378         199.9157
2012    2       7       1.350512        205.2255
2012    3       0       1.124645        187.4857
2012    3       1       1.23105         196.0467
2012    3       2       1.115842        186.7833
2012    3       3       0.9392704       169.9831
2012    3       4       0.6594575       136.5976
2012    3       5       0.46254         106.3803
2012    3       6       0.4476054       104.265
2012    3       7       0.4032648       96.61631
2012    4       0       0.3063057       77.68361
2012    4       1       0.4047042       96.34609
2012    4       2       0.3130039       79.0495
2012    4       3       0.2011701       55.50248
2012    4       4       0.17828         50.34355
2012    4       5       0.2053087       56.52842
2012    4       6       0.4200898       100.2291
2012    4       7       0.4796574       111.1896
2012    5       0       0.1906141       53.60003
2012    5       1       0.2003364       55.57839
2012    5       2       0.1986395       55.22763
2012    5       3       0.1641085       47.15803
2012    5       4       0.1741639       49.54622
2012    5       5       0.1776854       50.4786
2012    5       6       0.4047699       97.61811
2012    5       7       0.3623422       89.7254
2012    6       0       0.1640483       47.16337
2012    6       1       0.1874057       52.51461
2012    6       2       0.2039576       56.0691
2012    6       3       0.2164081       58.51874
2012    6       4       0.2141856       57.92054
2012    6       5       0.2041105       55.55028
2012    6       6       0.2938237       74.96934
2012    6       7       0.2424674       63.82819
2012    7       0       0.2137857       56.53361
2012    7       1       0.2268636       59.39148
2012    7       2       0.2118061       56.37229
2012    7       3       0.208059        55.11911
2012    7       4       0.1985613       53.06722
2012    7       5       0.2897903       73.11818
2012    7       6       0.5792044       125.1967
2012    7       7       0.4930206       110.6135
2012    8       0       0.3916032       91.76298
2012    8       1       0.4395021       100.3028
2012    8       2       0.4202819       96.93549
2012    8       3       0.3475367       83.57775
2012    8       4       0.3032062       74.6332
2012    8       5       0.3608117       85.92643
2012    8       6       0.6149452       129.2116
2012    8       7       0.4933734       110.1497
2012    9       0       0.4106193       95.39044
2012    9       1       0.5570957       120.14
2012    9       2       0.5117158       112.9127
2012    9       3       0.4669184       104.9119
2012    9       4       0.4931267       108.9523
2012    9       5       0.6408679       132.63
2012    9       6       0.4142274       96.29819
2012    9       7       0.3568883       85.62086
2012    10      0       0.3242786       78.98262
2012    10      1       0.3388526       82.0022
2012    10      2       0.3759445       89.47622
2012    10      3       0.3708318       89.07181
2012    10      4       0.334631        82.32818
2012    10      5       0.4381831       101.7152
2012    10      6       0.7027071       142.9968
2012    10      7       0.6651947       137.9445
2012    11      0       0.3680925       88.97048
2012    11      1       0.3737009       89.76128
2012    11      2       0.5626089       121.5154
2012    11      3       0.462229        105.4209
2012    11      4       0.5506649       119.49
2012    11      5       0.5982104       126.9381
2012    11      6       0.8755519       163.4017
2012    11      7       1.295582        201.4429
2012    12      0       0.8909064       164.5392
2012    12      1       1.418033        209.5119
2012    12      2       1.696787        225.2081
2012    12      3       1.571125        218.4303
2012    12      4       1.752807        228.0282
2012    12      5       2.197           244.8085
2012    12      6       3.277841        265.3002
2012    12      7       3.639154        268.4674
2012    13      0       2.832951        259.4407
2012    13      1       2.550882        254.1195
2012    13      2       2.904701        260.3773
2012    13      3       3.426341        266.4862
2012    13      4       3.137887        263.1803
2012    13      5       2.590339        255.3668
2012    13      6       2.976209        261.4442
2012    13      7       3.05661         262.3722
2012    14      0       2.714752        257.5969
2012    14      1       2.693623        257.7141
2012    14      2       3.325788        266.7142
2012    14      3       3.416773        266.5397
2012    14      4       3.500645        266.4151
2012    14      5       3.247537        263.0653
2012    14      6       3.157643        261.7047
2012    14      7       2.862494        257.3954
2012    15      0       2.361744        246.889
2012    15      1       1.622299        220.0728
2012    15      2       1.317039        201.2142
2012    15      3       1.101477        184.2335
2012    15      4       0.7789267       151.1209
2012    15      5       0.6585122       135.9419
2012    15      6       0.6858937       139.7512
2012    15      7       0.9501001       170.1044
2012    16      0       0.557607        121.6409
2012    16      1       0.2615035       68.22694
2012    16      2       0.2228088       59.78121
2012    16      3       0.1892107       52.28777
2012    16      4       0.1933905       53.07648
2012    16      5       0.2727591       70.04747
2012    16      6       0.5960131       127.3079
2012    16      7       0.8248032       157.6656
2012    17      0       0.4107875       96.40364
2012    17      1       0.3755174       89.00644
2012    17      2       0.558246        119.7479
2012    17      3       0.5933236       123.7135
2012    17      4       0.7079699       139.7855
2012    17      5       0.9856327       172.8561
2012    17      6       1.849821        231.7253
2012    17      7       3.032351        260.5823
2012    18      0       2.833476        258.1404
2012    18      1       3.109104        263.0293
2012    18      2       3.258473        265.2127
2012    18      3       2.889286        260.3687
2012    18      4       2.547936        254.1494
2012    18      5       2.714893        257.7825
2012    18      6       2.624071        256.9206
2012    18      7       2.143938        244.3283
2012    19      0       1.990309        238.8927
2012    19      1       1.801182        231.147
2012    19      2       1.538638        217.2159
2012    19      3       1.027612        179.3004
2012    19      4       1.113549        186.1414
2012    19      5       1.070732        180.9439
2012    19      6       1.644411        221.3451
2012    19      7       1.891535        232.9744
2012    20      0       1.302609        198.7553
2012    20      1       1.046862        177.5005
2012    20      2       1.021622        174.3935
2012    20      3       1.03547         175.6238
2012    20      4       1.182214        188.4665
2012    20      5       1.32332         199.1387
2012    20      6       1.894096        231.9257
2012    20      7       2.611903        254.1089
2012    21      0       2.285168        246.2662
2012    21      1       1.927935        233.7318
2012    21      2       1.743884        225.0897
2012    21      3       1.552124        215.4608
2012    21      4       1.593712        217.8829
2012    21      5       1.778644        227.7493
2012    21      6       2.475038        253.2412
2012    21      7       2.789573        259.6137
2012    22      0       2.617547        256.881
2012    22      1       2.477634        254.3918
2012    22      2       2.644405        257.402
2012    22      3       2.703477        258.1043
2012    22      4       2.882061        261.0166
2012    22      5       3.243002        265.8172
2012    22      6       3.402627        267.3797
2012    22      7       2.972936        262.4269
2012    23      0       2.77822         260.2753
2012    23      1       2.751904        260.3815
2012    23      2       2.73432         260.373
2012    23      3       2.962413        263.9159
2012    23      4       3.412114        268.7617
2012    23      5       3.593385        270.3135
2012    23      6       3.874255        272.1322
2012    23      7       3.54804         270.1077
2012    24      0       3.038082        265.3402
2012    24      1       3.130652        266.2187
2012    24      2       3.461419        269.8678
2012    24      3       3.907345        273.2572
2012    24      4       3.991418        273.5697
2012    24      5       3.428968        269.9966
2012    24      6       3.988341        274.1865
2012    24      7       4.344244        275.9632
2012    25      0       3.269992        268.5199
2012    25      1       3.004625        265.0475
2012    25      2       3.120303        266.2955
2012    25      3       3.056631        265.7936
2012    25      4       3.58964         271.0671
2012    25      5       3.60064         271.0934
2012    25      6       3.660326        270.8958
2012    25      7       3.46298         269.0466
2012    26      0       2.93604         263.3748
2012    26      1       2.556319        256.3239
2012    26      2       2.312281        249.5616
2012    26      3       2.069626        242.4932
2012    26      4       2.196212        247.5119
2012    26      5       2.384748        253.2044
2012    26      6       2.267102        250.0366
2012    26      7       2.006594        242.2163
2012    27      0       2.113055        245.7076
2012    27      1       1.836364        235.1315
2012    27      2       1.321617        206.0516
2012    27      3       1.241031        199.5483
2012    27      4       1.332152        205.9923
2012    27      5       1.247359        199.8074
2012    27      6       1.156249        192.4658
2012    27      7       1.203278        196.682
2012    28      0       1.388133        209.7002
2012    28      1       1.565197        219.8295
2012    28      2       1.501599        216.5073
2012    28      3       1.460379        214.2814
2012    28      4       1.621146        223.8375
2012    28      5       1.729343        229.8893
2012    28      6       2.199366        248.3011
2012    28      7       2.655567        259.6477
2012    29      0       2.879474        263.6517
2012    29      1       2.748877        261.0213
2012    29      2       2.340275        251.918
2012    29      3       2.038723        242.8301
2012    29      4       2.321403        251.1302
2012    29      5       3.292112        267.6701
2012    29      6       4.519957        275.3872
2012    29      7       4.2551          274.4118
2012    30      0       3.52419         269.9158
2012    30      1       3.3116          267.7863
2012    30      2       3.144336        265.7726
2012    30      3       2.93761         263.0084
2012    30      4       2.754522        260.8026
2012    30      5       2.599635        258.2755
2012    30      6       2.984871        264.918
2012    30      7       3.437988        270.5231
2012    31      0       4.194838        275.5035
2012    31      1       4.520642        276.2095
2012    31      2       3.627784        270.8081
2012    31      3       3.123688        266.4911
2012    31      4       3.227884        267.9365
2012    31      5       4.79352         277.5442
2012    31      6       3.432187        269.0454
2012    31      7       3.689906        272.3679
2013    1       0       2.463154        253.7396
2013    1       1       2.435568        252.3598
2013    1       2       2.591656        255.3946
2013    1       3       3.112707        263.9961
2013    1       4       2.565558        255.0425
2013    1       5       2.349924        249.2265
2013    1       6       2.272254        247.4139
2013    1       7       2.524946        255.3968
2013    2       0       2.384479        251.9554
2013    2       1       2.316221        249.7407
2013    2       2       2.379006        251.0324
2013    2       3       1.653161        223.6985
2013    2       4       1.570307        218.6426
2013    2       5       2.572428        255.3647
2013    2       6       3.442874        267.54
2013    2       7       3.713299        269.3675
2013    3       0       3.229364        265.1653
2013    3       1       3.409533        267.5434
2013    3       2       3.453151        267.4802
2013    3       3       2.99515         262.3592
2013    3       4       2.543293        255.0052
2013    3       5       2.645482        257.8134
2013    3       6       3.322244        267.9667
2013    3       7       3.496468        269.165
2013    4       0       3.277063        267.1417
2013    4       1       3.304359        267.5636
2013    4       2       3.369229        268.0945
2013    4       3       3.564689        269.8555
2013    4       4       3.785852        271.9881
2013    4       5       3.898753        272.3946
2013    4       6       3.713106        270.9483
2013    4       7       3.830235        271.8509
2013    5       0       3.720158        270.9606
2013    5       1       4.218012        274.5208
2013    5       2       4.50951         275.5993
2013    5       3       3.628008        270.4354
2013    5       4       3.903999        271.7311
2013    5       5       3.673051        270.1345
2013    5       6       4.542432        275.6026
2013    5       7       5.012278        278.0026
2013    6       0       4.009498        273.8104
2013    6       1       3.535259        269.8772
2013    6       2       2.597925        257.3967
2013    6       3       2.066702        243.145
2013    6       4       1.615974        224.2184
2013    6       5       1.469975        215.0434
2013    6       6       1.89676         237.0425
2013    6       7       1.72951         228.1395
2013    7       0       1.761816        229.3006
2013    7       1       1.643048        223.5417
2013    7       2       1.79851         231.0307
2013    7       3       2.224639        245.9748
2013    7       4       2.750764        258.3861
2013    7       5       3.818232        270.7855
2013    7       6       3.818729        271.3272
2013    7       7       3.889255        271.5045
2013    8       0       3.140276        263.5855
2013    8       1       2.716724        256.7925
2013    8       2       2.410213        250.0166
2013    8       3       2.400036        249.8176
2013    8       4       2.462602        251.4312
2013    8       5       2.991936        260.7473
2013    8       6       3.370185        265.043
2013    8       7       3.271609        263.4493
2013    9       0       2.985463        258.6385
2013    9       1       2.363132        245.5368
2013    9       2       1.608123        217.3337
2013    9       3       1.373772        204.5424
2013    9       4       1.030982        178.0874
2013    9       5       0.9546315       171.0266
2013    9       6       1.296205        200.6897
2013    9       7       1.057805        180.7196
2013    10      0       0.5599763       121.1413
2013    10      1       0.506362        112.4798
2013    10      2       0.3515784       85.3974
2013    10      3       0.2702347       68.80533
2013    10      4       0.2748701       69.68451
2013    10      5       0.4105839       95.74266
2013    10      6       0.8387171       158.605
2013    10      7       0.7171778       143.6979
2013    11      0       0.3592831       86.43002
2013    11      1       0.2899079       72.53812
2013    11      2       0.2930054       72.87634
2013    11      3       0.3070706       75.28471
2013    11      4       0.331369        79.16764
2013    11      5       0.335897        80.16205
2013    11      6       0.4602924       103.4973
2013    11      7       0.4564201       102.8873
2013    12      0       0.2982544       72.27956
2013    12      1       0.3297738       77.66146
2013    12      2       0.3792778       86.11925
2013    12      3       0.4665229       100.3954
2013    12      4       0.5320996       110.4931
2013    12      5       0.5896991       119.083
2013    12      6       0.6443114       127.6023
2013    12      7       0.6940732       133.9968
2013    13      0       0.6542756       128.1723
2013    13      1       0.5917112       119.6971
2013    13      2       0.5940717       120.0773
2013    13      3       0.4915938       105.8194
2013    13      4       0.4939982       107.0436
2013    13      5       0.5318661       112.7715
2013    13      6       0.6222243       125.7059
2013    13      7       0.6996451       136.9073
2013    14      0       0.7905734       148.596
2013    14      1       0.929875        164.5198
2013    14      2       1.147349        187.5661
2013    14      3       1.365677        205.8972
2013    14      4       1.355095        205.3123
2013    14      5       1.413033        209.9011
2013    14      6       1.662618        224.8763
2013    14      7       1.862128        234.0343
2013    15      0       2.113278        242.9882
2013    15      1       2.186461        244.667
2013    15      2       2.189619        244.5533
2013    15      3       2.232482        245.6754
2013    15      4       2.090798        241.5872
2013    15      5       2.090009        241.5641
2013    15      6       2.530491        253.69
2013    15      7       2.985836        261.6748
2013    16      0       2.983524        261.1986
2013    16      1       2.632099        254.4622
2013    16      2       2.379324        248.5401
2013    16      3       2.257892        244.8867
2013    16      4       2.279062        245.39
2013    16      5       2.504314        250.9979
2013    16      6       2.957641        259.0528
2013    16      7       3.031564        260.5155
2013    17      0       3.315829        265.2074
2013    17      1       3.912056        270.431
2013    17      2       3.72727         268.8
2013    17      3       3.382637        266.9001
2013    17      4       3.342624        266.6308
2013    17      5       3.029005        262.5025
2013    17      6       3.404474        266.3697
2013    17      7       3.87196         270.2454
2013    18      0       4.190147        272.7665
2013    18      1       3.457779        266.9032
2013    18      2       3.454162        266.4861
2013    18      3       3.842823        270.4278
2013    18      4       3.649061        269.0477
2013    18      5       2.391832        249.6473
2013    18      6       2.889947        258.881
2013    18      7       3.198806        263.7974
2013    19      0       3.157973        263.6783
2013    19      1       2.820526        259.3597
2013    19      2       2.334963        248.5598
2013    19      3       2.019724        239.5555
2013    19      4       2.12423         242.6524
2013    19      5       2.913849        259.6452
2013    19      6       3.366412        266.5517
2013    19      7       3.933186        271.9663
2013    20      0       3.533676        269.3615
2013    20      1       1.739479        226.5857
2013    20      2       1.655229        222.4869
2013    20      3       1.655953        223.5562
2013    20      4       1.704796        226.9942
2013    20      5       1.862822        234.6121
2013    20      6       2.250139        247.6129
2013    20      7       2.045285        240.4601
2013    21      0       1.704353        226.2172
2013    21      1       1.450929        212.1273
2013    21      2       1.236686        197.4671
2013    21      3       0.9116696       167.8156
2013    21      4       0.8768625       163.9494
2013    21      5       1.17234         192.9832
2013    21      6       1.399551        210.2328
2013    21      7       0.8926984       166.4403
2013    22      0       1.127761        189.8902
2013    22      1       2.000671        240.3856
2013    22      2       2.514334        254.4651
2013    22      3       1.836416        233.435
2013    22      4       1.715247        227.492
2013    22      5       1.73133         227.1107
2013    22      6       2.221718        246.0299
2013    22      7       2.018247        239.4755
2013    23      0       1.603265        220.8718
2013    23      1       1.265287        197.7622
2013    23      2       1.103004        184.2288
2013    23      3       1.032599        177.526
2013    23      4       0.8973866       163.6306
2013    23      5       0.7424341       144.9955
2013    23      6       0.6957029       139.3226
2013    23      7       0.6177802       128.4166
2013    24      0       0.4851097       107.2806
2013    24      1       0.4513752       101.8841
2013    24      2       0.3641688       86.5253
2013    24      3       0.334454        80.91301
2013    24      4       0.3569406       85.16619
2013    24      5       0.3493877       84.19495
2013    24      6       0.3347566       81.51667
2013    24      7       0.3099063       76.85762
2013    25      0       0.3014295       75.2728
2013    25      1       0.3318196       81.51035
2013    25      2       0.371257        89.20276
2013    25      3       0.4208866       98.44659
2013    25      4       0.494065        111.3503
2013    25      5       0.5928252       127.6341
2013    25      6       1.179673        194.7737
2013    25      7       2.016999        241.5404
2013    26      0       1.553787        220.6116
2013    26      1       1.161791        192.9867
2013    26      2       1.093229        186.7008
2013    26      3       0.8346639       159.5238
2013    26      4       0.7184669       144.7446
2013    26      5       1.007505        178.6906
2013    26      6       1.352386        208.0309
2013    26      7       0.9766035       176.1012
2013    27      0       0.5243879       117.0977
2013    27      1       0.4462464       102.8822
2013    27      2       0.5485316       119.6127
2013    27      3       0.6650483       136.6015
2013    27      4       0.6607599       135.9128
2013    27      5       1.32699         203.4534
2013    27      6       2.118692        243.686
2013    27      7       2.884878        261.84
2013    28      0       3.676165        270.6183
2013    28      1       3.239485        266.9312
2013    28      2       2.520234        255.6408
2013    28      3       2.868898        262.7334
2013    28      4       2.809622        262.1775
2013    28      5       1.853443        235.9173
2013    28      6       2.289606        250.924
2013    28      7       2.520062        256.4667
2013    29      0       1.975144        240.7577
2013    29      1       2.217297        249.1153
2013    29      2       1.891278        237.1289
2013    29      3       1.427247        213.3678
2013    29      4       1.153476        193.0466
2013    29      5       1.318705        205.8302
2013    29      6       1.936304        238.9311
2013    29      7       1.969092        239.6705
2013    30      0       1.243096        199.6272
2013    30      1       1.368239        208.6013
2013    30      2       1.204831        196.2466
2013    30      3       1.374232        208.0096
2013    30      4       1.737764        228.7146
2013    30      5       2.404287        252.2897
2013    30      6       3.378628        267.6169
2013    30      7       3.808283        271.3945
2013    31      0       3.420468        268.342
2013    31      1       4.210686        273.6228
2013    31      2       3.986882        273.007
2013    31      3       3.587335        270.6017
2013    31      4       2.66189         258.6848
2013    31      5       2.353992        251.2432
2013    31      6       2.915612        262.0011
2013    31      7       2.688628        258.3867
2014    1       0       4.830484        278.172
2014    1       1       4.767118        277.302
2014    1       2       4.356832        275.5834
2014    1       3       3.333907        268.753
2014    1       4       3.34681         268.9266
2014    1       5       3.466534        269.6766
2014    1       6       3.640919        270.8549
2014    1       7       3.55709         270.1517
2014    2       0       4.603884        277.3547
2014    2       1       4.369391        275.2861
2014    2       2       3.089019        264.7781
2014    2       3       1.491568        215.1237
2014    2       4       0.5980541       126.4907
2014    2       5       0.4498162       102.9891
2014    2       6       0.3988384       94.70273
2014    2       7       0.2779167       70.63101
2014    3       0       0.230106        59.54953
2014    3       1       0.2480545       63.08673
2014    3       2       0.2007089       54.01351
2014    3       3       0.1693957       47.10973
2014    3       4       0.1708815       47.41887
2014    3       5       0.1914423       51.90342
2014    3       6       0.1968435       53.12106
2014    3       7       0.18333         50.14416
2014    4       0       0.2228708       58.35777
2014    4       1       0.2480255       63.46378
2014    4       2       0.3397913       81.22773
2014    4       3       0.3801595       88.74173
2014    4       4       0.3998654       92.39333
2014    4       5       0.3993981       92.41703
2014    4       6       0.4398815       99.77313
2014    4       7       0.4708206       104.7811
2014    5       0       0.4331537       97.8772
2014    5       1       0.3474861       83.53506
2014    5       2       0.2442716       63.20194
2014    5       3       0.1714796       47.24007
2014    5       4       0.161364        44.45186
2014    5       5       0.1814306       48.69937
2014    5       6       0.3057079       76.0285
2014    5       7       0.3554796       84.95642
2014    6       0       0.2252333       58.9011
2014    6       1       0.2477502       63.03397
2014    6       2       0.2413727       62.23481
2014    6       3       0.2561627       65.2107
2014    6       4       0.2780504       69.17994
2014    6       5       0.3465428       82.91438
2014    6       6       0.5137966       112.9931
2014    6       7       0.4189268       96.48884
2014    7       0       0.2843828       70.13544
2014    7       1       0.2911879       71.29356
2014    7       2       0.3265377       77.65731
2014    7       3       0.3017037       73.14707
2014    7       4       0.258495        65.12331
2014    7       5       0.2966501       72.59774
2014    7       6       0.5042225       109.8563
2014    7       7       0.6764341       133.52
2014    8       0       0.6135852       122.8252
2014    8       1       0.5853077       118.8891
2014    8       2       0.7266006       139.8933
2014    8       3       0.7143166       138.8819
2014    8       4       0.7027321       138.1496
2014    8       5       0.8564242       158.5035
2014    8       6       1.124269        186.0563
2014    8       7       0.9744224       171.9309
2014    9       0       0.5758523       122.7307
2014    9       1       0.5331722       116.1734
2014    9       2       0.5534605       119.4224
2014    9       3       0.5155405       113.585
2014    9       4       0.4576802       104.0815
2014    9       5       0.6472627       133.8124
2014    9       6       0.8123469       156.0976
2014    9       7       0.7656498       150.5642
2014    10      0       0.4974263       111.5717
2014    10      1       0.4869705       109.1524
2014    10      2       0.3545705       86.01158
2014    10      3       0.2609742       67.69149
2014    10      4       0.245899        64.68405
2014    10      5       0.2739404       70.29527
2014    10      6       0.3574123       87.0107
2014    10      7       0.3639709       88.45721
2014    11      0       0.2199183       59.15633
2014    11      1       0.2252819       60.03608
2014    11      2       0.2998176       75.48475
2014    11      3       0.4079525       95.79382
2014    11      4       0.7901642       151.6829
2014    11      5       1.140093        187.8506
2014    11      6       1.135478        187.9578
2014    11      7       0.9956886       175.1268
2014    12      0       0.712765        141.9409
2014    12      1       0.5725409       121.6244
2014    12      2       0.4852843       107.7677
2014    12      3       0.4625382       103.9145
2014    12      4       0.5346818       115.9333
2014    12      5       0.6214503       129.1215
2014    12      6       0.7396534       145.299
2014    12      7       0.7025148       139.557
2014    13      0       0.6500109       130.4432
2014    13      1       0.6899452       134.6952
2014    13      2       0.7917333       147.3056
2014    13      3       0.7660332       144.7698
2014    13      4       0.7202325       139.6166
2014    13      5       0.6840958       134.7297
2014    13      6       0.646792        129.226
2014    13      7       0.6080594       123.9271
2014    14      0       0.6043056       123.507
2014    14      1       0.5978177       122.8485
2014    14      2       0.569247        119.5195
2014    14      3       0.5828769       122.1123
2014    14      4       0.6276009       129.2031
2014    14      5       0.8202184       155.3757
2014    14      6       1.231909        196.9679
2014    14      7       1.30505         202.9333
2014    15      0       1.493629        215.5601
2014    15      1       1.693079        226.2049
2014    15      2       1.909691        235.6929
2014    15      3       1.847656        233.3729
2014    15      4       1.769733        230.2623
2014    15      5       1.570745        220.539
2014    15      6       2.174409        246.0868
2014    15      7       1.868436        235.6612
2014    16      0       1.115568        188.5838
2014    16      1       1.083572        185.4472
2014    16      2       0.8472976       161.0349
2014    16      3       0.6372526       133.142
2014    16      4       0.5963696       127.3019
2014    16      5       0.6965768       141.9871
2014    16      6       1.851044        235.0375
2014    16      7       1.967154        239.8129
2014    17      0       0.733904        147.4088
2014    17      1       0.6914719       141.1917
2014    17      2       0.7378401       147.5111
2014    17      3       0.6100015       129.0411
2014    17      4       0.6259111       130.9241
2014    17      5       0.7947008       153.0946
2014    17      6       1.37157         208.0838
2014    17      7       1.396541        209.7683
2014    18      0       1.039752        180.2843
2014    18      1       1.306155        203.0453
2014    18      2       1.320298        204.2748
2014    18      3       1.299284        202.4061
2014    18      4       1.141492        190.2652
2014    18      5       1.148959        191.4582
2014    18      6       2.040397        242.348
2014    18      7       2.645948        258.5864
2014    19      0       2.388865        253.3037
2014    19      1       2.067429        243.5978
2014    19      2       2.040976        242.3754
2014    19      3       1.803497        233.0895
2014    19      4       2.167969        247.2631
2014    19      5       2.804883        262.2184
2014    19      6       3.166492        267.6925
2014    19      7       3.256487        269.0581
2014    20      0       4.076582        275.0965
2014    20      1       4.32858         275.5135
2014    20      2       3.669086        270.6465
2014    20      3       3.17468         265.2428
2014    20      4       3.101052        264.5615
2014    20      5       3.29837         267.2857
2014    20      6       3.390817        268.9804
2014    20      7       3.313817        268.1442
2014    21      0       3.252312        267.3474
2014    21      1       3.648668        271.0289
2014    21      2       3.825656        272.7641
2014    21      3       3.76098         272.5958
2014    21      4       4.080109        273.8192
2014    21      5       4.246595        274.1796
2014    21      6       4.039391        271.7309
2014    21      7       3.679296        269.133
2014    22      0       3.116713        263.7197
2014    22      1       2.96002         260.6664
2014    22      2       2.775532        257.9906
2014    22      3       2.125035        243.5707
2014    22      4       1.777618        230.9707
2014    22      5       1.696146        227.311
2014    22      6       2.055419        242.6239
2014    22      7       1.78737         231.8845
2014    23      0       1.606593        222.7398
2014    23      1       1.695724        226.8215
2014    23      2       1.487646        215.278
2014    23      3       1.16794         192.5434
2014    23      4       0.9561496       172.7857
2014    23      5       1.011223        178.4544
2014    23      6       1.836772        233.4721
2014    23      7       1.906807        236.6071
2014    24      0       0.8692741       163.8249
2014    24      1       0.6787297       139.7668
2014    24      2       0.7084323       143.6097
2014    24      3       0.6032175       128.645
2014    24      4       0.4458795       103.8051
2014    24      5       0.6661996       139.2174
2014    24      6       1.401397        210.1749
2014    24      7       1.826604        233.691
2014    25      0       1.262612        201.0979
2014    25      1       0.8472355       161.8603
2014    25      2       0.899806        166.9892
2014    25      3       0.868457        162.8349
2014    25      4       0.9731693       173.7486
2014    25      5       1.491642        216.4601
2014    25      6       2.842776        261.2146
2014    25      7       3.768554        271.072
2014    26      0       3.507481        269.1576
2014    26      1       3.415492        267.9778
2014    26      2       3.71603         270.1046
2014    26      3       3.511081        268.0257
2014    26      4       3.464724        266.7673
2014    26      5       3.759732        268.4352
2014    26      6       3.708715        269.0061
2014    26      7       3.730454        268.8856
2014    27      0       3.539809        267.1042
2014    27      1       3.123807        263.2865
2014    27      2       2.701706        257.4
2014    27      3       2.731066        257.8655
2014    27      4       2.820698        258.8388
2014    27      5       3.10345         262.501
2014    27      6       2.727023        257.9381
2014    27      7       2.603914        255.3354
2014    28      0       3.077664        262.0759
2014    28      1       2.964957        259.088
2014    28      2       2.801574        257.0451
2014    28      3       2.025186        238.5981
2014    28      4       1.259501        198.2147
2014    28      5       1.325251        202.0199
2014    28      6       1.954873        234.5443
2014    28      7       2.113991        240.4109
2014    29      0       2.017381        237.483
2014    29      1       2.256577        245.3313
2014    29      2       1.929098        233.7392
2014    29      3       2.222764        244.2174
2014    29      4       2.397628        249.3487
2014    29      5       2.832459        258.0107
2014    29      6       3.152647        262.7879
2014    29      7       2.489033        252.0056
2014    30      0       2.039578        239.1962
2014    30      1       2.2062          244.9279
2014    30      2       2.574898        255.2175
2014    30      3       2.569624        255.7532
2014    30      4       2.382959        250.2477
2014    30      5       2.932463        260.3616
2014    30      6       3.412798        266.5259
2014    30      7       3.277213        265.2364
2014    31      0       3.093822        263.9859
2014    31      1       3.284819        265.8037
2014    31      2       3.502085        267.3414
2014    31      3       3.421817        266.5702
2014    31      4       3.162275        264.2052
2014    31      5       3.189794        264.4905
2014    31      6       3.086795        263.7152
2014    31      7       2.91126         261.3307
2015    1       0       2.171866        245.5774
2015    1       1       2.086003        243.4935
2015    1       2       2.203375        247.1062
2015    1       3       2.397392        252.2562
2015    1       4       2.552542        255.762
2015    1       5       3.009674        263.6992
2015    1       6       4.104889        273.8449
2015    1       7       4.127052        274.3996
2015    2       0       3.840825        272.5755
2015    2       1       3.686784        271.49
2015    2       2       3.104755        265.8218
2015    2       3       2.849614        261.8991
2015    2       4       2.420218        253.4915
2015    2       5       2.254137        249.2396
2015    2       6       2.438911        253.468
2015    2       7       2.61974         257.4879
2015    3       0       2.519818        255.5361
2015    3       1       2.667508        258.5386
2015    3       2       2.5127          255.2627
2015    3       3       2.47717         254.3852
2015    3       4       2.789308        260.7748
2015    3       5       2.763208        259.8324
2015    3       6       3.054925        264.6705
2015    3       7       3.356702        268.283
2015    4       0       3.339502        268.3552
2015    4       1       3.005941        264.7699
2015    4       2       2.930816        263.6774
2015    4       3       2.790571        261.6464
2015    4       4       2.854625        262.7338
2015    4       5       3.159642        266.5891
2015    4       6       3.936754        273.3782
2015    4       7       4.830154        276.9565
2015    5       0       3.733637        271.726
2015    5       1       3.59275         270.7633
2015    5       2       3.631674        271.0766
2015    5       3       3.058689        264.5969
2015    5       4       2.237141        248.4283
2015    5       5       1.533975        219.7085
2015    5       6       2.320587        252.4942
2015    5       7       2.006558        242.4853
2015    6       0       1.174164        196.5791
2015    6       1       1.067403        186.4521
2015    6       2       0.9741101       176.5039
2015    6       3       0.9882057       177.5121
2015    6       4       0.8025078       156.7512
2015    6       5       0.7251829       146.682
2015    6       6       1.273684        203.2706
2015    6       7       1.478066        216.2555
2015    7       0       0.7096469       144.671
2015    7       1       0.4972193       111.2521
2015    7       2       0.5800662       124.4013
2015    7       3       0.6462955       134.2379
2015    7       4       0.4920509       110.3606
2015    7       5       0.4687845       106.7253
2015    7       6       0.9970469       177.6957
2015    7       7       1.360466        207.5966
2015    8       0       0.6605662       137.551
2015    8       1       0.4521082       103.6803
2015    8       2       0.4386473       101.1546
2015    8       3       0.407439        95.36895
2015    8       4       0.3984761       93.9727
2015    8       5       0.432178        100.0119
2015    8       6       0.5163523       114.6435
2015    8       7       0.4641229       105.5808
2015    9       0       0.4125511       96.62219
2015    9       1       0.3876972       92.66729
2015    9       2       0.3579856       87.02469
2015    9       3       0.2997623       75.51776
2015    9       4       0.3245058       80.34059
2015    9       5       0.3659972       88.08749
2015    9       6       0.3847391       91.66975
2015    9       7       0.3019413       75.25798
2015    10      0       0.2499795       64.26258
2015    10      1       0.2137084       56.43726
2015    10      2       0.2007585       53.52416
2015    10      3       0.2365043       61.46511
2015    10      4       0.3055877       76.40504
2015    10      5       0.4125607       97.47094
2015    10      6       0.7316278       147.5052
2015    10      7       0.8450789       161.1453
2015    11      0       0.5471587       121.6447
2015    11      1       0.3466688       86.12505
2015    11      2       0.1790958       49.77166
2015    11      3       0.1457397       41.60394
2015    11      4       0.1732171       48.1378
2015    11      5       0.201           54.46586
2015    11      6       0.2833807       72.64801
2015    11      7       0.5164269       116.3039
2015    12      0       0.2236254       59.8551
2015    12      1       0.218615        58.43341
2015    12      2       0.2489011       64.84731
2015    12      3       0.2476207       64.48909
2015    12      4       0.2658923       68.20289
2015    12      5       0.2712624       69.36605
2015    12      6       0.2628015       68.05048
2015    12      7       0.1921575       52.83627
2015    13      0       0.1545694       44.1145
2015    13      1       0.1342055       39.2093
2015    13      2       0.1428788       41.35774
2015    13      3       0.1661099       46.84647
2015    13      4       0.1922642       52.82182
2015    13      5       0.2081577       56.33292
2015    13      6       0.412514        98.27774
2015    13      7       0.4623393       107.1333
2015    14      0       0.3577309       87.73031
2015    14      1       0.2998615       76.52287
2015    14      2       0.2312211       61.68568
2015    14      3       0.1976342       54.19288
2015    14      4       0.1828676       50.91512
2015    14      5       0.1881311       52.06226
2015    14      6       0.3698454       90.2952
2015    14      7       0.4816349       110.1628
2015    15      0       0.4628216       106.1415
2015    15      1       0.4399725       102.0323
2015    15      2       0.3516543       85.89546
2015    15      3       0.2726267       70.00773
2015    15      4       0.2412789       63.5822
2015    15      5       0.3150741       79.14643
2015    15      6       0.7026349       143.7655
2015    15      7       0.8377782       160.9284
2015    16      0       0.5979482       129.0122
2015    16      1       0.280149        72.4183
2015    16      2       0.362767        88.67991
2015    16      3       0.416675        98.46561
2015    16      4       0.4898048       111.1406
2015    16      5       0.9175129       169.1997
2015    16      6       1.362741        208.4921
2015    16      7       1.622027        224.1054
2015    17      0       1.514113        218.5077
2015    17      1       1.064716        184.3465
2015    17      2       0.6663225       137.8085
2015    17      3       0.6038088       128.7937
2015    17      4       0.6667217       138.2949
2015    17      5       0.8974159       167.5164
2015    17      6       1.506722        217.9797
2015    17      7       1.807925        233.5754
2015    18      0       1.500292        217.8083
2015    18      1       1.364581        208.6271
2015    18      2       1.549749        219.8631
2015    18      3       1.641676        225.2649
2015    18      4       1.735718        230.2211
2015    18      5       2.16013         246.5424
2015    18      6       3.029632        264.921
2015    18      7       2.44844         254.9378
2015    19      0       2.075499        244.171
2015    19      1       2.249967        249.2635
2015    19      2       2.061316        243.5268
2015    19      3       1.914884        237.9249
2015    19      4       1.720849        229.3315
2015    19      5       1.70551         228.7825
2015    19      6       3.044587        265.1511
2015    19      7       2.601269        257.7839
2015    20      0       1.905029        238.015
2015    20      1       1.918081        238.7563
2015    20      2       2.105752        245.4183
2015    20      3       1.91605         238.3028
2015    20      4       1.516588        218.4955
2015    20      5       1.38604         210.4357
2015    20      6       1.661838        228.0506
2015    20      7       1.834645        235.8939
2015    21      0       1.37179         210.5739
2015    21      1       1.427096        213.6762
2015    21      2       1.24871         200.2384
2015    21      3       1.471622        215.7149
2015    21      4       1.611537        223.8235
2015    21      5       1.868569        235.8325
2015    21      6       2.323791        251.463
2015    21      7       2.814265        261.6414
2015    22      0       3.160187        266.6379
2015    22      1       2.833843        262.3578
2015    22      2       2.562648        256.7919
2015    22      3       2.273682        250.1935
2015    22      4       2.405756        253.9572
2015    22      5       2.692965        260.2963
2015    22      6       3.02528         265.8032
2015    22      7       3.439286        270.3443
2015    23      0       3.880307        273.3657
2015    23      1       3.392043        269.312
2015    23      2       3.048577        265.4959
2015    23      3       3.052003        265.2252
2015    23      4       2.964668        264.1048
2015    23      5       3.087911        265.6573
2015    23      6       3.374033        268.9779
2015    23      7       3.519122        270.5453
2015    24      0       3.09711         265.9427
2015    24      1       2.908569        263.1391
2015    24      2       2.544338        256.4186
2015    24      3       1.864668        235.8174
2015    24      4       1.340004        206.958
2015    24      5       0.9707189       175.047
2015    24      6       1.385801        211.8904
2015    24      7       1.545804        221.4721
2015    25      0       1.030067        181.3964
2015    25      1       0.7914065       153.6334
2015    25      2       0.6976419       140.4729
2015    25      3       0.6348191       131.252
2015    25      4       0.6116334       127.2416
2015    25      5       0.6136375       127.5681
2015    25      6       1.083171        185.2013
2015    25      7       1.494076        216.6695
2015    26      0       1.011148        178.2967
2015    26      1       0.8088868       154.3321
2015    26      2       0.7095688       140.7287
2015    26      3       0.7011529       138.7885
2015    26      4       0.7740034       147.5115
2015    26      5       0.8449412       155.7557
2015    26      6       1.100761        183.0046
2015    26      7       1.285583        198.7692
2015    27      0       1.403559        206.8823
2015    27      1       1.944012        236.9307
2015    27      2       2.44798         252.982
2015    27      3       2.818625        260.233
2015    27      4       3.189566        265.5282
2015    27      5       3.206864        266.1054
2015    27      6       3.445491        268.7722
2015    27      7       3.796187        271.2299
2015    28      0       4.071159        273.5831
2015    28      1       4.050401        273.4722
2015    28      2       3.61878         270.674
2015    28      3       4.017437        272.8302
2015    28      4       4.013218        272.1924
2015    28      5       4.241823        273.6224
2015    28      6       4.364565        273.8025
2015    28      7       4.501755        274.1771
2015    29      0       4.018356        271.9215
2015    29      1       3.79971         270.5294
2015    29      2       3.821231        270.4968
2015    29      3       4.120428        271.6916
2015    29      4       3.972479        271.6252
2015    29      5       4.007925        273.3577
2015    29      6       4.036698        273.757
2015    29      7       2.636121        258.6616
2015    30      0       1.121708        189.8275
2015    30      1       0.5343885       118.7437
2015    30      2       0.3626028       88.85256
2015    30      3       0.3040745       77.46473
2015    30      4       0.4514158       105.4991
2015    30      5       1.313524        205.2452
2015    30      6       1.555244        220.4854
2015    30      7       1.294632        203.9581
2015    31      0       1.253616        200.1192
2015    31      1       1.247911        199.8079
2015    31      2       0.8126824       157.4778
2015    31      3       0.6359579       134.1445
2015    31      4       0.5270986       117.9452
2015    31      5       0.6579339       138.3247
2015    31      6       0.7699205       152.8288
2015    31      7       0.7210451       146.4392
2016    1       0       1.728104        228.1108
2016    1       1       1.714865        227.3192
2016    1       2       1.814235        231.6796
2016    1       3       2.103668        242.1804
2016    1       4       2.486995        253.2882
2016    1       5       3.187279        265.2788
2016    1       6       2.675953        255.7866
2016    1       7       2.479463        251.1095
2016    2       0       3.075254        262.8732
2016    2       1       3.446557        268.0331
2016    2       2       2.780587        259.1144
2016    2       3       1.764025        228.813
2016    2       4       1.418609        210.1662
2016    2       5       1.339881        205.0592
2016    2       6       1.937734        236.2588
2016    2       7       1.849899        232.9265
2016    3       0       1.13238         189.828
2016    3       1       0.7668286       151.5747
2016    3       2       0.6706303       138.3843
2016    3       3       0.5701845       122.4694
2016    3       4       0.6449336       131.7144
2016    3       5       0.9600822       169.1626
2016    3       6       1.599547        220.2709
2016    3       7       1.990406        236.8477
2016    4       0       1.983385        236.4868
2016    4       1       2.000451        237.822
2016    4       2       2.50948         251.3708
2016    4       3       2.707827        256.1272
2016    4       4       2.93313         260.3743
2016    4       5       3.363027        265.9978
2016    4       6       3.431094        266.987
2016    4       7       4.366558        274.1219
2016    5       0       2.813337        260.2309
2016    5       1       3.868746        270.45
2016    5       2       2.079302        241.4262
2016    5       3       1.414858        208.7979
2016    5       4       1.340264        205.011
2016    5       5       1.414187        210.4436
2016    5       6       2.102709        242.9974
2016    5       7       2.816697        258.8536
2016    6       0       3.191134        264.9344
2016    6       1       3.441029        267.6751
2016    6       2       4.012165        272.0024
2016    6       3       3.426567        266.5465
2016    6       4       3.090084        263.3127
2016    6       5       2.888174        260.8693
2016    6       6       2.822141        259.9548
2016    6       7       2.717601        258.7515
2016    7       0       2.418946        252.154
2016    7       1       1.943961        236.4626
2016    7       2       1.29899         201.7967
2016    7       3       0.7988924       155.3212
2016    7       4       0.4326285       101.242
2016    7       5       0.3557949       87.01217
2016    7       6       0.7351475       146.5948
2016    7       7       0.9227562       168.3838
2016    8       0       0.8132788       156.4123
2016    8       1       0.5354993       119.3761
2016    8       2       0.4139856       98.48323
2016    8       3       0.3362536       83.62019
2016    8       4       0.3211595       80.28527
2016    8       5       0.4167325       98.30411
2016    8       6       0.7606049       151.5058
2016    8       7       0.9245829       170.711
2016    9       0       0.9636662       174.6398
2016    9       1       0.8886538       167.1059
2016    9       2       0.8399861       161.3634
2016    9       3       0.7455158       149.2596
2016    9       4       0.5833048       126.2035
2016    9       5       0.7636255       151.3495
2016    9       6       1.266629        201.6939
2016    9       7       1.627526        223.8104
2016    10      0       2.202166        246.8667
2016    10      1       2.522282        255.1927
2016    10      2       2.038067        241.3527
2016    10      3       1.336679        205.1822
2016    10      4       1.339737        205.6214
2016    10      5       1.676889        226.0112
2016    10      6       2.378658        251.5094
2016    10      7       2.401181        252.0606
2016    11      0       1.711527        227.7603
2016    11      1       1.560012        219.7243
2016    11      2       1.469704        214.1369
2016    11      3       1.230389        196.977
2016    11      4       1.026542        179.3828
2016    11      5       1.36595         207.0955
2016    11      6       1.919141        237.0103
2016    11      7       1.422433        211.189
2016    12      0       1.202117        194.1099
2016    12      1       1.095054        185.1285
2016    12      2       1.032391        179.1385
2016    12      3       0.9013164       164.7264
2016    12      4       0.9213826       167.5223
2016    12      5       1.030484        179.381
2016    12      6       1.621434        222.4008
2016    12      7       1.59279         220.7969
2016    13      0       1.643481        223.3808
2016    13      1       1.822556        231.4004
2016    13      2       1.497591        214.1962
2016    13      3       1.160441        189.2502
2016    13      4       1.024874        175.8002
2016    13      5       0.9297051       165.5832
2016    13      6       1.032044        177.3248
2016    13      7       1.445786        211.6358
2016    14      0       1.773616        230.5079
2016    14      1       2.116061        243.5917
2016    14      2       2.180434        245.4542
2016    14      3       2.174777        244.8608
2016    14      4       2.369389        250.0966
2016    14      5       2.495206        253.1461
2016    14      6       2.888477        260.6408
2016    14      7       2.800747        259.3398
2016    15      0       2.345561        250.2482
2016    15      1       2.192629        245.6195
2016    15      2       2.315169        248.9336
2016    15      3       2.4747          252.8551
2016    15      4       2.560256        254.9656
2016    15      5       2.815143        260.3924
2016    15      6       3.339435        267.7437
2016    15      7       3.572098        269.5452
2016    16      0       3.440952        268.0507
2016    16      1       3.152754        265.079
2016    16      2       3.200645        265.6197
2016    16      3       3.151916        265.2957
2016    16      4       3.163843        265.4304
2016    16      5       3.308811        267.2743
2016    16      6       3.458401        269.1917
2016    16      7       3.345767        268.0469
2016    17      0       3.070689        265.331
2016    17      1       2.985125        263.8614
2016    17      2       3.044897        264.5593
2016    17      3       2.878692        262.2153
2016    17      4       2.672809        258.9325
2016    17      5       2.334018        251.742
2016    17      6       2.276321        250.2174
2016    17      7       2.262479        249.8561
2016    18      0       2.275409        249.8515
2016    18      1       2.153064        245.9034
2016    18      2       1.871988        235.7112
2016    18      3       1.76302         230.6205
2016    18      4       1.614359        223.0778
2016    18      5       1.68811         226.8685
2016    18      6       2.195972        247.4434
2016    18      7       2.370851        251.9673
2016    19      0       2.065951        242.7693
2016    19      1       1.876877        235.1287
2016    19      2       1.682132        226.0246
2016    19      3       1.564032        219.545
2016    19      4       1.655275        224.5454
2016    19      5       1.808627        232.4888
2016    19      6       2.604229        257.8847
2016    19      7       2.764269        261.0503
2016    20      0       2.077861        244.2213
2016    20      1       2.215791        248.4695
2016    20      2       2.211271        248.2915
2016    20      3       2.075974        243.8619
2016    20      4       2.112697        245.0614
2016    20      5       2.155853        246.9097
2016    20      6       2.587435        258.8801
2016    20      7       2.768634        262.4661
2016    21      0       2.222942        250.0533
2016    21      1       2.028937        243.1821
2016    21      2       1.921322        238.7813
2016    21      3       1.864636        236.1486
2016    21      4       2.006903        241.5388
2016    21      5       2.568919        257.9434
2016    21      6       3.415707        270.143
2016    21      7       4.32584         277.103
2016    22      0       4.185478        275.8724
2016    22      1       3.803605        272.4581
2016    22      2       3.624052        269.8242
2016    22      3       2.621648        257.1686
2016    22      4       2.128438        244.9237
2016    22      5       2.248327        249.4328
2016    22      6       2.790804        261.3774
2016    22      7       3.455726        270.0893
2016    23      0       3.520051        270.8772
2016    23      1       3.27874         268.2477
2016    23      2       2.686678        259.2127
2016    23      3       2.3129          251.1261
2016    23      4       2.190434        247.7264
2016    23      5       2.566943        257.4511
2016    23      6       3.110825        265.7811
2016    23      7       3.212688        267.3131
2016    24      0       2.531031        256.4654
2016    24      1       2.064573        243.5881
2016    24      2       1.850516        235.2756
2016    24      3       1.710611        228.7607
2016    24      4       1.633563        225.0628
2016    24      5       2.189583        248.2833
2016    24      6       3.131783        266.3434
2016    24      7       3.273162        267.967
2016    25      0       2.718703        260.4201
2016    25      1       2.568226        256.8114
2016    25      2       2.220768        248.0006
2016    25      3       1.990402        240.2106
2016    25      4       1.742811        230.0557
2016    25      5       2.107363        245.5311
2016    25      6       2.83867         262.7125
2016    25      7       3.301094        268.6225
2016    26      0       2.784755        261.4704
2016    26      1       2.943492        263.9964
2016    26      2       3.434796        269.4093
2016    26      3       3.629737        270.4616
2016    26      4       3.152387        265.9729
2016    26      5       2.780827        261.0828
2016    26      6       2.784283        262.0931
2016    26      7       2.687755        260.3146
2016    27      0       2.337125        252.8381
2016    27      1       2.335755        252.4142
2016    27      2       2.13146         246.2424
2016    27      3       2.236262        249.2042
2016    27      4       3.150314        266.5627
2016    27      5       3.171905        267.2488
2016    27      6       2.270107        250.5138
2016    27      7       3.019897        265.6887
2016    28      0       4.212347        275.7229
2016    28      1       3.737759        272.5708
2016    28      2       3.101014        266.2486
2016    28      3       2.476535        255.0348
2016    28      4       2.832715        261.6403
2016    28      5       4.16146         273.9199
2016    28      6       4.23762         273.831
2016    28      7       3.219268        266.1728
2016    29      0       2.943394        263.0228
2016    29      1       3.286274        266.9788
2016    29      2       3.176363        265.8098
2016    29      3       3.17131         266.0618
2016    29      4       4.144919        273.8199
2016    29      5       4.370451        274.5926
2016    29      6       4.330795        274.603
2016    29      7       3.528797        269.6766
2016    30      0       2.63564         257.9024
2016    30      1       2.627052        257.7754
2016    30      2       2.475913        254.2996
2016    30      3       1.708114        227.7716
2016    30      4       1.449575        213.4866
2016    30      5       1.53935         218.9019
2016    30      6       1.636695        224.4438
2016    30      7       1.279239        201.632
2016    31      0       0.9323522       170.7866
2016    31      1       0.8145333       156.8666
2016    31      2       0.7266035       145.8812
2016    31      3       0.5804055       125.8257
2016    31      4       0.5183202       116.3317
2016    31      5       0.7864697       154.5929
2016    31      6       1.448209        212.7144
2016    31      7       1.291232        201.6192
2017    1       0       3.187744        264.7538
2017    1       1       3.11697         264.0663
2017    1       2       2.839392        260.0032
2017    1       3       3.544688        268.5239
2017    1       4       2.908905        260.3118
2017    1       5       1.374926        208.5565
2017    1       6       1.781485        231.4322
2017    1       7       1.398162        211.1535
2017    2       0       1.173852        194.385
2017    2       1       0.9992179       178.1212
2017    2       2       0.9187117       169.5702
2017    2       3       1.131426        190.0349
2017    2       4       1.788698        232.3506
2017    2       5       2.250667        248.898
2017    2       6       2.37236         252.2544
2017    2       7       2.143882        246.2631
2017    3       0       2.437578        254.6206
2017    3       1       2.280714        250.4118
2017    3       2       2.503605        256.0726
2017    3       3       2.708263        259.9352
2017    3       4       2.792959        261.0833
2017    3       5       2.63301         257.8875
2017    3       6       3.071936        264.861
2017    3       7       4.229664        273.7266
2017    4       0       4.406389        274.4822
2017    4       1       4.372225        274.23
2017    4       2       4.003034        272.5075
2017    4       3       3.779179        270.9579
2017    4       4       3.492013        268.446
2017    4       5       3.643579        269.3016
2017    4       6       3.689337        269.2205
2017    4       7       3.359222        265.7103
2017    5       0       2.839689        258.538
2017    5       1       2.866626        259.0945
2017    5       2       2.916344        259.857
2017    5       3       2.509949        253.1806
2017    5       4       2.735505        258.1121
2017    5       5       2.293097        247.8579
2017    5       6       1.646828        224.245
2017    5       7       1.244624        199.155
2017    6       0       1.141312        190.6981
2017    6       1       0.9311611       170.4941
2017    6       2       0.8210261       157.9828
2017    6       3       0.7163827       144.6032
2017    6       4       0.5915175       126.7398
2017    6       5       0.4973985       111.6923
2017    6       6       0.6365442       133.5823
2017    6       7       0.6330755       133.3609
2017    7       0       0.3474264       84.87344
2017    7       1       0.3748508       89.77729
2017    7       2       0.4658733       105.9461
2017    7       3       0.4945548       110.5084
2017    7       4       0.4866378       108.9933
2017    7       5       0.5424363       118.1475
2017    7       6       1.264166        200.0615
2017    7       7       1.600636        221.5699
2017    8       0       1.059485        183.1379
2017    8       1       0.5985258       127.5481
2017    8       2       0.4785724       108.7767
2017    8       3       0.3289587       81.3509
2017    8       4       0.3350755       82.18347
2017    8       5       0.4461716       102.4615
2017    8       6       0.9422085       171.528
2017    8       7       1.105089        187.6538
2017    9       0       1.071524        184.2674
2017    9       1       1.286361        202.0605
2017    9       2       1.528597        218.3517
2017    9       3       1.873052        235.6743
2017    9       4       1.744048        229.3542
2017    9       5       1.987066        239.5066
2017    9       6       2.132094        244.918
2017    9       7       2.070473        243.0772
2017    10      0       1.623444        223.7603
2017    10      1       1.159871        192.3542
2017    10      2       1.387084        209.248
2017    10      3       1.539581        218.9567
2017    10      4       1.585977        222.0831
2017    10      5       1.584978        222.5813
2017    10      6       1.650697        225.9216
2017    10      7       1.713446        228.7923
2017    11      0       1.572504        221.0669
2017    11      1       1.443431        213.0869
2017    11      2       1.292188        202.8898
2017    11      3       1.211394        196.7843
2017    11      4       1.211877        196.8269
2017    11      5       1.176516        193.7538
2017    11      6       1.000982        177.4987
2017    11      7       0.7371947       147.3167
2017    12      0       1.031265        180.5575
2017    12      1       1.36004         207.7634
2017    12      2       1.197018        195.659
2017    12      3       0.9423136       171.9635
2017    12      4       0.7428812       148.6572
2017    12      5       0.5867845       126.8749
2017    12      6       0.5548128       122.2259
2017    12      7       0.483369        110.5465
2017    13      0       0.4642362       106.9559
2017    13      1       0.4991951       112.4997
2017    13      2       0.444333        103.1757
2017    13      3       0.4008562       95.38969
2017    13      4       0.4072234       96.57446
2017    13      5       0.3953497       94.4793
2017    13      6       0.3679859       89.59832
2017    13      7       0.317501        79.90793
2017    14      0       0.2985921       76.18852
2017    14      1       0.2368237       63.05098
2017    14      2       0.2333854       62.25943
2017    14      3       0.2215728       59.65532
2017    14      4       0.2029842       55.48144
2017    14      5       0.1886685       52.20276
2017    14      6       0.434697        102.4864
2017    14      7       0.4599928       106.8191
2017    15      0       0.5483346       121.2071
2017    15      1       0.8738626       164.7824
2017    15      2       0.9682933       174.5636
2017    15      3       0.9757737       174.816
2017    15      4       0.8983038       166.762
2017    15      5       1.182751        194.2631
2017    15      6       2.093513        244.0294
2017    15      7       2.341057        251.5977
2017    16      0       2.425451        253.2811
2017    16      1       2.359293        251.5408
2017    16      2       2.062045        242.7731
2017    16      3       1.920261        237.4451
2017    16      4       1.769613        231.1859
2017    16      5       1.93016         238.081
2017    16      6       2.13236         244.5794
2017    16      7       1.713522        228.3533
2017    17      0       1.484844        215.777
2017    17      1       1.356252        207.17
2017    17      2       0.9621919       173.6508
2017    17      3       0.797204        156.4022
2017    17      4       0.7484859       150.0971
2017    17      5       1.396131        210.1485
2017    17      6       1.133974        189.6875
2017    17      7       0.9729902       174.593
2017    18      0       1.039546        180.9766
2017    18      1       1.279141        200.97
2017    18      2       1.037632        180.7605
2017    18      3       0.7413425       148.014
2017    18      4       0.5471815       120.4646
2017    18      5       0.5161516       115.3761
2017    18      6       0.7268209       146.551
2017    18      7       0.5294482       118.0184
2017    19      0       0.2919596       74.85409
2017    19      1       0.2755556       71.10014
2017    19      2       0.2568149       66.84351
2017    19      3       0.2265256       60.56815
2017    19      4       0.2454979       64.29804
2017    19      5       0.2688683       69.10565
2017    19      6       0.5167523       115.2024
2017    19      7       0.5562935       121.7461
2017    20      0       0.6258052       132.198
2017    20      1       0.7184685       145.0502
2017    20      2       0.8307396       158.7389
2017    20      3       0.8474548       160.6377
2017    20      4       0.8643654       162.3202
2017    20      5       1.14136         189.5895
2017    20      6       1.395013        209.1488
2017    20      7       1.510208        216.2356
2017    21      0       1.873311        234.2296
2017    21      1       1.776143        230.4971
2017    21      2       1.952768        237.4489
2017    21      3       1.952998        237.0873
2017    21      4       1.949757        236.8778
2017    21      5       1.908947        235.4019
2017    21      6       1.964585        237.7033
2017    21      7       2.208808        245.8853
2017    22      0       2.563409        254.7879
2017    22      1       2.852727        260.5077
2017    22      2       2.848356        260.8358
2017    22      3       2.715035        258.5489
2017    22      4       2.756844        259.3664
2017    22      5       2.721035        258.9832
2017    22      6       2.911471        262.049
2017    22      7       3.275867        266.5166
2017    23      0       3.188889        265.3764
2017    23      1       2.718003        258.5426
2017    23      2       2.523542        254.3371
2017    23      3       2.533079        254.295
2017    23      4       2.41982         251.75
2017    23      5       2.297258        247.5896
2017    23      6       2.820859        258.62
2017    23      7       3.44319         266.8028
2017    24      0       3.420088        266.441
2017    24      1       3.355666        265.6678
2017    24      2       3.16209         264.234
2017    24      3       2.964353        262.0314
2017    24      4       3.063884        263.4244
2017    24      5       3.198009        265.6885
2017    24      6       2.943432        262.005
2017    24      7       2.734           258.817
2017    25      0       2.277239        249.2226
2017    25      1       2.256832        248.2943
2017    25      2       2.144336        244.2082
2017    25      3       1.886946        234.9084
2017    25      4       1.641082        223.6199
2017    25      5       1.517261        216.813
2017    25      6       1.728203        228.0433
2017    25      7       1.650013        224.6585
2017    26      0       1.461364        214.5677
2017    26      1       1.433243        212.7805
2017    26      2       1.266081        200.9856
2017    26      3       1.133469        189.9009
2017    26      4       1.267018        200.6963
2017    26      5       1.490295        215.8826
2017    26      6       2.249032        247.4434
2017    26      7       2.494368        254.0868
2017    27      0       2.453028        253.3092
2017    27      1       2.403987        252.6153
2017    27      2       2.387109        252.2574
2017    27      3       2.92186         261.755
2017    27      4       2.696035        258.3431
2017    27      5       2.891672        261.6893
2017    27      6       3.2267          266.0939
2017    27      7       3.125           265.2552
2017    28      0       2.937164        263.351
2017    28      1       2.881557        262.4586
2017    28      2       2.876049        262.0553
2017    28      3       3.168069        265.9202
2017    28      4       3.379929        268.1096
2017    28      5       3.293657        267.2281
2017    28      6       2.995863        263.3081
2017    28      7       2.620633        257.7741
2017    29      0       2.288673        250.1864
2017    29      1       2.274223        249.5457
2017    29      2       2.094625        243.6757
2017    29      3       1.673695        225.8388
2017    29      4       1.533911        217.1498
2017    29      5       1.663528        223.9812
2017    29      6       2.224793        246.1025
2017    29      7       2.702202        257.6118
2017    30      0       2.548516        254.1444
2017    30      1       2.665707        256.3287
2017    30      2       2.784191        258.5308
2017    30      3       3.042719        262.2552
2017    30      4       3.452292        267.0765
2017    30      5       3.17461         264.7226
2017    30      6       3.48592         268.4218
2017    30      7       3.422793        268.0602
2017    31      0       2.95331         263.2825
2017    31      1       2.54567         256.7702
2017    31      2       2.82195         262.0233
2017    31      3       3.213904        267.2629
2017    31      4       2.974143        264.2587
2017    31      5       2.902927        263.0745
2017    31      6       2.918145        263.1054
2017    31      7       3.37883         268.599
2018    1       0       3.207344        265.3682
2018    1       1       2.995309        262.54
2018    1       2       2.980087        262.2331
2018    1       3       2.914989        261.3641
2018    1       4       2.934939        261.6236
2018    1       5       2.967405        262.04
2018    1       6       3.23348         265.3679
2018    1       7       3.238139        265.341
2018    2       0       2.903076        261.1051
2018    2       1       2.84235         260.1491
2018    2       2       2.770132        258.8442
2018    2       3       2.755861        258.4478
2018    2       4       2.777956        259.0263
2018    2       5       2.813236        259.3773
2018    2       6       2.947424        261.8554
2018    2       7       2.418643        251.7981
2018    3       0       1.965802        237.9953
2018    3       1       1.471007        213.9011
2018    3       2       0.9598615       172.4576
2018    3       3       0.9110561       167.3408
2018    3       4       1.044783        181.0186
2018    3       5       1.33836         206.0237
2018    3       6       1.911568        237.4594
2018    3       7       1.771176        230.5886
2018    4       0       1.481717        215.1948
2018    4       1       1.735043        229.5201
2018    4       2       1.931511        237.9322
2018    4       3       1.975673        239.7584
2018    4       4       1.918447        237.6616
2018    4       5       2.785883        261.1664
2018    4       6       4.019966        273.113
2018    4       7       3.771426        271.4589
2018    5       0       3.307059        267.3361
2018    5       1       2.848363        260.955
2018    5       2       2.49497         254.2499
2018    5       3       2.292333        249.1128
2018    5       4       2.079728        242.6725
2018    5       5       2.568315        256.8652
2018    5       6       3.217252        266.0618
2018    5       7       3.058251        264.2665
2018    6       0       2.906219        262.1674
2018    6       1       2.835772        261.0153
2018    6       2       2.521134        255.2102
2018    6       3       2.339754        250.8368
2018    6       4       2.402444        252.6867
2018    6       5       2.770411        260.1039
2018    6       6       3.300724        267.6973
2018    6       7       3.187324        266.2304
2018    7       0       2.898472        262.4965
2018    7       1       3.041511        264.0538
2018    7       2       3.105828        264.4494
2018    7       3       3.071351        263.7925
2018    7       4       3.165693        264.8351
2018    7       5       3.089632        264.2056
2018    7       6       3.272075        266.265
2018    7       7       3.310185        266.7227
2018    8       0       3.073927        264.1372
2018    8       1       2.860349        260.8594
2018    8       2       2.714603        258.195
2018    8       3       2.637663        256.5012
2018    8       4       2.556944        255.0821
2018    8       5       2.474105        253.4477
2018    8       6       2.419167        251.9465
2018    8       7       2.214137        246.5655
2018    9       0       1.952203        236.9213
2018    9       1       1.829153        230.9601
2018    9       2       1.765219        227.9471
2018    9       3       1.787518        228.9642
2018    9       4       1.938374        236.0224
2018    9       5       2.239493        247.3363
2018    9       6       2.886439        261.5094
2018    9       7       3.647378        269.7937
2018    10      0       3.575498        269.6433
2018    10      1       3.066062        264.3059
2018    10      2       3.075522        264.4209
2018    10      3       3.294035        266.9295
2018    10      4       3.015097        263.7749
2018    10      5       3.069287        264.4374
2018    10      6       3.54977         269.4302
2018    10      7       4.179581        273.2957
2018    11      0       4.044869        272.7233
2018    11      1       3.970754        272.5259
2018    11      2       3.997715        272.7141
2018    11      3       3.912452        272.4259
2018    11      4       3.94523         272.8283
2018    11      5       3.633202        271.0515
2018    11      6       3.69742         272.5043
2018    11      7       4.041294        273.7646
2018    12      0       3.782493        271.9497
2018    12      1       3.776266        271.7245
2018    12      2       3.69213         270.9423
2018    12      3       3.48428         269.2383
2018    12      4       3.249696        267.2714
2018    12      5       3.275541        267.9762
2018    12      6       3.803041        272.2935
2018    12      7       3.579955        270.8549
2018    13      0       3.084895        266.2122
2018    13      1       2.846808        262.7918
2018    13      2       2.794815        261.8953
2018    13      3       2.760177        261.1952
2018    13      4       2.67731         260.045
2018    13      5       2.731996        261.5391
2018    13      6       3.350035        270.588
2018    13      7       3.036703        265.877
2018    14      0       2.838703        263.6682
2018    14      1       2.876263        265.0605
2018    14      2       3.331828        270.0814
2018    14      3       2.874018        263.1076
2018    14      4       3.363625        269.0221
2018    14      5       3.828645        272.4496
2018    14      6       4.001206        273.1927
2018    14      7       3.927945        272.5921
2018    15      0       3.78326         272.5203
2018    15      1       3.83554         272.858
2018    15      2       4.089144        274.1462
2018    15      3       4.332914        274.941
2018    15      4       3.817388        271.8322
2018    15      5       3.859115        271.7818
2018    15      6       4.02179         272.4905
2018    15      7       3.847226        271.8802
2018    16      0       3.557641        270.505
2018    16      1       4.093792        275.0377
2018    16      2       4.832988        277.7865
2018    16      3       3.750247        271.6869
2018    16      4       3.655113        270.4031
2018    16      5       3.279586        266.874
2018    16      6       3.264467        267.7078
2018    16      7       3.764446        272.4348
2018    17      0       3.681639        272.229
2018    17      1       3.548393        271.0273
2018    17      2       3.616433        270.78
2018    17      3       3.491908        268.9555
2018    17      4       3.168775        265.3346
2018    17      5       3.078635        264.7653
2018    17      6       3.943141        273.0748
2018    17      7       4.702833        276.5289
2018    18      0       4.628785        276.7839
2018    18      1       4.671474        277.3292
2018    18      2       4.667352        277.0211
2018    18      3       4.444896        276.1718
2018    18      4       3.709828        272.5454
2018    18      5       3.79591         272.5354
2018    18      6       3.592305        270.6078
2018    18      7       3.329254        268.0984
2018    19      0       3.534468        269.6184
2018    19      1       3.678823        271.1552
2018    19      2       3.612859        270.6286
2018    19      3       3.936298        272.9751
2018    19      4       3.695704        271.7329
2018    19      5       3.546764        269.7749
2018    19      6       4.114469        272.8083
2018    19      7       3.585245        269.1787
2018    20      0       3.444009        268.5781
2018    20      1       4.24392         274.7718
2018    20      2       4.142733        274.0489
2018    20      3       3.294987        267.6359
2018    20      4       2.96819         264.0096
2018    20      5       2.938312        263.1816
2018    20      6       2.425365        253.5191
2018    20      7       1.680289        227.1493
2018    21      0       1.136417        189.6234
2018    21      1       1.016733        177.7981
2018    21      2       1.120518        187.7313
2018    21      3       0.8866701       163.9911
2018    21      4       0.807258        154.3978
2018    21      5       0.844877        158.9642
2018    21      6       1.061485        182.5951
2018    21      7       1.139629        190.4271
2018    22      0       0.7214209       144.5172
2018    22      1       0.649808        133.9138
2018    22      2       0.7192515       143.5733
2018    22      3       0.759828        149.0207
2018    22      4       0.7659132       150.1757
2018    22      5       0.7634329       149.9637
2018    22      6       0.7634836       150.2426
2018    22      7       0.7580169       149.6716
2018    23      0       0.5921645       126.4508
2018    23      1       0.6285937       131.2594
2018    23      2       0.7051738       141.9769
2018    23      3       0.6713647       137.2278
2018    23      4       0.6850984       138.9427
2018    23      5       0.7185191       143.5035
2018    23      6       0.7784918       151.5239
2018    23      7       0.8116713       155.5694
2018    24      0       0.8807549       163.1506
2018    24      1       1.024862        177.9949
2018    24      2       1.179467        191.6173
2018    24      3       1.17307         190.9758
2018    24      4       1.392591        207.4401
2018    24      5       1.814986        230.6255
2018    24      6       2.350652        249.7736
2018    24      7       3.664283        269.081
2018    25      0       4.03239         272.085
2018    25      1       4.141441        273.6112
2018    25      2       4.144893        273.0991
2018    25      3       4.37919         274.4179
2018    25      4       4.706014        275.9163
2018    25      5       4.81783         276.4515
2018    25      6       4.470395        275.1566
2018    25      7       4.506554        276.008
2018    26      0       5.231201        278.2637
2018    26      1       5.193604        278.0392
2018    26      2       4.301044        274.7367
2018    26      3       4.396625        274.8275
2018    26      4       4.450268        275.5403
2018    26      5       4.488144        275.6146
2018    26      6       4.898967        276.6492
2018    26      7       4.868476        276.7444
2018    27      0       4.288521        274.9383
2018    27      1       4.465712        276.1675
2018    27      2       4.894818        278.3025
2018    27      3       3.920635        272.9194
2018    27      4       3.787998        271.9267
2018    27      5       3.995354        273.9159
2018    27      6       4.148067        274.8641
2018    27      7       3.812323        272.541
2018    28      0       3.707858        271.2294
2018    28      1       3.942401        272.1285
2018    28      2       3.275093        267.7113
2018    28      3       2.307036        251.1576
2018    28      4       1.927316        238.7883
2018    28      5       1.869751        236.7256
2018    28      6       2.722402        261.2031
2018    28      7       3.091795        265.803
2018    29      0       2.913485        263.556
2018    29      1       2.878966        263.4185
2018    29      2       3.753241        273.1057
2018    29      3       2.955745        263.698
2018    29      4       2.470107        253.037
2018    29      5       2.412595        252.55
2018    29      6       2.902105        263.1128
2018    29      7       3.242857        268.2858
2018    30      0       2.254106        249.1097
2018    30      1       1.764452        230.9275
2018    30      2       1.61747         223.2114
2018    30      3       2.074315        242.9134
2018    30      4       2.314406        250.1276
2018    30      5       1.998418        240.5011
2018    30      6       1.964014        239.8513
2018    30      7       1.970372        239.8307
2018    31      0       1.811751        233.6977
2018    31      1       1.464076        215.1677
2018    31      2       1.021039        180.2685
2018    31      3       0.5874849       127.211
2018    31      4       0.6603051       137.5245
2018    31      5       0.796006        156.0074
2018    31      6       1.026152        182.3127
2018    31      7       1.044533        184.0226
