####################################################################################################
# Month: 06Jun                                                                                     #
# Station: SAN                                                                                     #
# Frequency: 345 GHz                                                                               #
# Columns are: year    day     tau     Tb (K)                                                      #
####################################################################################################
2009    1       1.03610108      172.1496125
2009    2       1.11786683      181.960925
2009    3       1.25639767      190.9274
2009    4       1.44290886      199.056075
2009    5       0.40215272      88.65204875
2009    6       0.62967719      121.9086375
2009    7       0.54473768      116.01487
2009    8       0.75300829      135.5895525
2009    9       1.2077989       187.60825
2009    10      0.90208069      158.698825
2009    11      0.94488664      158.255325
2009    12      0.67579376      132.787575
2009    13      0.9552704       163.7855
2009    14      0.56899782      116.21160625
2009    15      0.6865453       130.44062625
2009    16      1.83529375      226.0503875
2009    17      1.70657563      221.187925
2009    18      1.67187762      221.9989875
2009    19      1.73304525      227.1432375
2009    20      1.20360405      177.60162875
2009    21      0.50016059      109.0696575
2009    22      0.31359158      76.9101625
2009    23      0.53588409      118.1670875
2009    24      0.61569036      129.6808125
2009    25      1.27552072      192.58795
2009    26      1.09480364      163.67685875
2009    27      0.64869261      132.46434875
2009    28      1.3794955       209.9770125
2009    29      2.05061562      240.8626125
2009    30      2.754395        261.4755375
2010    1       1.46944635      202.76915
2010    2       1.8419565       230.7110625
2010    3       1.547387        215.8478375
2010    4       1.85410288      234.5141875
2010    5       0.76641242      148.1014
2010    6       1.31900888      204.6553125
2010    7       1.11142775      185.891275
2010    8       0.75859759      142.38486625
2010    9       1.33913987      201.63595
2010    10      0.7734677       131.126355
2010    11      0.57146525      115.4406075
2010    12      0.87170328      151.8857375
2010    13      0.91787685      164.4255375
2010    14      0.63400893      129.85041875
2010    15      0.68536508      138.413125
2010    16      0.48948606      108.38604875
2010    17      0.24509381      63.44503625
2010    18      0.41817925      91.7589175
2010    19      0.39946004      91.875255
2010    20      0.2284481       60.3116275
2010    21      0.27800075      70.90194125
2010    22      0.28088516      70.512165
2010    23      0.39328241      87.59927
2010    24      0.55142212      120.3717125
2010    25      0.60129825      124.12870875
2010    26      0.87211698      161.4113875
2010    27      0.6573034       134.395275
2010    28      0.82068132      156.999075
2010    29      0.33179036      80.82645125
2010    30      0.21243155      58.07325375
2011    1       0.58428844      119.22079
2011    2       0.2425338       60.13587125
2011    3       0.32260028      76.5139525
2011    4       0.89484635      156.49875
2011    5       1.13218812      185.1719375
2011    6       0.45198242      94.29483875
2011    7       0.4082978       92.4396825
2011    8       0.32011089      77.24572875
2011    9       0.30740045      77.18093
2011    10      0.29309787      74.32649
2011    11      0.24016405      63.374795
2011    12      1.0503991       148.8770725
2011    13      1.00357202      172.8737875
2011    14      0.63568755      133.13275
2011    15      0.82186568      159.1843625
2011    16      0.58211271      123.33161
2011    17      1.03302825      166.24716625
2011    18      1.18209258      179.3744625
2011    19      1.05144355      170.263575
2011    20      0.53487241      118.712975
2011    21      0.53523671      118.287525
2011    22      0.48797948      111.31616125
2011    23      0.31992         80.4567075
2011    24      0.27359505      70.9210775
2011    25      0.25860771      67.91996875
2011    26      0.25090373      65.71257375
2011    27      0.75496562      145.0938625
2011    28      1.33460584      205.7545875
2011    29      0.9725475       171.7644375
2011    30      0.3695283       88.61941
2012    1       0.52297381      115.926975
2012    2       0.33449184      80.70366875
2012    3       0.24808905      65.0717075
2012    4       0.42532621      98.22663375
2012    5       0.44681324      100.78815125
2012    6       0.58909651      125.0564375
2012    7       0.55041595      118.4476625
2012    8       0.90590434      164.9120375
2012    9       0.58995379      123.43096
2012    10      0.43696788      100.87827875
2012    11      0.5613001       121.6358375
2012    12      0.43276972      100.4603675
2012    13      0.25692931      66.31312
2012    14      0.35158724      86.110975
2012    15      0.42846829      100.144935
2012    16      0.46535798      105.5066025
2012    17      0.50116011      107.47954625
2012    18      0.57388481      123.58841125
2012    19      0.26869655      69.8355075
2012    20      0.37097132      89.20281125
2012    21      0.45189735      103.8096225
2012    22      0.2833151       71.232705
2012    23      0.59207819      125.4252375
2012    24      0.43977495      100.41523375
2012    25      0.43473931      101.63624625
2012    26      0.34712648      85.55409875
2012    27      0.46055505      104.4168
2012    28      1.117864        190.469575
2012    29      0.87939752      164.1780625
2012    30      0.72524794      146.379675
2013    1       0.8184023       155.85705
2013    2       0.84838122      158.989975
2013    3       0.46944558      106.57785875
2013    4       0.47204679      106.4330525
2013    5       0.48056816      108.75931
2013    6       0.69160262      140.17365
2013    7       0.86050899      159.8717
2013    8       0.9460402       170.5535
2013    9       0.52077376      114.653335
2013    10      0.53607088      115.06802875
2013    11      0.93485891      162.08987625
2013    12      1.5027575       209.61675
2013    13      0.38482389      86.182895
2013    14      0.19165758      52.8161025
2013    15      0.22651465      60.26370625
2013    16      0.20889028      56.63371125
2013    17      0.25682919      66.70230625
2013    18      0.34668224      84.66714375
2013    19      0.39830804      93.824065
2013    20      0.49055949      107.5180975
2013    21      0.5794242       121.7203575
2013    22      0.46274616      104.62485875
2013    23      0.71213431      143.306425
2013    24      1.761593        219.4414375
2013    25      2.0137825       241.4123625
2013    26      1.77277962      231.53535
2013    27      1.71927288      224.3460875
2013    28      1.49280612      217.0715875
2013    29      1.692991        227.72675
2013    30      2.20265038      247.8460625
2014    1       0.27891256      70.78140125
2014    2       0.85990592      147.3506175
2014    3       0.24664001      61.28401125
2014    4       0.19347265      52.847535
2014    5       0.19042976      51.86595875
2014    6       0.29968709      74.8294975
2014    7       0.16815899      47.04366625
2014    8       0.45867015      104.62578625
2014    9       0.63683732      132.0159875
2014    10      0.5423253       118.1738
2014    11      0.37782334      90.40537125
2014    12      0.31806665      79.39587125
2014    13      0.61887571      123.34765875
2014    14      0.23519038      61.76855625
2014    15      0.39277092      92.36366875
2014    16      0.47492272      103.96854625
2014    17      0.76352771      148.4348
2014    18      0.52521869      114.28593375
2014    19      0.39159212      91.76256375
2014    20      0.56539754      118.85220625
2014    21      0.75996658      147.8547375
2014    22      0.49853399      110.14334625
2014    23      0.40774497      95.13522
2014    24      0.6576563       135.663875
2014    25      0.73077152      144.0377
2014    26      0.57065181      121.8453625
2014    27      1.17505754      190.105125
2014    28      0.86462639      160.40943125
2014    29      0.73624579      148.169875
2014    30      0.86084662      163.6115875
2015    1       0.45546626      103.09413
2015    2       0.16428299      45.53392875
2015    3       0.18014849      49.1582375
2015    4       0.42416351      93.53956125
2015    5       0.43995758      97.95089125
2015    6       0.81177028      151.365075
2015    7       0.83494001      155.1301875
2015    8       0.82501329      152.4115375
2015    9       2.40493612      242.27935
2015    10      1.41539292      188.483575
2015    11      0.59305669      119.1220125
2015    12      1.66736375      219.81545
2015    13      2.392234        251.6035
2015    14      1.9591395       240.0533
2015    15      1.07979694      178.358325
2015    16      0.25139776      65.89087125
2015    17      0.37592434      88.1780475
2015    18      0.39352259      92.2156925
2015    19      0.2587682       67.24249375
2015    20      0.2534205       66.62108125
2015    21      0.246283        64.75757375
2015    22      0.32299372      81.03920125
2015    23      0.85181671      155.9859375
2015    24      0.82156594      157.242325
2015    25      1.01437421      175.504575
2015    26      1.89528388      230.66815
2015    27      2.5927215       256.149875
2015    28      3.27240625      266.267975
2015    29      3.346525        267.0024875
2015    30      2.3963485       249.1854625
2016    1       0.86944409      160.3297
2016    2       0.83004218      157.935975
2016    3       0.39492436      92.15049625
2016    4       0.39192266      92.226785
2016    5       0.49019334      108.3242525
2016    6       0.34195945      81.33370625
2016    7       0.4964315       109.6062275
2016    8       0.89711505      160.7090625
2016    9       0.68590796      137.1017375
2016    10      0.82009435      152.2427125
2016    11      1.4648572       203.4574875
2016    12      0.71110074      139.0162625
2016    13      0.79065911      148.6199875
2016    14      0.56171385      119.97757625
2016    15      0.29766594      74.67707
2016    16      0.85317088      159.4340875
2016    17      0.44699596      102.02107125
2016    18      0.6639063       116.4236675
2016    19      2.64037962      257.2307
2016    20      1.18616805      193.7404375
2016    21      1.82284788      231.1392375
2016    22      1.58561575      219.723875
2016    23      0.74939672      146.1860875
2016    24      0.59911305      125.67270125
2016    25      0.34547921      84.75038125
2016    26      0.87035489      155.02529
2016    27      1.8790365       232.0582875
2016    28      2.63754962      258.0863375
2016    29      1.428718        208.9670125
2016    30      1.82965625      233.3657375
2017    1       1.24679422      192.9030875
2017    2       0.83000291      154.017225
2017    3       0.96457952      172.328625
2017    4       0.83587138      158.967475
2017    5       0.45265892      102.2652175
2017    6       0.55606759      120.619975
2017    7       0.50657389      112.1311975
2017    8       0.32313353      78.1417325
2017    9       0.65448555      130.10793625
2017    10      0.95286061      171.22755
2017    11      0.75931957      144.70960875
2017    12      0.22206634      58.96227875
2017    13      0.23123242      60.54513125
2017    14      0.29800015      75.66420625
2017    15      0.28669729      73.39594375
2017    16      0.34840271      86.1040325
2017    17      0.26826866      69.40479875
2017    18      0.39979442      94.59624625
2017    19      0.644439        132.8426275
2017    20      0.85287604      157.56023375
2017    21      0.67179142      135.97062875
2017    22      0.81250219      153.6547375
2017    23      0.70191602      142.88125
2017    24      1.62640775      219.8150875
2017    25      1.0386814       171.4395625
2017    26      0.92433702      164.7888375
2017    27      0.29970671      71.73835125
2017    28      0.19210904      53.44091125
2017    29      0.16813342      48.107995
2017    30      0.39162681      94.94453125
2018    1       0.45119925      103.292765
2018    2       0.54869359      118.67345
2018    3       0.49848592      110.90588625
2018    4       0.44639952      102.42573375
2018    5       0.43805358      100.10374
2018    6       0.42088969      95.89605
2018    7       0.74325389      145.724825
2018    8       0.50661851      111.593145
2018    9       0.39155676      93.030735
2018    10      0.67967072      129.8184575
2018    11      0.96917475      173.119075
2018    12      0.76247214      148.5174125
2018    13      0.36186569      86.688935
2018    14      0.82128244      149.94240625
2018    15      1.813136        228.83565
2018    16      1.21548268      193.388575
2018    17      0.8091472       153.439025
2018    18      0.26191395      65.8823925
2018    19      0.45440298      104.0342725
2018    20      0.43263394      102.35975375
2018    21      0.4402084       103.1931175
2018    22      0.37701408      91.116905
2018    23      0.30008599      76.5222925
2018    24      0.28987482      73.562665
2018    25      0.42206154      99.72091375
2018    26      0.40407219      96.56708625
2018    27      0.21979524      59.46666875
2018    28      0.48378506      103.444905
2018    29      0.38296384      89.95925375
2018    30      0.49604102      111.5342875
