####################################################################################################
# Month: 02Feb                                                                                     #
# Station: YBG                                                                                     #
# Frequency: 345 GHz                                                                               #
# Columns are: year    day     tau     Tb (K)                                                      #
####################################################################################################
2009    1       0.2074822       52.15438375
2009    2       0.29605189      68.97120375
2009    3       0.16617001      44.3107675
2009    4       0.16052156      43.729055
2009    5       0.13545249      38.597415
2009    6       0.11642539      34.4002825
2009    7       0.12096419      34.98123375
2009    8       0.14687751      41.02952125
2009    9       0.16654541      45.4126825
2009    10      0.21038772      54.37583625
2009    11      0.27364465      65.98288
2009    12      0.21030024      53.12994875
2009    13      0.22552801      56.913855
2009    14      0.22227995      56.27596375
2009    15      0.12958698      36.95734
2009    16      0.15988074      43.73297375
2009    17      0.23854304      59.76557375
2009    18      0.27476585      66.37422625
2009    19      0.1820007       47.86719
2009    20      0.23292887      58.16098375
2009    21      0.22018012      55.12962625
2009    22      0.21320914      53.14468375
2009    23      0.4561185       95.1421075
2009    24      0.41649218      90.29141125
2009    25      0.3635537       80.81724875
2009    26      0.40930356      89.28565
2009    27      0.26119552      63.30607625
2009    28      0.25325489      61.18815
2010    1       0.17693772      46.42174625
2010    2       0.21024846      53.39914
2010    3       0.1302366       36.69806125
2010    4       0.14600608      39.8321225
2010    5       0.22761065      55.98575875
2010    6       0.14573443      40.018825
2010    7       0.21474741      54.3939525
2010    8       0.26873936      65.41989375
2010    9       0.4123088       89.75840375
2010    10      0.15834075      43.024175
2010    11      0.14250981      39.618175
2010    12      0.3021562       69.69358625
2010    13      0.16127218      43.42686625
2010    14      0.13919322      38.81581875
2010    15      0.14473757      39.8136425
2010    16      0.19296526      50.15319
2010    17      0.2034307       51.03739875
2010    18      0.14685282      39.6923125
2010    19      0.23645425      58.45417
2010    20      0.2011817       51.10833625
2010    21      0.19654729      50.7207975
2010    22      0.19946396      51.6648775
2010    23      0.28453472      66.3003725
2010    24      0.39573495      87.18006
2010    25      0.24801224      60.50421875
2010    26      0.31003949      71.0030775
2010    27      0.34164439      77.1338725
2010    28      0.16496672      44.421115
2011    1       0.17405652      45.52260875
2011    2       0.15433814      41.44981125
2011    3       0.1391243       39.02818125
2011    4       0.25646033      63.057075
2011    5       0.21613485      55.3530025
2011    6       0.18965914      49.59309625
2011    7       0.25978122      63.80879875
2011    8       0.30244284      71.66257125
2011    9       0.24828314      61.28622875
2011    10      0.20644847      52.5657525
2011    11      0.26911306      65.00482
2011    12      0.21414165      54.25375625
2011    13      0.38528335      86.50833875
2011    14      0.28571114      68.8582775
2011    15      0.32226972      74.8583725
2011    16      0.39085861      86.0156975
2011    17      0.36878912      81.64975875
2011    18      0.22127426      55.6862375
2011    19      0.18225231      47.9617425
2011    20      0.17076171      45.48113375
2011    21      0.22921198      56.35773875
2011    22      0.11577016      33.39360875
2011    23      0.20168546      51.59131
2011    24      0.17891725      46.90450625
2011    25      0.2899712       67.5157425
2011    26      0.20591368      52.39507875
2011    27      0.1539793       41.9664475
2011    28      0.16149778      43.1406125
2012    1       0.09142864      28.16213125
2012    2       0.1609638       42.34445375
2012    3       0.22095474      54.19530375
2012    4       0.31910741      74.10502375
2012    5       0.3001421       70.7722125
2012    6       0.14447202      40.3281575
2012    7       0.28896838      69.5175775
2012    8       0.47091654      98.83981125
2012    9       0.24727326      60.555965
2012    10      0.16021         42.92039875
2012    11      0.132196        36.82582375
2012    12      0.22600325      56.00140875
2012    13      0.32957271      75.50796375
2012    14      0.33675062      77.40916
2012    15      0.37732415      84.28199375
2012    16      0.30229815      71.1009075
2012    17      0.22825076      55.8875675
2012    18      0.25197832      60.52389875
2012    19      0.27478954      65.6600525
2012    20      0.26449978      64.2161675
2012    21      0.22649789      56.97552
2012    22      0.19744844      51.37208
2012    23      0.16919844      45.74238625
2012    24      0.1523881       42.0936575
2012    25      0.25996275      63.56235125
2012    26      0.2314813       56.73123375
2012    27      0.20684918      52.04829
2012    28      0.2963259       69.084765
2012    29      0.3811462       83.67379875
2013    1       0.44250074      94.238895
2013    2       0.30411966      69.97685375
2013    3       0.33529194      76.31923875
2013    4       0.24669158      60.94369625
2013    5       0.35217174      81.167385
2013    6       0.28175608      68.163165
2013    7       0.27663715      66.39083375
2013    8       0.13486393      37.71145125
2013    9       0.13329791      37.17719375
2013    10      0.16345394      43.8555675
2013    11      0.17132381      45.87878375
2013    12      0.20702777      52.61338
2013    13      0.21151658      53.4712225
2013    14      0.18661218      48.45267375
2013    15      0.2786937       65.77032875
2013    16      0.52365396      107.224465
2013    17      0.48216189      99.25732125
2013    18      0.2771221       66.12154375
2013    19      0.27600955      65.7730025
2013    20      0.40823674      89.46575625
2013    21      0.2481732       60.56752125
2013    22      0.24307552      60.59417875
2013    23      0.24476398      60.4896725
2013    24      0.45379214      95.80361625
2013    25      0.2867975       67.74383375
2013    26      0.1261163       36.68656
2013    27      0.1041999       31.58371125
2013    28      0.08632903      27.368135
2014    1       0.18170485      48.11787125
2014    2       0.21640722      55.38027375
2014    3       0.203371        52.69803625
2014    4       0.28085111      67.838915
2014    5       0.29928841      70.72369875
2014    6       0.166205        44.68451625
2014    7       0.30373156      71.11745875
2014    8       0.18349966      48.64971625
2014    9       0.15926355      43.7072475
2014    10      0.18555894      48.93545875
2014    11      0.27804896      66.509735
2014    12      0.17407462      46.43243625
2014    13      0.16116285      43.68721625
2014    14      0.43105216      92.62591625
2014    15      0.45759572      96.92744375
2014    16      0.29555942      68.31399375
2014    17      0.17062496      44.415925
2014    18      0.11454148      33.2259
2014    19      0.25726219      61.93759375
2014    20      0.18565998      49.00580875
2014    21      0.18664338      48.46890375
2014    22      0.47215967      100.00710143
2014    23      0.26491586      64.20027875
2014    24      0.20378211      52.30861375
2014    25      0.21832234      54.84702
2014    26      0.35066435      78.87908
2014    27      0.38712014      85.9427175
2014    28      0.38418807      85.5522275
2015    1       0.22243548      55.142725
2015    2       0.25027139      60.9065075
2015    3       0.25681959      62.81477625
2015    4       0.21196742      53.66317
2015    5       0.19825741      51.2065875
2015    6       0.20078155      51.56970625
2015    7       0.20275235      52.257725
2015    8       0.2189204       54.95959625
2015    9       0.25639658      62.277155
2015    10      0.23253645      57.26095125
2015    11      0.25693988      62.0039375
2015    12      0.45022904      95.11953
2015    13      0.22890791      55.8855125
2015    14      0.35012501      77.915775
2015    15      0.21937685      54.6424925
2015    16      0.17342478      45.67662625
2015    17      0.37129389      82.806465
2015    18      0.47110266      99.3286175
2015    19      0.31795408      72.09270875
2015    20      0.24152874      59.56486875
2015    21      0.28496214      66.788695
2015    22      0.17127255      45.631245
2015    23      0.27822721      67.37529375
2015    24      0.29014821      70.0438225
2015    25      0.33284341      77.5638075
2015    26      0.4255644       91.310885
2015    27      0.32143022      74.29338375
2015    28      0.32321771      75.1036575
2016    1       0.17183692      46.3933925
2016    2       0.1028423       31.01286
2016    3       0.11482792      33.5634375
2016    4       0.15906436      43.61326875
2016    5       0.21616768      55.67997875
2016    6       0.19573622      51.14851875
2016    7       0.11690059      34.584675
2016    8       0.40207416      87.67183625
2016    9       0.28860705      67.80421625
2016    10      0.20340486      52.5154725
2016    11      0.15866591      42.8206275
2016    12      0.1408741       39.6536475
2016    13      0.16063445      43.83327625
2016    14      0.13393642      37.9674075
2016    15      0.1271296       35.98061625
2016    16      0.20096489      51.8709725
2016    17      0.17253262      46.08109875
2016    18      0.27240998      66.23961125
2016    19      0.53983842      111.41921
2016    20      0.65100901      127.1161925
2016    21      0.17123876      46.21946625
2016    22      0.23643509      58.23807125
2016    23      0.35606301      80.03515
2016    24      0.41820011      89.38276125
2016    25      0.15369881      41.241015
2016    26      0.20287991      51.34221875
2016    27      0.22032312      55.332655
2016    28      0.26017349      61.9324725
2016    29      0.58665045      115.63556
2017    1       0.34703714      78.57958625
2017    2       0.1959451       50.34326125
2017    3       0.24697681      61.74875875
2017    4       0.26467501      65.64599625
2017    5       0.23001575      58.54193875
2017    6       0.23316196      58.68738
2017    7       0.22651843      57.34990625
2017    8       0.30738432      72.68448
2017    9       0.26045415      63.90568625
2017    10      0.17490454      46.528315
2017    11      0.18161089      47.89452875
2017    12      0.25325798      61.94199125
2017    13      0.23293796      57.60001125
2017    14      0.12474439      35.4022025
2017    15      0.18690673      48.539045
2017    16      0.36246186      81.83606
2017    17      0.27185148      66.386465
2017    18      0.26488846      65.4206725
2017    19      0.42659996      93.78027375
2017    20      0.26659186      65.49408125
2017    21      0.26658161      64.9122775
2017    22      0.3919566       87.911115
2017    23      0.20374019      52.93466625
2017    24      0.16343196      44.438445
2017    25      0.2146934       54.87410375
2017    26      0.23987535      60.0291775
2017    27      0.24681174      61.38015875
2017    28      0.24977334      62.04678875
2018    1       0.27917578      67.8236675
2018    2       0.22258962      56.80996125
2018    3       0.22256881      56.64166625
2018    4       0.15438214      42.3968025
2018    5       0.30655374      73.1574675
2018    6       0.46281828      99.527095
2018    7       0.3336789       77.5993775
2018    8       0.27131169      65.23761125
2018    9       0.31526385      72.87913875
2018    10      0.21412414      54.1768975
2018    11      0.22177995      55.653815
2018    12      0.32307399      74.79934625
2018    13      0.4302864       93.12635875
2018    14      0.29849799      68.60902875
2018    15      0.19931742      51.17651375
2018    16      0.35300609      79.8304
2018    17      0.36585334      81.45149875
2018    18      0.30961154      72.11504
2018    19      0.17522648      46.2496275
2018    20      0.18897715      48.68265625
2018    21      0.42786552      91.4735875
2018    22      0.57353619      114.49565125
2018    23      0.27858541      66.49431875
2018    24      0.26063128      61.95707
2018    25      0.42588961      91.21133625
2018    26      0.3071472       70.459935
2018    27      0.2567255       63.4528075
2018    28      0.27446285      66.81207
