####################################################################################################
# Month: 09Sep                                                                                     #
# Station: PAM                                                                                     #
# Frequency: 345 GHz                                                                               #
# Columns are: year    day     tau     Tb (K)                                                      #
####################################################################################################
2009    1       0.5698089       116.03243375
2009    2       0.58844541      117.250665
2009    3       0.75923395      139.4093
2009    4       0.39452204      86.99797875
2009    5       0.26590851      64.66663875
2009    6       0.16849182      45.61605125
2009    7       0.15929484      43.6491575
2009    8       0.25321311      62.70988125
2009    9       0.24883852      59.9869975
2009    10      0.10769396      32.21322625
2009    11      0.28544738      68.3978575
2009    12      0.41275228      91.42317875
2009    13      0.38997145      87.738715
2009    14      0.35590078      82.04671875
2009    15      0.39214968      88.209535
2009    16      0.5682419       115.5244625
2009    17      0.57657268      115.044295
2009    18      0.53307351      110.31909375
2009    19      0.49730051      105.07200125
2009    20      0.47844536      103.38243
2009    21      0.58164954      118.09735
2009    22      0.75324935      140.064025
2009    23      0.72352398      135.0805475
2009    24      0.45723256      99.96435125
2009    25      0.27835109      68.79247125
2009    26      0.38359596      86.17210875
2009    27      0.71789501      134.87865
2009    28      0.43109195      93.770365
2009    29      0.19284342      50.68148625
2009    30      0.21502538      54.73644375
2010    1       0.79447381      145.8788125
2010    2       0.56233014      116.3685875
2010    3       0.57677185      117.5233175
2010    4       0.64592148      128.3787375
2010    5       0.58859154      120.1257375
2010    6       0.88228819      154.5801
2010    7       0.86373371      153.4666875
2010    8       0.68057368      133.010725
2010    9       0.31341314      75.16283625
2010    10      0.33208405      77.04857375
2010    11      0.44424308      96.28186125
2010    12      0.29161035      69.8715375
2010    13      0.55107828      110.54242625
2010    14      0.5874175       116.687715
2010    15      0.164756        45.00377125
2010    16      0.43333326      92.6007
2010    17      0.80435482      144.492025
2010    18      0.61478144      120.21223375
2010    19      0.28798022      68.79111125
2010    20      0.12470106      36.4345625
2010    21      0.26818622      65.91614125
2010    22      0.38403606      87.2829875
2010    23      0.40336401      89.37178625
2010    24      0.42192701      91.43057
2010    25      0.29476828      70.04136375
2010    26      0.31833606      74.0613
2010    27      0.40321191      86.0329925
2010    28      0.56164178      113.789575
2010    29      0.51082881      105.9665375
2010    30      0.54538862      107.821605
2011    1       1.3765225       197.6322375
2011    2       1.19549         185.538675
2011    3       0.49424742      106.0745575
2011    4       0.31034109      75.38491125
2011    5       0.24472043      63.2682375
2011    6       0.22819196      59.718865
2011    7       0.26793118      67.898255
2011    8       0.53294474      112.35860125
2011    9       0.52557166      111.8853375
2011    10      0.70065371      135.44322
2011    11      0.63955394      128.3207375
2011    12      0.34595394      82.52642
2011    13      0.54775226      112.89909
2011    14      0.87044218      153.4862875
2011    15      0.75622571      139.6071375
2011    16      0.49363375      102.58311875
2011    17      0.24499694      61.53911
2011    18      0.60567262      119.885995
2011    19      0.55376337      112.4160925
2011    20      0.19720718      51.4525375
2011    21      0.14434093      40.19532
2011    22      0.14202833      39.70744125
2011    23      0.35290908      78.65742875
2011    24      0.28088895      68.264885
2011    25      0.41487192      91.24901625
2011    26      0.41887724      91.91110875
2011    27      0.38307734      86.09985125
2011    28      0.38155342      86.30372375
2011    29      0.28913507      69.945585
2011    30      0.28533421      69.18528
2012    1       0.4226613       96.3941325
2012    2       0.9025346       159.188375
2012    3       0.81515612      149.5326875
2012    4       0.62734272      126.2893625
2012    5       0.90220729      158.702325
2012    6       0.70764366      134.45185
2012    7       1.12437626      178.778325
2012    8       0.43051525      93.2764125
2012    9       0.48833312      105.48449125
2012    10      0.49987342      107.786085
2012    11      0.61491375      125.034775
2012    12      0.5649371       117.389025
2012    13      0.53879245      112.85490625
2012    14      0.4399084       96.9196975
2012    15      0.25656724      64.24096625
2012    16      0.42036852      89.84437
2012    17      0.99393904      164.7359375
2012    18      0.72180576      134.6471625
2012    19      0.38517411      86.47197875
2012    20      0.27393282      66.1543125
2012    21      0.25849821      63.924495
2012    22      0.19807081      51.633885
2012    23      0.24305206      60.1362175
2012    24      0.21980792      55.740565
2012    25      0.28309185      67.65076125
2012    26      0.53590548      109.6767125
2012    27      0.5610862       113.8482875
2012    28      0.52866236      109.49437375
2012    29      0.54296817      110.87107375
2012    30      0.2552632       61.00459125
2013    1       0.67325086      130.2666875
2013    2       0.50233588      105.71451
2013    3       0.73825421      138.533725
2013    4       0.6149599       122.304925
2013    5       0.39951186      90.0758675
2013    6       0.2593447       65.5202
2013    7       0.25728058      64.92229125
2013    8       0.31197482      75.6353075
2013    9       0.39468399      89.98895
2013    10      0.36658071      85.6728225
2013    11      0.32131991      77.884015
2013    12      0.49130604      106.963795
2013    13      0.30199419      73.57747375
2013    14      0.41162501      91.90465875
2013    15      0.59846368      119.462875
2013    16      0.35133845      80.721415
2013    17      0.17617058      47.0959825
2013    18      0.20164482      52.5275275
2013    19      0.21399384      55.80395125
2013    20      0.20803109      54.6920175
2013    21      0.27854008      68.48415
2013    22      0.28273575      68.8433075
2013    23      0.5152333       108.429505
2013    24      0.28189826      69.42531
2013    25      0.18731454      50.8369925
2013    26      0.16408268      45.7793875
2013    27      0.33149321      78.4402425
2013    28      0.3622202       84.4844
2013    29      0.25512925      64.31614375
2013    30      0.32319142      77.2095625
2014    1       0.53318428      110.19078
2014    2       0.98777255      165.4942375
2014    3       0.86734446      154.7635625
2014    4       0.48971779      104.243575
2014    5       0.37040364      86.5007175
2014    6       0.30865636      74.54197625
2014    7       0.33975979      79.5388975
2014    8       0.38640334      88.30155625
2014    9       0.33897209      79.796855
2014    10      0.25988666      65.2580425
2014    11      0.27350178      67.58543125
2014    12      0.33094929      78.5342625
2014    13      0.45204502      98.20959625
2014    14      0.51755002      107.9572625
2014    15      0.35047455      81.29454875
2014    16      0.28689655      70.2229575
2014    17      0.207593        55.02823875
2014    18      0.30808016      74.68442125
2014    19      0.26202572      65.75022
2014    20      0.42180611      93.28541
2014    21      0.3583102       83.0929425
2014    22      0.27405461      67.24429375
2014    23      0.32697732      77.3109125
2014    24      0.4740934       100.1878975
2014    25      0.41106108      89.4227725
2014    26      0.2143408       55.558065
2014    27      0.36205719      79.9912225
2014    28      0.5913836       118.94945125
2014    29      0.49857985      106.86505875
2014    30      0.35263442      82.5523125
2015    1       0.45732824      99.598395
2015    2       0.46662757      99.93915375
2015    3       0.40141235      90.2671825
2015    4       0.38323918      86.297025
2015    5       0.36764165      84.23958
2015    6       0.46277366      99.6517
2015    7       0.4039625       89.02917125
2015    8       0.35183884      80.194235
2015    9       0.29948825      72.072095
2015    10      0.36001731      81.20838625
2015    11      0.51371378      107.174745
2015    12      0.36010925      81.916015
2015    13      0.20315442      52.39740875
2015    14      0.36015106      81.4856275
2015    15      0.19332669      50.92112125
2015    16      0.27241515      65.68242
2015    17      0.3856079       86.93085125
2015    18      0.35616175      81.8864525
2015    19      0.52021668      108.1977225
2015    20      0.43362258      92.20023625
2015    21      0.14512792      40.90609625
2015    22      0.34988078      79.92655
2015    23      0.33184176      77.75895375
2015    24      0.29436965      71.222
2015    25      0.32277399      75.9597275
2015    26      0.29659222      70.6603025
2015    27      0.19658066      51.16002375
2015    28      0.24525579      59.5139075
2015    29      0.67048151      127.847125
2015    30      0.54084642      110.60317875
2016    1       0.9037153       155.663075
2016    2       0.92969318      157.8612875
2016    3       0.54465704      112.99975
2016    4       0.69787111      133.556425
2016    5       0.67150881      130.522525
2016    6       0.63152855      125.034875
2016    7       0.42284731      93.6737775
2016    8       0.19495542      51.7311
2016    9       0.29615446      70.94378875
2016    10      0.4318253       94.87168375
2016    11      0.38301121      85.94596375
2016    12      0.37174416      83.8434125
2016    13      0.35032301      79.859735
2016    14      0.27095344      66.43322625
2016    15      0.404052        89.7642125
2016    16      0.26643803      65.82327625
2016    17      0.5445735       112.510975
2016    18      0.35055981      82.22347875
2016    19      0.3145387       74.62702625
2016    20      0.53346527      112.0095
2016    21      0.77003784      142.2419875
2016    22      0.52722156      110.354225
2016    23      0.52883485      108.78059125
2016    24      0.34163541      79.61460625
2016    25      0.31050529      73.97848375
2016    26      0.46264738      99.51019375
2016    27      0.46067789      100.60260875
2016    28      0.37136005      85.57015375
2016    29      0.19396079      51.1553525
2016    30      0.32007825      76.215315
2017    1       0.91498672      158.3266625
2017    2       0.7634429       141.757825
2017    3       0.74334208      139.021325
2017    4       0.54107006      112.98117625
2017    5       0.49387004      104.9879
2017    6       0.41546162      93.1709475
2017    7       0.35060162      82.40988
2017    8       0.25913689      65.48224375
2017    9       0.30025052      72.7264225
2017    10      0.4052733       91.46036
2017    11      0.28324611      68.9340175
2017    12      0.33165118      77.04782875
2017    13      0.37788672      84.89812375
2017    14      0.46070198      96.7114625
2017    15      0.75997236      139.94135
2017    16      0.75683749      139.6936125
2017    17      0.68927059      131.7505125
2017    18      0.58431339      117.80166875
2017    19      0.31887776      75.30322875
2017    20      0.67669424      129.8144775
2017    21      0.65602806      127.480525
2017    22      0.69747791      131.8753125
2017    23      0.31865384      75.0866175
2017    24      0.19344855      51.0109025
2017    25      0.149366        41.50228875
2017    26      0.15580447      42.9340475
2017    27      0.26100992      64.67462125
2017    28      0.20196201      52.75276125
2017    29      0.3712861       84.722095
2017    30      0.32986674      76.92528875
2018    1       0.22166115      56.561185
2018    2       0.48096844      102.168055
2018    3       0.36992006      83.16474
2018    4       0.45616014      98.8390275
2018    5       0.74202428      139.76905
2018    6       0.78469476      144.935525
2018    7       0.39502641      87.1304475
2018    8       0.14818005      42.00803375
2018    9       0.20647578      54.20691
2018    10      0.32076795      76.7265375
2018    11      0.37079195      85.64933875
2018    12      0.38442786      87.169875
2018    13      0.50844439      105.5635425
2018    14      0.49987179      104.48545625
2018    15      0.46080692      97.97244875
2018    16      0.43415541      93.96231625
2018    17      0.28126286      67.86080875
2018    18      0.39929575      88.99919375
2018    19      0.42180159      93.27321875
2018    20      0.39992898      89.49772375
2018    21      0.59578929      118.67125
2018    22      0.66778864      128.9588
2018    23      0.49284756      102.595005
2018    24      0.1821883       48.39013375
2018    25      0.24568244      60.91824875
2018    26      0.40490522      88.81302875
2018    27      0.61142746      120.53373375
2018    28      0.33425492      77.7196425
2018    29      0.39206561      87.881655
2018    30      0.59798461      118.97558
