####################################################################################################
# Month: 08Aug                                                                                     #
# Station: BAN                                                                                     #
# Frequency: 345 GHz                                                                               #
# Columns are: year    day     segment         tau     Tb (K)                                      #
####################################################################################################
2009    1       0       2.107802        245.4347
2009    1       1       2.518896        257.4665
2009    1       2       2.780102        262.3481
2009    1       3       2.912631        264.2025
2009    1       4       3.289373        268.9993
2009    1       5       3.603916        271.8048
2009    1       6       2.711714        260.1137
2009    1       7       2.654303        258.3352
2009    2       0       3.256713        266.9775
2009    2       1       2.547001        255.409
2009    2       2       2.267634        248.8853
2009    2       3       2.14702         245.9338
2009    2       4       3.062367        264.8798
2009    2       5       3.585103        269.5681
2009    2       6       3.196768        264.5673
2009    2       7       2.812316        257.8691
2009    3       0       2.661249        254.0419
2009    3       1       2.630161        253.2314
2009    3       2       2.083298        239.4225
2009    3       3       1.813643        226.8907
2009    3       4       2.243263        240.2688
2009    3       5       2.402596        244.7677
2009    3       6       2.189018        238.4094
2009    3       7       1.870979        226.3465
2009    4       0       1.677224        217.5029
2009    4       1       1.476647        207.4723
2009    4       2       1.256526        193.1853
2009    4       3       1.123302        181.9335
2009    4       4       1.067617        176.6718
2009    4       5       1.129998        181.7378
2009    4       6       1.294756        194.535
2009    4       7       1.293955        194.6407
2009    5       0       1.203011        188.7763
2009    5       1       1.149874        184.8306
2009    5       2       1.106616        180.8897
2009    5       3       1.028023        173.7858
2009    5       4       0.8643556       157.4091
2009    5       5       0.7152188       139.9511
2009    5       6       0.735305        142.623
2009    5       7       0.7720925       147.5975
2009    6       0       0.7177608       141.1934
2009    6       1       0.6271447       129.0283
2009    6       2       0.7684274       147.5699
2009    6       3       0.7363208       144.4382
2009    6       4       0.5604015       119.1733
2009    6       5       0.5090015       110.5476
2009    6       6       0.3968805       91.23722
2009    6       7       0.5009502       108.5093
2009    7       0       0.6432603       131.4499
2009    7       1       0.8233872       155.0256
2009    7       2       0.8733327       161.0341
2009    7       3       0.8176713       155.0889
2009    7       4       0.6848654       138.3734
2009    7       5       0.6390769       132.2079
2009    7       6       0.4971989       110.2654
2009    7       7       0.4646675       104.5725
2009    8       0       0.5023243       111.0556
2009    8       1       0.4982321       110.7304
2009    8       2       0.6985345       140.6
2009    8       3       1.253064        197.1047
2009    8       4       1.291806        199.8091
2009    8       5       1.466205        209.8551
2009    8       6       1.783561        227.4646
2009    8       7       1.622724        220.4963
2009    9       0       1.8477          231.3067
2009    9       1       1.847194        230.7516
2009    9       2       1.766704        226.3836
2009    9       3       1.551489        215.1164
2009    9       4       1.348264        201.8005
2009    9       5       1.231253        192.62
2009    9       6       1.395268        203.798
2009    9       7       1.309569        198.3576
2009    10      0       1.656008        220.1746
2009    10      1       1.68433         220.6255
2009    10      2       1.503081        208.5093
2009    10      3       1.965279        232.0997
2009    10      4       2.517861        248.9242
2009    10      5       2.524872        248.4392
2009    10      6       2.183917        239.3185
2009    10      7       1.629701        217.7943
2009    11      0       1.332714        198.0916
2009    11      1       1.673741        218.1916
2009    11      2       1.762779        223.5946
2009    11      3       1.151886        184.2365
2009    11      4       0.9317321       163.2969
2009    11      5       0.788296        147.9608
2009    11      6       0.7152875       138.8435
2009    11      7       1.198309        187.6152
2009    12      0       1.284537        194.6479
2009    12      1       1.379827        201.2589
2009    12      2       1.310661        196.6198
2009    12      3       1.079302        178.4719
2009    12      4       1.197334        188.1826
2009    12      5       1.509813        208.8446
2009    12      6       1.845707        225.0162
2009    12      7       2.138662        235.8375
2009    13      0       1.905461        226.7814
2009    13      1       1.868334        225.2711
2009    13      2       1.748964        220.3075
2009    13      3       1.653539        215.975
2009    13      4       1.581106        211.8986
2009    13      5       1.443709        203.588
2009    13      6       1.667561        216.3714
2009    13      7       1.420369        202.3617
2009    14      0       1.198599        187.67
2009    14      1       1.046837        175.5786
2009    14      2       0.9813573       169.7721
2009    14      3       0.8654469       157.7148
2009    14      4       0.7137275       139.0849
2009    14      5       0.4874614       105.9956
2009    14      6       0.478889        104.5513
2009    14      7       0.8580458       155.9045
2009    15      0       1.13227         182.8326
2009    15      1       1.383169        201.6498
2009    15      2       1.565832        213.2594
2009    15      3       1.732136        222.0648
2009    15      4       1.863889        227.4124
2009    15      5       1.895722        228.4391
2009    15      6       1.972224        231.5496
2009    15      7       2.174875        238.8686
2009    16      0       2.262194        242.027
2009    16      1       1.982046        233.2097
2009    16      2       1.809869        226.3342
2009    16      3       1.666501        219.7294
2009    16      4       1.592203        215.5881
2009    16      5       1.678993        219.8209
2009    16      6       1.794934        225.8308
2009    16      7       2.055254        237.7486
2009    17      0       2.113583        240.8674
2009    17      1       2.486107        251.3467
2009    17      2       2.74755         256.8596
2009    17      3       2.882616        259.6007
2009    17      4       2.674566        255.6028
2009    17      5       2.504288        251.5011
2009    17      6       2.491948        250.3493
2009    17      7       2.310425        245.922
2009    18      0       2.555679        252.7148
2009    18      1       2.522825        252.4872
2009    18      2       2.687333        255.7529
2009    18      3       1.962025        236.6583
2009    18      4       1.645963        221.2918
2009    18      5       2.461504        249.4832
2009    18      6       1.722633        223.1527
2009    18      7       1.710069        222.4799
2009    19      0       1.530324        213.242
2009    19      1       1.449118        207.8789
2009    19      2       1.348462        200.9633
2009    19      3       1.186114        188.4658
2009    19      4       1.077331        178.7604
2009    19      5       1.11933         182.5862
2009    19      6       1.257689        195.2737
2009    19      7       1.253008        195.4214
2009    20      0       1.458096        210.1649
2009    20      1       1.46711         211.1237
2009    20      2       1.680052        222.8421
2009    20      3       1.946438        234.5183
2009    20      4       1.635875        221.5861
2009    20      5       1.375673        206.1147
2009    20      6       1.603868        219.2669
2009    20      7       2.13913         242.0219
2009    21      0       1.875617        233.5015
2009    21      1       1.930257        236.8908
2009    21      2       2.290089        249.5064
2009    21      3       2.727498        259.6341
2009    21      4       3.07933         264.0951
2009    21      5       2.509059        253.214
2009    21      6       2.478535        252.8651
2009    21      7       2.020898        238.9756
2009    22      0       2.381785        248.3935
2009    22      1       2.332441        246.6216
2009    22      2       1.800699        227.6042
2009    22      3       1.890659        228.687
2009    22      4       1.025619        174.0764
2009    22      5       0.7817234       147.7855
2009    22      6       0.8134584       151.3575
2009    22      7       1.042695        174.7086
2009    23      0       1.218734        189.4658
2009    23      1       1.246429        191.3301
2009    23      2       1.018041        171.5042
2009    23      3       0.9778336       167.0142
2009    23      4       1.140983        181.8557
2009    23      5       1.631731        213.3986
2009    23      6       1.19683         186.0013
2009    23      7       1.633441        213.8073
2009    24      0       1.563341        210.4641
2009    24      1       1.31608         195.9909
2009    24      2       1.3467          197.9045
2009    24      3       1.56949         211.2198
2009    24      4       1.508729        208.2714
2009    24      5       1.252397        192.0396
2009    24      6       1.194924        188.1757
2009    24      7       1.215168        190.4278
2009    25      0       1.301793        197.5215
2009    25      1       1.778293        224.8271
2009    25      2       2.362539        245.1928
2009    25      3       2.435612        247.4338
2009    25      4       2.582078        250.3196
2009    25      5       2.240922        241.1001
2009    25      6       1.735329        223.6411
2009    25      7       1.622958        215.0944
2009    26      0       0.9546432       168.7483
2009    26      1       1.0819          179.8554
2009    26      2       1.035481        175.0177
2009    26      3       0.9393857       165.5603
2009    26      4       0.8825192       158.9779
2009    26      5       1.134962        183.066
2009    26      6       1.320117        197.8251
2009    26      7       1.4724          208.2292
2009    27      0       1.678823        218.4278
2009    27      1       1.619582        215.1254
2009    27      2       1.614963        216.7125
2009    27      3       1.411618        204.9468
2009    27      4       1.172733        186.5848
2009    27      5       1.311608        196.7013
2009    27      6       1.794407        224.7039
2009    27      7       2.004779        234.6277
2009    28      0       2.336567        245.3883
2009    28      1       1.391736        205.8937
2009    28      2       0.9924455       174.4952
2009    28      3       0.9112894       167.0902
2009    28      4       0.8296144       158.0967
2009    28      5       0.8687922       162.2429
2009    28      6       0.8695055       162.1489
2009    28      7       0.8346011       158.3715
2009    29      0       0.8288385       157.6168
2009    29      1       0.9525974       170.9782
2009    29      2       1.09869         185.0384
2009    29      3       1.347876        204.3345
2009    29      4       1.535444        216.0955
2009    29      5       2.176426        242.939
2009    29      6       2.195111        244.1013
2009    29      7       2.31266         247.5598
2009    30      0       1.986549        237.7486
2009    30      1       1.705998        226.7496
2009    30      2       1.784447        231.0198
2009    30      3       1.924741        237.1651
2009    30      4       1.571683        219.9521
2009    30      5       1.129047        187.2153
2009    30      6       1.084153        182.9082
2009    30      7       1.348955        205.7226
2009    31      0       1.319871        203.8202
2009    31      1       1.687877        226.8237
2009    31      2       2.019904        240.7301
2009    31      3       2.163376        245.4094
2009    31      4       2.217601        246.8047
2009    31      5       2.270075        248.249
2009    31      6       2.499757        253.6426
2009    31      7       2.377897        250.4851
2010    1       0       1.622255        219.4572
2010    1       1       1.379446        205.6507
2010    1       2       1.263705        197.7096
2010    1       3       1.318708        201.7827
2010    1       4       1.766538        226.9588
2010    1       5       2.118606        240.5678
2010    1       6       2.3056          246.1565
2010    1       7       2.240902        243.9341
2010    2       0       2.386784        246.5199
2010    2       1       2.750594        253.8387
2010    2       2       1.764976        225.7052
2010    2       3       1.453992        208.0431
2010    2       4       1.713723        221.3756
2010    2       5       1.846371        227.8098
2010    2       6       2.377476        243.9108
2010    2       7       2.245287        240.2671
2010    3       0       2.235286        241.2549
2010    3       1       1.79234         225.0339
2010    3       2       1.463646        208.1189
2010    3       3       1.466403        208.5566
2010    3       4       1.542617        212.7899
2010    3       5       1.485277        210.0999
2010    3       6       2.052664        236.8352
2010    3       7       2.849476        256.6041
2010    4       0       2.969273        258.9838
2010    4       1       2.546514        251.0816
2010    4       2       2.377806        247.7682
2010    4       3       2.391227        248.7403
2010    4       4       2.310703        246.7673
2010    4       5       1.733989        225.2093
2010    4       6       1.74874         226.4859
2010    4       7       1.883237        233.062
2010    5       0       2.014541        238.8052
2010    5       1       2.111708        243.4181
2010    5       2       2.193236        246.1466
2010    5       3       2.149392        244.3395
2010    5       4       2.044037        240.4208
2010    5       5       2.084581        241.6017
2010    5       6       2.258619        247.0801
2010    5       7       2.13281         243.0672
2010    6       0       2.326087        249.6525
2010    6       1       2.451297        251.9361
2010    6       2       1.84825         233.8817
2010    6       3       1.894405        235.0529
2010    6       4       2.054289        240.0704
2010    6       5       1.929485        235.5713
2010    6       6       1.990453        237.9373
2010    6       7       2.161357        243.3343
2010    7       0       3.141779        263.129
2010    7       1       3.07596         260.5294
2010    7       2       3.27716         263.9365
2010    7       3       2.664766        254.9705
2010    7       4       2.440502        249.4706
2010    7       5       2.464802        249.6152
2010    7       6       2.53068         250.9677
2010    7       7       2.605975        253.1896
2010    8       0       2.74841         255.0385
2010    8       1       2.427742        247.6589
2010    8       2       2.217961        242.196
2010    8       3       2.016598        235.6401
2010    8       4       1.859364        229.6919
2010    8       5       1.628668        218.7374
2010    8       6       2.017063        236.0851
2010    8       7       1.944942        232.3164
2010    9       0       2.036011        235.1251
2010    9       1       1.870937        228.6553
2010    9       2       1.700312        220.6294
2010    9       3       1.291837        196.7182
2010    9       4       1.218485        190.4863
2010    9       5       1.288145        195.6566
2010    9       6       1.551818        212.7827
2010    9       7       1.643834        218.2089
2010    10      0       1.605339        216.3746
2010    10      1       1.519554        211.7293
2010    10      2       1.36667         202.6607
2010    10      3       1.250601        194.881
2010    10      4       1.292082        197.7219
2010    10      5       1.14318         186.4603
2010    10      6       1.117743        184.4121
2010    10      7       1.375535        204.1691
2010    11      0       1.932839        232.4514
2010    11      1       2.42078         246.7676
2010    11      2       2.323086        244.822
2010    11      3       2.001708        235.4554
2010    11      4       1.836353        228.9965
2010    11      5       1.795652        227.0706
2010    11      6       2.14048         239.4203
2010    11      7       2.584962        251.4666
2010    12      0       2.829006        256.7091
2010    12      1       2.294402        245.3283
2010    12      2       2.343648        246.3683
2010    12      3       2.542832        250.305
2010    12      4       1.863326        227.369
2010    12      5       1.34506         198.3929
2010    12      6       1.651207        216.7389
2010    12      7       2.241696        240.9467
2010    13      0       2.346129        244.3745
2010    13      1       2.145687        238.8847
2010    13      2       2.109997        237.9936
2010    13      3       2.193501        240.9983
2010    13      4       2.142671        239.5845
2010    13      5       1.936554        232.6652
2010    13      6       1.550542        214.9585
2010    13      7       1.414932        206.4237
2010    14      0       1.564169        215.2059
2010    14      1       1.476776        210.0011
2010    14      2       1.259878        194.9971
2010    14      3       1.135165        185.315
2010    14      4       1.121468        184.0654
2010    14      5       1.172319        187.8024
2010    14      6       1.622446        217.4684
2010    14      7       1.999462        234.5462
2010    15      0       2.376736        246.1209
2010    15      1       2.252689        242.7198
2010    15      2       2.083315        237.6415
2010    15      3       2.366756        246.6621
2010    15      4       2.662032        253.6557
2010    15      5       2.772367        255.6899
2010    15      6       2.917993        258.2367
2010    15      7       2.809452        257.0582
2010    16      0       2.149264        242.3553
2010    16      1       2.499226        251.0913
2010    16      2       3.314281        264.0818
2010    16      3       3.261628        263.1701
2010    16      4       3.223075        263.0927
2010    16      5       3.158776        261.4783
2010    16      6       2.649851        254.0915
2010    16      7       2.18489         243.3825
2010    17      0       2.34357         247.6427
2010    17      1       2.449271        249.411
2010    17      2       2.228941        242.4154
2010    17      3       2.187293        240.354
2010    17      4       1.900294        230.0714
2010    17      5       1.325074        199.7713
2010    17      6       1.187127        189.5994
2010    17      7       1.895205        231.1293
2010    18      0       1.952118        234.4089
2010    18      1       1.866241        231.4216
2010    18      2       1.905784        232.8073
2010    18      3       2.088338        239.3032
2010    18      4       2.427809        248.7104
2010    18      5       2.411204        248.3425
2010    18      6       2.245269        244.515
2010    18      7       2.056738        238.9078
2010    19      0       2.670674        255.469
2010    19      1       1.980648        235.7873
2010    19      2       1.222094        192.6627
2010    19      3       0.6207879       127.0312
2010    19      4       0.6415576       131.792
2010    19      5       1.105617        180.3132
2010    19      6       1.284194        191.9686
2010    19      7       0.9443803       164.8565
2010    20      0       1.040293        174.4629
2010    20      1       1.12895         182.0423
2010    20      2       1.231241        189.5105
2010    20      3       1.212446        187.7558
2010    20      4       1.242376        190.2329
2010    20      5       1.421529        202.3186
2010    20      6       1.624467        212.9347
2010    20      7       1.500823        206.5014
2010    21      0       1.606867        212.6871
2010    21      1       1.35639         197.3299
2010    21      2       1.303913        193.5708
2010    21      3       1.318149        194.6371
2010    21      4       1.213084        186.658
2010    21      5       1.084861        175.8451
2010    21      6       1.184381        184.0019
2010    21      7       1.421393        200.817
2010    22      0       1.486498        205.275
2010    22      1       1.524204        207.957
2010    22      2       1.497732        207.1891
2010    22      3       1.392764        201.235
2010    22      4       1.335914        197.6774
2010    22      5       1.561357        210.482
2010    22      6       1.711619        218.1347
2010    22      7       1.664511        216.2465
2010    23      0       1.609082        212.9896
2010    23      1       1.52086         207.4728
2010    23      2       1.374065        198.619
2010    23      3       1.270242        191.7368
2010    23      4       1.242363        190.0267
2010    23      5       1.01848         171.7981
2010    23      6       0.8518572       155.7688
2010    23      7       0.8589594       156.6969
2010    24      0       0.9859655       168.9494
2010    24      1       1.402527        201.5011
2010    24      2       2.010056        231.8167
2010    24      3       1.859226        227.0432
2010    24      4       1.727223        221.6896
2010    24      5       1.750416        223.1564
2010    24      6       1.639836        217.5967
2010    24      7       2.277239        242.5027
2010    25      0       2.433017        246.8761
2010    25      1       2.035535        235.4257
2010    25      2       2.144049        239.4656
2010    25      3       1.846224        228.9173
2010    25      4       1.618372        218.4149
2010    25      5       1.554089        214.7509
2010    25      6       1.515632        211.7052
2010    25      7       2.159495        239.0127
2010    26      0       2.118898        237.7245
2010    26      1       2.306822        243.1418
2010    26      2       2.506368        248.9647
2010    26      3       2.425862        248.1044
2010    26      4       2.420485        247.1778
2010    26      5       2.589711        250.1038
2010    26      6       2.437426        247.3048
2010    26      7       2.414833        245.3713
2010    27      0       2.270118        241.2565
2010    27      1       2.232906        240.4173
2010    27      2       1.759019        222.5556
2010    27      3       1.406759        202.6268
2010    27      4       1.24935         190.993
2010    27      5       1.165617        184.3764
2010    27      6       1.342089        197.6857
2010    27      7       1.763615        220.8873
2010    28      0       1.823759        222.884
2010    28      1       1.904428        225.654
2010    28      2       1.648754        213.1969
2010    28      3       1.648404        212.2063
2010    28      4       1.659927        212.7856
2010    28      5       1.68631         214.1828
2010    28      6       1.515413        205.57
2010    28      7       1.255823        188.3885
2010    29      0       1.214853        185.0979
2010    29      1       0.9517551       162.053
2010    29      2       0.6876009       133.3025
2010    29      3       0.5749639       118.7175
2010    29      4       0.5835332       119.7662
2010    29      5       0.6295823       125.5795
2010    29      6       0.616275        123.4774
2010    29      7       0.9508243       163.3383
2010    30      0       1.309654        192.4896
2010    30      1       1.294411        191.007
2010    30      2       1.272391        189.387
2010    30      3       1.261148        188.4257
2010    30      4       1.342631        194.2204
2010    30      5       1.300019        191.8182
2010    30      6       1.366967        196.6951
2010    30      7       1.390575        197.9712
2010    31      0       1.263531        189.7572
2010    31      1       1.126171        179.295
2010    31      2       1.094085        176.3901
2010    31      3       1.047818        172.3146
2010    31      4       0.9991192       167.9838
2010    31      5       0.9808493       166.4022
2010    31      6       1.005555        169.0719
2010    31      7       1.284607        192.7102
2011    1       0       1.591226        216.5471
2011    1       1       1.659506        219.3611
2011    1       2       1.589181        215.7652
2011    1       3       1.93983         231.0834
2011    1       4       2.378939        244.4399
2011    1       5       1.996247        233.5081
2011    1       6       2.0796          237.2616
2011    1       7       2.537083        250.4474
2011    2       0       2.311507        245.9455
2011    2       1       1.846502        230.6641
2011    2       2       1.598835        219.0447
2011    2       3       1.561725        216.6025
2011    2       4       1.701446        222.8248
2011    2       5       1.623996        218.1201
2011    2       6       1.702784        222.3513
2011    2       7       1.917249        232.7312
2011    3       0       2.017494        237.0644
2011    3       1       2.015473        236.8854
2011    3       2       2.15587         241.2748
2011    3       3       2.307014        244.8798
2011    3       4       2.269248        243.081
2011    3       5       2.266343        242.5211
2011    3       6       2.566451        250.0906
2011    3       7       2.077054        236.7104
2011    4       0       1.778755        225.7027
2011    4       1       1.611328        218.0136
2011    4       2       1.510337        212.4795
2011    4       3       1.472958        210.4596
2011    4       4       1.514028        212.4541
2011    4       5       1.552394        214.6922
2011    4       6       1.500223        212.1351
2011    4       7       1.47901         211.2752
2011    5       0       1.638377        221.0963
2011    5       1       1.697527        224.3591
2011    5       2       1.746552        226.8888
2011    5       3       1.52269         215.5279
2011    5       4       1.689799        223.7116
2011    5       5       2.059242        238.2053
2011    5       6       2.149           240.7967
2011    5       7       2.477785        249.7704
2011    6       0       3.160903        262.1996
2011    6       1       2.999333        259.3043
2011    6       2       1.745201        223.8949
2011    6       3       1.780646        223.6878
2011    6       4       1.22307         189.3264
2011    6       5       1.408678        201.2015
2011    6       6       1.532439        208.4303
2011    6       7       1.692518        218.0012
2011    7       0       2.164206        237.0971
2011    7       1       2.68977         251.9409
2011    7       2       1.981388        234.7088
2011    7       3       2.19341         241.7196
2011    7       4       2.615925        252.3311
2011    7       5       1.857905        229.3759
2011    7       6       1.501994        211.5283
2011    7       7       1.935157        232.5432
2011    8       0       1.741747        225.7779
2011    8       1       1.51345         214.0757
2011    8       2       1.683128        223.095
2011    8       3       1.694788        223.8031
2011    8       4       1.69626         223.9471
2011    8       5       1.708682        224.4175
2011    8       6       1.714456        225.1707
2011    8       7       1.882916        233.3818
2011    9       0       2.022621        239.0231
2011    9       1       1.895658        234.1733
2011    9       2       1.657226        223.3236
2011    9       3       1.60071         220.0848
2011    9       4       1.694263        224.176
2011    9       5       1.745374        226.0713
2011    9       6       1.728752        225.1682
2011    9       7       2.016384        237.2809
2011    10      0       1.890509        231.3715
2011    10      1       1.807856        228.1554
2011    10      2       1.915572        234.2285
2011    10      3       1.868023        232.3918
2011    10      4       2.033773        237.8396
2011    10      5       2.237665        243.65
2011    10      6       2.419726        248.6256
2011    10      7       2.30666         246.0305
2011    11      0       2.229142        244.0122
2011    11      1       2.147247        241.3622
2011    11      2       1.999221        236.2844
2011    11      3       2.016496        237.0516
2011    11      4       2.369915        247.9176
2011    11      5       2.423068        248.8296
2011    11      6       1.961708        233.417
2011    11      7       1.767188        223.7289
2011    12      0       1.806163        226.1358
2011    12      1       2.059752        237.484
2011    12      2       1.743682        224.9835
2011    12      3       1.304353        198.5654
2011    12      4       1.404605        205.0677
2011    12      5       1.489774        211.0445
2011    12      6       1.476958        210.6668
2011    12      7       1.776935        226.5138
2011    13      0       2.413669        248.4869
2011    13      1       3.038116        260.028
2011    13      2       2.616488        253.1476
2011    13      3       2.187965        241.8276
2011    13      4       1.811007        226.8719
2011    13      5       1.702888        220.8098
2011    13      6       1.75365         223.3572
2011    13      7       2.303327        244.2351
2011    14      0       2.382738        246.4524
2011    14      1       2.732741        253.4257
2011    14      2       2.953049        257.2772
2011    14      3       3.011331        259.0023
2011    14      4       3.378015        264.1839
2011    14      5       1.866089        229.1697
2011    14      6       1.514579        210.6895
2011    14      7       1.515405        209.5598
2011    15      0       1.521482        209.1766
2011    15      1       1.417499        202.503
2011    15      2       1.049926        174.1512
2011    15      3       0.7391976       141.929
2011    15      4       0.6506039       130.3257
2011    15      5       0.7647973       144.8812
2011    15      6       1.197527        187.2983
2011    15      7       1.660797        216.3522
2011    16      0       1.969665        230.5305
2011    16      1       1.449812        204.8274
2011    16      2       1.172727        185.9228
2011    16      3       1.242362        190.7848
2011    16      4       1.326756        196.2574
2011    16      5       1.601018        212.7775
2011    16      6       1.899768        227.0928
2011    16      7       1.828972        224.3106
2011    17      0       1.552915        211.8414
2011    17      1       1.388584        202.5914
2011    17      2       1.456169        205.7421
2011    17      3       1.240957        190.4574
2011    17      4       0.9066015       159.9328
2011    17      5       0.8276124       150.9129
2011    17      6       0.9088696       159.6559
2011    17      7       1.268174        191.6835
2011    18      0       1.338038        196.7399
2011    18      1       1.341535        196.6806
2011    18      2       1.294403        193.4822
2011    18      3       1.249289        190.0177
2011    18      4       1.266208        190.8019
2011    18      5       1.299097        192.9952
2011    18      6       1.378048        199.1855
2011    18      7       1.515156        208.4439
2011    19      0       1.600196        214.006
2011    19      1       1.42807         203.3228
2011    19      2       1.362694        198.7353
2011    19      3       1.394857        200.3569
2011    19      4       1.356594        197.6416
2011    19      5       1.23867         189.4079
2011    19      6       1.12364         180.1926
2011    19      7       1.247257        189.6239
2011    20      0       1.63841         213.9118
2011    20      1       1.891032        226.38
2011    20      2       1.947257        230.1186
2011    20      3       2.076991        236.6915
2011    20      4       2.501503        250.0941
2011    20      5       2.459392        250.1984
2011    20      6       2.249439        245.5136
2011    20      7       1.887962        233.367
2011    21      0       1.401104        207.9913
2011    21      1       1.915194        235.189
2011    21      2       2.299831        248.0276
2011    21      3       2.68947         256.2167
2011    21      4       2.847582        258.584
2011    21      5       2.94494         259.7214
2011    21      6       3.229545        262.4908
2011    21      7       3.112041        261.8398
2011    22      0       2.488538        252.4443
2011    22      1       2.650542        255.286
2011    22      2       3.332295        264.069
2011    22      3       3.366138        263.9149
2011    22      4       2.792754        256.4646
2011    22      5       2.245973        245.0276
2011    22      6       1.815059        229.259
2011    22      7       1.483185        211.8098
2011    23      0       1.380466        203.8803
2011    23      1       1.361071        201.7027
2011    23      2       1.380771        202.9112
2011    23      3       1.442347        207.383
2011    23      4       1.360571        201.4487
2011    23      5       1.414339        204.2175
2011    23      6       1.266502        194.4423
2011    23      7       1.069792        178.4243
2011    24      0       1.075721        178.45
2011    24      1       1.741238        221.9932
2011    24      2       2.235577        242.1201
2011    24      3       2.855051        256.5054
2011    24      4       2.736303        254.3696
2011    24      5       2.476378        247.4684
2011    24      6       0.9010371       163.0613
2011    24      7       0.7014608       139.3288
2011    25      0       0.9770723       170.9345
2011    25      1       0.8505829       156.7943
2011    25      2       0.4759547       104.948
2011    25      3       0.6178204       125.7677
2011    25      4       0.772375        146.9093
2011    25      5       0.8589152       156.9743
2011    25      6       0.839774        155.1674
2011    25      7       0.7564201       145.6974
2011    26      0       0.7191306       140.5172
2011    26      1       0.6587645       132.2348
2011    26      2       0.5979224       123.3545
2011    26      3       0.8101553       149.9896
2011    26      4       1.081056        177.393
2011    26      5       1.220077        190.0709
2011    26      6       0.9246405       164.9197
2011    26      7       0.8729314       159.5892
2011    27      0       1.096765        182.6538
2011    27      1       1.550052        214.7129
2011    27      2       1.593958        217.4176
2011    27      3       1.510409        213.0289
2011    27      4       1.641103        219.896
2011    27      5       1.891691        230.1042
2011    27      6       1.776676        223.6286
2011    27      7       1.917819        228.9974
2011    28      0       2.054827        234.5527
2011    28      1       1.256514        194.9692
2011    28      2       1.352461        202.6228
2011    28      3       1.372531        204.1814
2011    28      4       1.601504        217.4484
2011    28      5       1.992975        235.0508
2011    28      6       2.146267        241.0097
2011    28      7       2.52986         251.0339
2011    29      0       3.091521        260.7025
2011    29      1       2.824964        257.1825
2011    29      2       2.673802        254.6086
2011    29      3       3.270393        263.4235
2011    29      4       3.295556        263.3141
2011    29      5       2.979993        258.2146
2011    29      6       2.107968        238.5478
2011    29      7       1.61427         218.4934
2011    30      0       1.428473        206.0136
2011    30      1       1.378441        201.3994
2011    30      2       1.243168        191.6322
2011    30      3       1.162449        185.0792
2011    30      4       1.204501        187.661
2011    30      5       1.170191        184.3913
2011    30      6       1.233708        189.0072
2011    30      7       1.551838        209.6882
2011    31      0       1.770216        222.0772
2011    31      1       1.493358        207.6284
2011    31      2       1.369695        198.7501
2011    31      3       1.256758        190.248
2011    31      4       1.004936        168.68
2011    31      5       0.7909392       146.1628
2011    31      6       0.9423069       163.5419
2011    31      7       1.326922        197.5349
2012    1       0       1.274018        196.7383
2012    1       1       1.337371        200.9741
2012    1       2       1.272197        196.1011
2012    1       3       1.032536        176.4244
2012    1       4       1.000265        173.2732
2012    1       5       1.652046        219.6048
2012    1       6       2.01931         234.68
2012    1       7       1.705709        221.9133
2012    2       0       1.476613        208.7788
2012    2       1       2.158759        237.8581
2012    2       2       2.024564        232.4133
2012    2       3       1.50785         209.4756
2012    2       4       1.517703        209.0746
2012    2       5       1.711098        218.0816
2012    2       6       2.136025        235.016
2012    2       7       2.05463         234.9612
2012    3       0       2.171317        239.8722
2012    3       1       2.37871         246.1884
2012    3       2       1.891836        231.5369
2012    3       3       1.471072        210.5662
2012    3       4       1.40686         205.3897
2012    3       5       2.375753        245.7883
2012    3       6       3.030416        259.5522
2012    3       7       2.960595        260.2172
2012    4       0       3.243973        264.0228
2012    4       1       2.834633        258.9182
2012    4       2       2.771428        258.5928
2012    4       3       2.48505         253.3967
2012    4       4       1.878318        233.9544
2012    4       5       2.292888        246.0064
2012    4       6       2.118835        241.5136
2012    4       7       1.643646        222.7585
2012    5       0       1.47305         212.2954
2012    5       1       1.282776        198.6801
2012    5       2       1.218943        194.732
2012    5       3       1.124549        187.0526
2012    5       4       1.092038        183.9646
2012    5       5       1.186751        191.3317
2012    5       6       1.428307        208.4771
2012    5       7       1.748315        226.8135
2012    6       0       2.307908        247.1058
2012    6       1       2.980211        261.2387
2012    6       2       2.747952        258.5743
2012    6       3       1.89572         236.1638
2012    6       4       1.468744        214.4017
2012    6       5       1.661661        224.8027
2012    6       6       1.735092        229.2824
2012    6       7       1.901916        236.7503
2012    7       0       1.992196        240.2525
2012    7       1       2.174254        246.0797
2012    7       2       2.360026        251.4185
2012    7       3       2.091624        243.7604
2012    7       4       1.936473        237.4856
2012    7       5       1.830872        232.5651
2012    7       6       1.854441        233.5283
2012    7       7       1.992608        239.1671
2012    8       0       2.072167        242.0629
2012    8       1       2.000432        239.164
2012    8       2       2.02865         239.9227
2012    8       3       2.350215        249.1149
2012    8       4       2.433279        251.5936
2012    8       5       2.454063        252.5905
2012    8       6       2.267779        247.8906
2012    8       7       1.703709        226.2717
2012    9       0       2.127304        242.5124
2012    9       1       2.214995        245.3801
2012    9       2       1.826949        230.1907
2012    9       3       1.503438        211.4369
2012    9       4       1.490213        211.4624
2012    9       5       0.926076        166.4891
2012    9       6       1.026566        176.9315
2012    9       7       0.3800989       90.61832
2012    10      0       0.4361924       100.6422
2012    10      1       0.5740449       121.8846
2012    10      2       0.6290309       128.872
2012    10      3       0.6257415       127.8353
2012    10      4       1.03961         176.4994
2012    10      5       1.205181        190.2845
2012    10      6       1.432095        205.2912
2012    10      7       1.764051        223.1667
2012    11      0       1.610752        215.8249
2012    11      1       1.731712        220.8725
2012    11      2       0.9790548       169.0569
2012    11      3       0.8999908       160.1184
2012    11      4       1.212548        189.1587
2012    11      5       1.063785        177.3291
2012    11      6       1.066391        178.1552
2012    11      7       1.283586        195.9495
2012    12      0       1.27184         195.2497
2012    12      1       1.116042        182.9277
2012    12      2       1.013106        173.7066
2012    12      3       0.9779098       170.3074
2012    12      4       0.9096732       163.1771
2012    12      5       1.011467        172.934
2012    12      6       1.274658        194.7619
2012    12      7       1.299281        197.3574
2012    13      0       1.292947        197.4642
2012    13      1       1.573844        215.8804
2012    13      2       2.256502        244.0467
2012    13      3       2.134603        240.2323
2012    13      4       2.028127        234.6441
2012    13      5       1.555714        211.8464
2012    13      6       1.396987        203.0956
2012    13      7       1.578785        213.941
2012    14      0       2.255458        241.8906
2012    14      1       2.64549         251.4373
2012    14      2       2.702989        252.0487
2012    14      3       2.675488        251.2129
2012    14      4       2.323686        241.6268
2012    14      5       1.762218        220.7568
2012    14      6       1.122548        180.2469
2012    14      7       0.8128559       150.9215
2012    15      0       1.032059        174.7558
2012    15      1       0.8932655       160.2322
2012    15      2       0.7628029       145.756
2012    15      3       0.6801752       135.118
2012    15      4       0.6932174       137.0319
2012    15      5       0.7110545       139.4553
2012    15      6       0.6867968       136.6044
2012    15      7       0.6816826       136.7536
2012    16      0       0.9282155       166.8001
2012    16      1       1.277109        197.4639
2012    16      2       1.413856        206.519
2012    16      3       1.591515        216.5978
2012    16      4       1.661882        220.5411
2012    16      5       1.574517        216.5642
2012    16      6       1.590884        217.8378
2012    16      7       1.58437         217.9599
2012    17      0       1.519288        214.7268
2012    17      1       1.53657         215.767
2012    17      2       1.513572        214.4944
2012    17      3       1.464055        211.4355
2012    17      4       1.295939        199.8205
2012    17      5       1.103819        184.6844
2012    17      6       1.083403        183.1099
2012    17      7       1.098836        186.1454
2012    18      0       0.9901597       175.6017
2012    18      1       0.8474687       160.861
2012    18      2       0.9441948       171.498
2012    18      3       1.01784         177.997
2012    18      4       1.201792        193.6979
2012    18      5       1.398059        208.3469
2012    18      6       1.498597        215.3405
2012    18      7       1.488992        214.9457
2012    19      0       1.388033        208.7623
2012    19      1       1.412217        211.5866
2012    19      2       1.541791        219.9555
2012    19      3       1.090365        185.1341
2012    19      4       0.9785894       172.8487
2012    19      5       1.105175        184.4275
2012    19      6       1.2275          194.276
2012    19      7       1.585767        217.988
2012    20      0       1.771276        227.5443
2012    20      1       2.088957        240.2926
2012    20      2       2.627883        254.4432
2012    20      3       2.950093        260.8651
2012    20      4       2.521221        253.5611
2012    20      5       2.651647        256.259
2012    20      6       2.029416        240.309
2012    20      7       1.54954         217.9619
2012    21      0       1.690847        226.1228
2012    21      1       2.077489        242.3482
2012    21      2       2.755935        259.1389
2012    21      3       2.67334         257.2988
2012    21      4       2.696012        256.8877
2012    21      5       2.891408        259.7297
2012    21      6       3.039058        261.7587
2012    21      7       3.101739        262.7978
2012    22      0       2.90868         259.1629
2012    22      1       2.190588        241.4584
2012    22      2       1.854969        229.2952
2012    22      3       1.88655         230.3654
2012    22      4       1.938585        232.5548
2012    22      5       2.327685        244.4027
2012    22      6       2.584578        250.1271
2012    22      7       3.040856        257.9492
2012    23      0       3.179889        260.2278
2012    23      1       2.74679         253.6144
2012    23      2       1.568248        215.9509
2012    23      3       0.8708846       160.6428
2012    23      4       0.9677509       169.3454
2012    23      5       1.286068        195.0905
2012    23      6       1.354953        199.4792
2012    23      7       0.7881302       149.07
2012    24      0       0.9361649       164.7275
2012    24      1       1.109484        180.571
2012    24      2       0.9730134       168.0607
2012    24      3       0.8563092       155.9833
2012    24      4       0.87148         157.6242
2012    24      5       0.9533569       166.23
2012    24      6       1.275354        193.328
2012    24      7       1.516344        210.4871
2012    25      0       1.255902        194.2286
2012    25      1       1.361723        202.0189
2012    25      2       1.946485        232.1402
2012    25      3       2.17182         239.4656
2012    25      4       2.210692        240.7729
2012    25      5       2.044703        235.1465
2012    25      6       2.122722        239.1292
2012    25      7       1.906113        232.0783
2012    26      0       1.424845        207.6689
2012    26      1       1.234332        194.3838
2012    26      2       1.124977        185.6353
2012    26      3       1.131559        186.2202
2012    26      4       1.252196        195.3011
2012    26      5       1.398756        204.9961
2012    26      6       1.397842        205.164
2012    26      7       1.378024        204.8046
2012    27      0       1.322306        201.3767
2012    27      1       1.291455        199.1598
2012    27      2       1.504174        213.2744
2012    27      3       1.544025        215.4464
2012    27      4       1.618233        219.4437
2012    27      5       2.211852        244.5742
2012    27      6       2.223876        245.7677
2012    27      7       0.99175         175.2697
2012    28      0       1.558495        218.4144
2012    28      1       1.413642        209.0042
2012    28      2       1.014497        174.8676
2012    28      3       1.003123        173.7277
2012    28      4       1.242428        194.1036
2012    28      5       1.239885        193.6612
2012    28      6       1.259321        195.0801
2012    28      7       1.579644        215.2345
2012    29      0       1.632887        217.0996
2012    29      1       1.464902        206.7792
2012    29      2       1.591312        214.2459
2012    29      3       1.432508        205.3278
2012    29      4       1.495182        207.7222
2012    29      5       1.375638        200.1953
2012    29      6       1.679006        217.8613
2012    29      7       1.990114        231.4679
2012    30      0       1.832237        225.7029
2012    30      1       1.50197         209.8349
2012    30      2       1.345911        200.2291
2012    30      3       1.080687        179.1973
2012    30      4       0.9773069       169.3564
2012    30      5       1.199641        188.5209
2012    30      6       1.349847        199.1619
2012    30      7       1.3489          199.1505
2012    31      0       1.300737        196.0776
2012    31      1       1.059923        176.7809
2012    31      2       0.8931125       160.179
2012    31      3       0.9044712       160.6893
2012    31      4       0.9594229       166.0213
2012    31      5       0.9358161       164.4291
2012    31      6       1.097698        179.9921
2012    31      7       1.326691        197.6872
2013    1       0       1.904799        232.7891
2013    1       1       2.33374         246.6559
2013    1       2       2.09573         240.3515
2013    1       3       1.741601        226.8744
2013    1       4       1.620453        220.3964
2013    1       5       1.498502        212.9882
2013    1       6       1.431262        208.9581
2013    1       7       1.556175        217.0008
2013    2       0       1.300691        200.4019
2013    2       1       1.324313        201.7761
2013    2       2       1.363967        204.2141
2013    2       3       1.544707        215.1938
2013    2       4       1.864888        230.6265
2013    2       5       1.779468        226.6179
2013    2       6       1.843486        229.5979
2013    2       7       1.936301        233.7324
2013    3       0       1.900373        232.6239
2013    3       1       1.998702        236.3368
2013    3       2       2.17292         242.4481
2013    3       3       2.189384        243.4447
2013    3       4       2.204261        243.5007
2013    3       5       2.330163        246.5796
2013    3       6       2.147437        241.6365
2013    3       7       2.064041        238.2345
2013    4       0       2.10245         238.1224
2013    4       1       2.087054        235.8244
2013    4       2       2.012737        233.6152
2013    4       3       1.895464        229.854
2013    4       4       1.861915        228.3406
2013    4       5       1.805677        226.1594
2013    4       6       2.006203        234.7496
2013    4       7       2.035996        237.6102
2013    5       0       1.823626        229.7056
2013    5       1       1.704213        224.2929
2013    5       2       1.524334        215.3635
2013    5       3       1.36605         205.7908
2013    5       4       1.111372        186.1022
2013    5       5       0.9962326       175.1041
2013    5       6       1.064308        181.4662
2013    5       7       1.240801        196.6861
2013    6       0       1.640333        222.8722
2013    6       1       1.755257        228.5419
2013    6       2       1.79712         229.6423
2013    6       3       1.67105         223.5703
2013    6       4       1.452033        211.5103
2013    6       5       1.404913        208.5206
2013    6       6       1.60693         220.3142
2013    6       7       2.271257        245.7919
2013    7       0       2.742271        256.3865
2013    7       1       3.10182         262.1939
2013    7       2       3.749849        269.3871
2013    7       3       3.668761        268.479
2013    7       4       2.363317        246.8849
2013    7       5       1.294132        197.7762
2013    7       6       1.121128        184.3149
2013    7       7       1.430092        207.9577
2013    8       0       1.329573        201.087
2013    8       1       1.295768        198.7506
2013    8       2       1.364558        203.3213
2013    8       3       1.423806        207.1744
2013    8       4       1.347333        201.8456
2013    8       5       1.26856         195.9629
2013    8       6       1.138123        186.0241
2013    8       7       1.693361        223.043
2013    9       0       1.709521        224.0523
2013    9       1       2.127638        240.6338
2013    9       2       2.467108        250.1114
2013    9       3       2.619492        253.1113
2013    9       4       2.943798        258.8342
2013    9       5       2.860467        257.7065
2013    9       6       2.467268        250.8468
2013    9       7       2.371248        249.7652
2013    10      0       2.252851        246.6249
2013    10      1       2.333827        249.0891
2013    10      2       2.463579        252.8643
2013    10      3       2.393093        251.0591
2013    10      4       2.750946        257.9289
2013    10      5       2.641443        256.1566
2013    10      6       2.56994         255.4701
2013    10      7       2.443022        252.5517
2013    11      0       1.915831        235.9727
2013    11      1       2.156191        244.7261
2013    11      2       2.34959         250.2003
2013    11      3       2.470457        252.8481
2013    11      4       2.428174        251.4157
2013    11      5       2.600128        255.661
2013    11      6       2.483973        253.0645
2013    11      7       2.509352        253.694
2013    12      0       2.302962        248.4182
2013    12      1       2.245679        246.6434
2013    12      2       2.135652        242.618
2013    12      3       2.299842        246.5665
2013    12      4       1.904832        233.8388
2013    12      5       2.000522        237.4285
2013    12      6       2.095475        241.5537
2013    12      7       2.720622        259.058
2013    13      0       2.820505        260.9431
2013    13      1       2.907596        262.6965
2013    13      2       3.035686        264.2547
2013    13      3       3.149316        265.7794
2013    13      4       3.423975        268.5678
2013    13      5       3.471422        269.1512
2013    13      6       3.558331        270.027
2013    13      7       3.100764        265.9347
2013    14      0       2.864284        262.4303
2013    14      1       2.798857        260.2705
2013    14      2       3.186442        266.1048
2013    14      3       2.591375        255.8541
2013    14      4       2.358825        249.5376
2013    14      5       2.459597        252.3002
2013    14      6       2.455171        252.4624
2013    14      7       2.360666        251.0111
2013    15      0       2.443653        253.1301
2013    15      1       2.597692        256.2259
2013    15      2       2.747584        258.3735
2013    15      3       2.526916        253.2123
2013    15      4       2.113763        242.0486
2013    15      5       2.227745        245.2105
2013    15      6       2.45821         250.8492
2013    15      7       2.388765        249.2958
2013    16      0       2.122203        242.4544
2013    16      1       2.19881         245.2393
2013    16      2       2.517929        253.3965
2013    16      3       2.730909        257.5607
2013    16      4       2.790126        258.158
2013    16      5       2.844065        258.5863
2013    16      6       2.899814        258.747
2013    16      7       3.164277        261.4606
2013    17      0       2.728592        254.8439
2013    17      1       2.579152        252.926
2013    17      2       2.323075        246.9437
2013    17      3       1.443724        209.3147
2013    17      4       1.387081        204.727
2013    17      5       1.511559        212.0429
2013    17      6       1.531049        213.3101
2013    17      7       1.789692        227.3515
2013    18      0       2.083626        239.0084
2013    18      1       2.073418        238.1296
2013    18      2       1.73694         224.756
2013    18      3       1.460068        209.9183
2013    18      4       1.320636        200.5183
2013    18      5       1.627645        218.2618
2013    18      6       2.372078        245.6317
2013    18      7       2.415814        246.5329
2013    19      0       2.276784        242.9272
2013    19      1       1.45914         208.7044
2013    19      2       1.047484        177.0764
2013    19      3       1.016997        173.9008
2013    19      4       0.9310947       164.0873
2013    19      5       1.148446        182.8778
2013    19      6       1.353045        198.343
2013    19      7       1.842745        225.5996
2013    20      0       1.442496        204.5623
2013    20      1       1.312636        195.4662
2013    20      2       1.464869        205.2293
2013    20      3       1.431073        203.4883
2013    20      4       1.185343        185.9244
2013    20      5       1.096588        177.6965
2013    20      6       1.603604        211.6754
2013    20      7       1.966697        229.3455
2013    21      0       1.793699        223.5921
2013    21      1       1.830308        225.6087
2013    21      2       2.047828        234.517
2013    21      3       2.277153        242.1081
2013    21      4       2.216881        239.9402
2013    21      5       1.843484        226.5493
2013    21      6       1.745102        223.3822
2013    21      7       1.678077        220.8939
2013    22      0       1.05065         177.6199
2013    22      1       0.832391        154.6877
2013    22      2       1.783265        226.8788
2013    22      3       2.086903        238.9059
2013    22      4       1.673395        221.2419
2013    22      5       2.263646        243.5479
2013    22      6       2.167652        240.6883
2013    22      7       2.618124        251.8183
2013    23      0       2.068325        237.2991
2013    23      1       1.889377        230.9837
2013    23      2       1.809185        227.0653
2013    23      3       1.802061        226.2577
2013    23      4       1.893983        230.4581
2013    23      5       2.016118        235.7649
2013    23      6       2.00857         236.1391
2013    23      7       2.177527        242.1686
2013    24      0       2.237686        244.0878
2013    24      1       2.17063         242.5124
2013    24      2       2.161519        242.3528
2013    24      3       2.325738        246.6012
2013    24      4       2.586404        251.7117
2013    24      5       2.848279        255.3085
2013    24      6       2.078971        237.5318
2013    24      7       1.544378        213.8468
2013    25      0       1.439354        207.8863
2013    25      1       1.548289        213.5742
2013    25      2       2.126485        239.0157
2013    25      3       2.791916        254.8928
2013    25      4       2.611041        250.7851
2013    25      5       1.916733        229.3601
2013    25      6       1.318207        197.0391
2013    25      7       1.139925        183.8428
2013    26      0       1.452272        207.3078
2013    26      1       1.411696        204.762
2013    26      2       1.22289         191.1777
2013    26      3       1.151097        185.4079
2013    26      4       1.10563         181.855
2013    26      5       1.069542        178.9377
2013    26      6       1.032564        175.7662
2013    26      7       1.197589        189.9254
2013    27      0       1.487527        210.0609
2013    27      1       1.702305        221.1462
2013    27      2       1.77864         223.7048
2013    27      3       2.114162        237.0223
2013    27      4       1.861501        228.247
2013    27      5       1.786098        224.8694
2013    27      6       1.837743        226.4792
2013    27      7       1.548675        211.9115
2013    28      0       1.566351        213.4858
2013    28      1       1.33849         199.1937
2013    28      2       1.229456        191.2751
2013    28      3       1.191087        188.2108
2013    28      4       1.217439        189.8699
2013    28      5       1.362807        200.1251
2013    28      6       1.882125        226.9604
2013    28      7       2.291642        241.3406
2013    29      0       1.961812        233.1245
2013    29      1       1.716155        223.0825
2013    29      2       1.62674         218.2141
2013    29      3       1.685702        220.8623
2013    29      4       2.019214        234.2634
2013    29      5       2.12766         238.514
2013    29      6       2.05237         236.5217
2013    29      7       2.378324        245.855
2013    30      0       2.572906        250.3656
2013    30      1       2.695305        252.7236
2013    30      2       2.496752        249.7323
2013    30      3       2.583779        252.0312
2013    30      4       2.612499        252.4835
2013    30      5       2.45129         248.5458
2013    30      6       2.447427        248.4842
2013    30      7       3.112753        261.5206
2013    31      0       2.918223        258.9
2013    31      1       2.369459        247.7895
2013    31      2       2.233296        244.0744
2013    31      3       2.264638        244.891
2013    31      4       2.329565        246.567
2013    31      5       2.181661        242.524
2013    31      6       2.025195        237.2864
2013    31      7       1.887112        231.9778
2014    1       0       1.605628        218.3101
2014    1       1       1.673712        221.688
2014    1       2       1.707954        223.288
2014    1       3       1.758542        225.2463
2014    1       4       1.614784        217.9848
2014    1       5       1.545561        214.3022
2014    1       6       1.594358        217.2074
2014    1       7       1.75465         225.8913
2014    2       0       1.602167        219.6116
2014    2       1       1.322766        202.5345
2014    2       2       1.289246        199.4646
2014    2       3       1.303622        200.0663
2014    2       4       1.181262        190.2813
2014    2       5       1.097096        183.279
2014    2       6       1.065594        180.9663
2014    2       7       1.016932        176.8465
2014    3       0       1.129193        187.7615
2014    3       1       1.308716        202.5839
2014    3       2       1.167357        191.5905
2014    3       3       1.1262          188.0539
2014    3       4       1.100426        185.5766
2014    3       5       1.064409        181.8691
2014    3       6       1.124113        187.5768
2014    3       7       1.373164        207.7369
2014    4       0       1.44629         212.8988
2014    4       1       1.458667        213.5287
2014    4       2       1.446822        212.7286
2014    4       3       1.334222        205.4533
2014    4       4       1.226142        197.3873
2014    4       5       1.283435        201.7344
2014    4       6       1.198345        194.6305
2014    4       7       1.11899         187.5049
2014    5       0       1.019933        178.2882
2014    5       1       0.9084833       166.7814
2014    5       2       0.8045566       154.5794
2014    5       3       0.7100714       142.4169
2014    5       4       0.6610149       135.8428
2014    5       5       0.5702132       122.6816
2014    5       6       0.6739794       138.2853
2014    5       7       0.7721347       151.3872
2014    6       0       0.8786557       163.4041
2014    6       1       1.610299        221.4157
2014    6       2       3.496486        268.2185
2014    6       3       2.620525        253.9278
2014    6       4       1.668801        221.2482
2014    6       5       1.334411        201.9332
2014    6       6       1.221688        192.9498
2014    6       7       1.288288        198.042
2014    7       0       1.366583        203.3904
2014    7       1       1.134737        185.9414
2014    7       2       1.077129        180.4411
2014    7       3       0.9748994       171.0647
2014    7       4       0.9071516       163.7553
2014    7       5       0.8564905       157.1655
2014    7       6       0.7474959       144.4729
2014    7       7       0.9144121       163.9081
2014    8       0       1.015896        174.0937
2014    8       1       1.113534        182.4655
2014    8       2       1.37567         201.5383
2014    8       3       1.531096        210.8573
2014    8       4       1.710471        219.3138
2014    8       5       1.236209        191.3779
2014    8       6       1.152479        184.9219
2014    8       7       1.688584        218.8559
2014    9       0       1.836331        225.4511
2014    9       1       1.673371        217.9834
2014    9       2       1.317328        197.6518
2014    9       3       1.018322        173.5855
2014    9       4       0.9346865       165.3515
2014    9       5       0.9509636       166.7649
2014    9       6       1.17045         186.2521
2014    9       7       1.433244        205.3617
2014    10      0       1.954534        231.0962
2014    10      1       2.298062        241.9258
2014    10      2       2.124875        237.0015
2014    10      3       1.857579        227.6149
2014    10      4       1.904012        230.1136
2014    10      5       2.084023        237.1079
2014    10      6       2.192873        241.0974
2014    10      7       2.164172        240.7401
2014    11      0       2.521178        250.4994
2014    11      1       2.294535        245.9778
2014    11      2       2.285748        246.427
2014    11      3       2.143219        242.9316
2014    11      4       1.875331        233.3677
2014    11      5       1.695937        225.1378
2014    11      6       1.566224        218.7616
2014    11      7       1.482197        214.0416
2014    12      0       1.262008        198.4701
2014    12      1       1.007668        176.4162
2014    12      2       1.317514        202.7441
2014    12      3       1.837195        232.7364
2014    12      4       2.011434        239.4129
2014    12      5       1.891602        235.2099
2014    12      6       1.929203        236.8676
2014    12      7       1.764521        230.2022
2014    13      0       1.611258        222.7604
2014    13      1       1.699017        227.7311
2014    13      2       2.31807         251.3005
2014    13      3       2.590584        257.7498
2014    13      4       1.900452        236.8104
2014    13      5       1.055843        181.8664
2014    13      6       0.9990424       176.3792
2014    13      7       1.092341        185.6794
2014    14      0       1.219562        197.0288
2014    14      1       1.168845        192.5961
2014    14      2       1.482386        215.0655
2014    14      3       1.921694        237.332
2014    14      4       1.993764        239.7324
2014    14      5       1.974789        238.6608
2014    14      6       1.822608        232.2595
2014    14      7       1.862593        233.8194
2014    15      0       2.099228        243.0334
2014    15      1       2.208024        246.6604
2014    15      2       2.361921        251.0835
2014    15      3       2.524615        255.1301
2014    15      4       2.605014        256.8581
2014    15      5       2.569379        255.8574
2014    15      6       2.587598        256.2421
2014    15      7       2.649231        257.7882
2014    16      0       2.646781        258.0607
2014    16      1       2.780688        260.3378
2014    16      2       2.994917        263.4039
2014    16      3       3.035604        263.9168
2014    16      4       3.183412        265.2272
2014    16      5       3.521332        268.5546
2014    16      6       3.963295        272.3493
2014    16      7       3.783764        271.1099
2014    17      0       2.96257         261.8815
2014    17      1       3.375656        267.0678
2014    17      2       2.622942        256.2394
2014    17      3       2.053385        240.7031
2014    17      4       2.014808        239.0257
2014    17      5       1.346574        204.84
2014    17      6       0.8504781       160.348
2014    17      7       0.7420777       144.6321
2014    18      0       1.705361        224.7732
2014    18      1       2.389454        250.505
2014    18      2       2.508013        253.9443
2014    18      3       2.891814        260.0502
2014    18      4       3.25181         264.479
2014    18      5       3.092603        261.8392
2014    18      6       2.823265        257.273
2014    18      7       2.271138        244.1805
2014    19      0       1.563458        215.3532
2014    19      1       2.110723        238.4974
2014    19      2       1.982029        233.8526
2014    19      3       1.391053        206.1129
2014    19      4       1.39225         205.2147
2014    19      5       1.46381         208.4154
2014    19      6       1.745272        221.5073
2014    19      7       1.817173        225.1601
2014    20      0       1.613318        215.1647
2014    20      1       1.499262        208.5439
2014    20      2       1.46709         206.5603
2014    20      3       1.399045        202.1992
2014    20      4       1.401016        201.9658
2014    20      5       1.418955        202.8732
2014    20      6       1.541714        209.9594
2014    20      7       1.677177        216.4104
2014    21      0       1.257039        190.9375
2014    21      1       0.9499228       164.2379
2014    21      2       0.8981618       158.841
2014    21      3       0.8687042       155.4508
2014    21      4       0.8065792       148.0474
2014    21      5       0.7909852       146.1025
2014    21      6       0.7889243       146.2281
2014    21      7       0.8825813       158.3653
2014    22      0       0.8703367       157.2833
2014    22      1       0.854069        154.6139
2014    22      2       0.8529116       155.0699
2014    22      3       0.8140061       150.6476
2014    22      4       0.7602326       144.2033
2014    22      5       0.7045182       137.1529
2014    22      6       0.6612871       131.5235
2014    22      7       0.7095098       138.1638
2014    23      0       0.7057069       138.1676
2014    23      1       0.7593013       145.1602
2014    23      2       0.9503696       166.8069
2014    23      3       1.023241        173.3689
2014    23      4       0.9612911       168.4689
2014    23      5       0.9728029       168.9376
2014    23      6       1.049417        176.7196
2014    23      7       1.193498        189.5507
2014    24      0       1.144965        185.7815
2014    24      1       1.101705        182.0622
2014    24      2       1.275888        195.9751
2014    24      3       1.385092        203.3424
2014    24      4       1.248466        193.3472
2014    24      5       1.318019        198.3876
2014    24      6       1.402416        204.1717
2014    24      7       1.478736        209.3352
2014    25      0       1.522154        212.5503
2014    25      1       1.454777        209.0591
2014    25      2       1.269016        196.8124
2014    25      3       1.157619        187.8271
2014    25      4       1.360815        202.1203
2014    25      5       1.805399        225.0545
2014    25      6       2.093474        236.906
2014    25      7       2.129173        241.3671
2014    26      0       1.810206        230.1433
2014    26      1       1.779393        228.926
2014    26      2       1.896397        234.2369
2014    26      3       2.707625        256.0505
2014    26      4       2.373224        248.1176
2014    26      5       2.150937        241.4829
2014    26      6       2.347122        247.2875
2014    26      7       2.812684        257.8562
2014    27      0       3.471872        265.878
2014    27      1       2.223943        244.6234
2014    27      2       1.674017        222.4249
2014    27      3       1.349994        202.3131
2014    27      4       1.14449         185.3655
2014    27      5       1.325509        198.7996
2014    27      6       1.151073        185.4988
2014    27      7       1.23628         193.2022
2014    28      0       1.17964         188.2718
2014    28      1       1.303969        197.0546
2014    28      2       1.315437        197.5951
2014    28      3       1.266284        193.7376
2014    28      4       1.334482        197.6822
2014    28      5       1.334257        197.4102
2014    28      6       1.183374        187.3286
2014    28      7       1.059502        177.9285
2014    29      0       0.955161        168.6291
2014    29      1       0.9367443       166.6195
2014    29      2       0.9922605       171.8841
2014    29      3       1.034367        175.2826
2014    29      4       1.185393        188.1719
2014    29      5       1.596207        214.8042
2014    29      6       2.287013        241.4588
2014    29      7       2.713245        252.2757
2014    30      0       2.557655        248.8691
2014    30      1       1.827062        225.1545
2014    30      2       1.557018        212.425
2014    30      3       1.296165        196.4667
2014    30      4       1.391624        202.3361
2014    30      5       1.678038        218.1904
2014    30      6       1.788183        222.979
2014    30      7       1.967829        230.6488
2014    31      0       2.055644        234.3693
2014    31      1       1.854831        226.353
2014    31      2       1.682899        218.2806
2014    31      3       1.609521        214.0276
2014    31      4       1.828663        223.8578
2014    31      5       1.926748        228.2748
2014    31      6       1.855943        225.4532
2014    31      7       1.889599        226.6251
2015    1       0       2.507086        249.5254
2015    1       1       2.289428        243.7003
2015    1       2       2.005219        235.1512
2015    1       3       1.779919        225.9739
2015    1       4       1.535571        212.8414
2015    1       5       1.480391        209.3273
2015    1       6       2.351564        244.344
2015    1       7       3.004526        257.7853
2015    2       0       2.646189        251.8762
2015    2       1       2.026303        235.3156
2015    2       2       2.11356         238.0158
2015    2       3       2.193347        240.9118
2015    2       4       2.304901        243.8537
2015    2       5       2.346217        244.8656
2015    2       6       2.332099        245.0589
2015    2       7       2.560221        251.3423
2015    3       0       2.746983        255.8022
2015    3       1       2.634154        254.5408
2015    3       2       2.870439        259.2172
2015    3       3       2.894993        259.9367
2015    3       4       2.638527        255.8811
2015    3       5       2.618783        255.9955
2015    3       6       2.711701        257.1703
2015    3       7       2.586277        254.1512
2015    4       0       2.739791        258.2388
2015    4       1       3.571089        267.9616
2015    4       2       3.582756        268.9779
2015    4       3       3.756739        271.0015
2015    4       4       2.37079         250.1061
2015    4       5       1.898324        230.2662
2015    4       6       0.7552889       143.812
2015    4       7       0.4256777       96.80328
2015    5       0       0.6864328       137.3936
2015    5       1       0.7331438       143.3936
2015    5       2       0.7529359       145.42
2015    5       3       1.015604        173.9913
2015    5       4       1.236995        192.7236
2015    5       5       1.579408        215.0926
2015    5       6       2.004392        233.8997
2015    5       7       2.341639        243.7573
2015    6       0       3.034257        258.131
2015    6       1       3.154236        260.0722
2015    6       2       3.009908        257.7274
2015    6       3       2.674088        252.06
2015    6       4       2.401505        246.617
2015    6       5       2.113358        238.7161
2015    6       6       2.395513        247.0477
2015    6       7       2.28822         243.6642
2015    7       0       2.350373        245.2645
2015    7       1       2.34729         245.4283
2015    7       2       2.077177        237.5108
2015    7       3       1.810108        227.379
2015    7       4       2.065057        237.4307
2015    7       5       2.861052        257.0935
2015    7       6       2.724225        254.6122
2015    7       7       2.258045        243.5012
2015    8       0       2.525388        250.9452
2015    8       1       2.287282        243.8999
2015    8       2       2.350678        245.6345
2015    8       3       2.182361        241.1827
2015    8       4       2.206838        241.1853
2015    8       5       2.040954        235.7325
2015    8       6       2.235361        241.5685
2015    8       7       2.522667        250.5724
2015    9       0       2.045586        237.836
2015    9       1       1.933968        233.1517
2015    9       2       2.250537        243.847
2015    9       3       2.771567        256.4533
2015    9       4       2.799708        257.0602
2015    9       5       2.756383        255.9015
2015    9       6       2.820804        257.5031
2015    9       7       2.268182        245.9172
2015    10      0       1.907286        233.1247
2015    10      1       1.382528        206.0995
2015    10      2       1.573007        217.2768
2015    10      3       1.374935        205.1126
2015    10      4       1.222866        193.4502
2015    10      5       1.269794        196.3232
2015    10      6       1.291504        197.9015
2015    10      7       1.168881        188.6876
2015    11      0       1.302864        200.1738
2015    11      1       1.057637        180.3675
2015    11      2       1.054616        179.4833
2015    11      3       1.043616        177.8601
2015    11      4       1.256363        194.5583
2015    11      5       1.137733        184.6215
2015    11      6       1.540268        212.4227
2015    11      7       1.668476        218.9259
2015    12      0       1.670737        218.9034
2015    12      1       1.846936        229.5178
2015    12      2       2.325833        246.0474
2015    12      3       2.600745        251.9738
2015    12      4       2.43606         248.2914
2015    12      5       2.414125        247.735
2015    12      6       2.519755        250.7777
2015    12      7       2.599179        252.3933
2015    13      0       2.372831        247.5952
2015    13      1       2.32702         246.4428
2015    13      2       2.384727        247.3361
2015    13      3       2.064115        238.3659
2015    13      4       2.524914        250.2974
2015    13      5       2.41234         247.9917
2015    13      6       1.966794        233.8323
2015    13      7       1.709799        223.9335
2015    14      0       1.201403        191.7562
2015    14      1       0.9353151       167.1774
2015    14      2       0.9495411       167.9386
2015    14      3       0.8375678       155.6345
2015    14      4       0.7089438       139.5517
2015    14      5       0.5299669       113.7641
2015    14      6       0.3652595       85.87576
2015    14      7       0.5095204       110.5839
2015    15      0       0.4829213       105.7813
2015    15      1       0.6718443       133.5055
2015    15      2       0.7237929       139.6271
2015    15      3       0.8678839       156.5682
2015    15      4       0.8438172       154.3234
2015    15      5       0.8108968       150.4927
2015    15      6       0.7086288       138.0684
2015    15      7       0.9276698       163.666
2015    16      0       1.003471        171.1036
2015    16      1       0.8420944       154.1585
2015    16      2       0.7210033       139.5083
2015    16      3       0.7856969       147.123
2015    16      4       0.9160273       161.7502
2015    16      5       0.9951506       170.1574
2015    16      6       1.01147         172.028
2015    16      7       1.066628        177.4627
2015    17      0       1.167139        186.3271
2015    17      1       1.04718         175.8958
2015    17      2       1.095171        180.3952
2015    17      3       0.9908205       170.881
2015    17      4       1.076172        178.667
2015    17      5       1.527195        210.1324
2015    17      6       1.878635        226.3439
2015    17      7       1.732356        220.2842
2015    18      0       1.93031         228.817
2015    18      1       1.72223         219.171
2015    18      2       1.396507        201.9876
2015    18      3       1.185692        187.3258
2015    18      4       1.111951        180.8681
2015    18      5       1.17404         185.8841
2015    18      6       1.849644        227.4078
2015    18      7       2.482222        248.9288
2015    19      0       2.585408        252.3806
2015    19      1       2.034252        239.1489
2015    19      2       1.716931        226.4406
2015    19      3       2.589811        253.6761
2015    19      4       1.173655        189.1892
2015    19      5       0.732358        143.1416
2015    19      6       0.7734721       147.1683
2015    19      7       1.406197        203.0339
2015    20      0       1.851871        226.0171
2015    20      1       1.894766        227.8087
2015    20      2       1.820277        224.8321
2015    20      3       1.655579        217.5122
2015    20      4       1.533239        210.9146
2015    20      5       1.330459        198.1618
2015    20      6       1.293136        194.8248
2015    20      7       1.37923         199.7878
2015    21      0       1.507866        206.978
2015    21      1       1.379525        198.9571
2015    21      2       1.297768        192.8573
2015    21      3       1.124427        179.1235
2015    21      4       0.7066976       135.4133
2015    21      5       0.4168382       93.11139
2015    21      6       0.4141539       93.14895
2015    21      7       0.5507143       116.0169
2015    22      0       0.5966964       122.6553
2015    22      1       0.5261083       112.1055
2015    22      2       0.4307093       96.37641
2015    22      3       0.4434273       98.533
2015    22      4       0.474052        103.5033
2015    22      5       0.4772717       104.0551
2015    22      6       0.5107169       109.5546
2015    22      7       0.5822784       120.6127
2015    23      0       0.7799697       147.0819
2015    23      1       1.439244        203.4894
2015    23      2       1.851121        226.0143
2015    23      3       1.590492        214.8823
2015    23      4       1.298869        197.0973
2015    23      5       1.137905        184.4048
2015    23      6       0.9344181       165.8363
2015    23      7       0.6655282       133.4937
2015    24      0       0.732666        141.5921
2015    24      1       0.7210995       140.0136
2015    24      2       0.5194894       111.4353
2015    24      3       0.4553239       100.798
2015    24      4       0.685634        134.0989
2015    24      5       0.9339331       162.9087
2015    24      6       1.035919        172.9342
2015    24      7       1.0757          176.5241
2015    25      0       1.188897        187.1958
2015    25      1       1.13854         183.2576
2015    25      2       1.514034        209.2955
2015    25      3       1.644219        216.369
2015    25      4       2.131213        236.467
2015    25      5       2.068141        235.5123
2015    25      6       2.078042        235.1107
2015    25      7       2.176969        237.2904
2015    26      0       1.87281         225.9728
2015    26      1       1.969084        229.747
2015    26      2       1.879563        226.3414
2015    26      3       1.743357        220.5062
2015    26      4       1.658888        216.6537
2015    26      5       1.689164        218.4618
2015    26      6       1.822736        224.7703
2015    26      7       1.764885        222.6333
2015    27      0       1.455278        206.8251
2015    27      1       1.227626        190.9217
2015    27      2       1.088214        179.6375
2015    27      3       1.050895        177.0804
2015    27      4       0.9520402       167.9501
2015    27      5       0.7530833       145.57
2015    27      6       0.7204791       140.8895
2015    27      7       1.346227        201.696
2015    28      0       1.439622        207.9804
2015    28      1       1.587281        215.9894
2015    28      2       1.447398        206.7847
2015    28      3       1.431564        205.8541
2015    28      4       1.398713        204.3172
2015    28      5       1.379962        203.8102
2015    28      6       1.946859        232.9652
2015    28      7       2.520108        250.0365
2015    29      0       2.867132        256.3016
2015    29      1       2.106234        238.4941
2015    29      2       1.151835        185.3802
2015    29      3       0.9701544       169.7555
2015    29      4       0.8889609       160.7544
2015    29      5       1.023439        174.5908
2015    29      6       1.467356        208.3063
2015    29      7       1.923897        232.3039
2015    30      0       3.338664        263.5483
2015    30      1       1.962409        235.7072
2015    30      2       1.900573        232.2095
2015    30      3       1.050729        177.5833
2015    30      4       1.193321        188.7914
2015    30      5       1.332269        198.0306
2015    30      6       1.66235         216.5027
2015    30      7       0.7801372       146.9868
2015    31      0       1.196105        188.0963
2015    31      1       1.306427        194.9938
2015    31      2       1.827869        223.2522
2015    31      3       1.632093        214.9907
2015    31      4       0.7276288       140.6005
2015    31      5       0.5665781       118.0053
2015    31      6       0.6760589       132.7227
2015    31      7       1.000496        169.0346
2016    1       0       2.440892        246.4264
2016    1       1       2.255055        241.7624
2016    1       2       2.110429        237.909
2016    1       3       1.966252        233.1784
2016    1       4       1.965786        232.9674
2016    1       5       1.69404         221.3924
2016    1       6       1.893039        229.4563
2016    1       7       2.245938        241.2199
2016    2       0       2.419345        247.1137
2016    2       1       2.302519        245.012
2016    2       2       2.027496        236.2883
2016    2       3       1.863621        229.9197
2016    2       4       1.999696        234.6162
2016    2       5       2.175543        240.3198
2016    2       6       2.534464        250.1597
2016    2       7       3.084959        259.7088
2016    3       0       3.231742        262.0348
2016    3       1       2.758775        255.3527
2016    3       2       2.292369        245.1558
2016    3       3       1.894047        232.1462
2016    3       4       1.733987        224.6591
2016    3       5       1.687657        221.9322
2016    3       6       1.903616        232.2897
2016    3       7       1.733684        224.9146
2016    4       0       1.751902        226.2301
2016    4       1       1.882031        231.7088
2016    4       2       1.811315        228.7787
2016    4       3       1.704931        224.1463
2016    4       4       1.738306        225.9711
2016    4       5       1.877889        232.1064
2016    4       6       1.900524        232.9112
2016    4       7       2.195456        242.7335
2016    5       0       1.957406        234.1871
2016    5       1       1.674043        222.5411
2016    5       2       1.650047        221.3595
2016    5       3       1.634443        220.3527
2016    5       4       1.661481        221.2781
2016    5       5       1.745561        224.9877
2016    5       6       2.027523        236.6626
2016    5       7       2.435787        249.1942
2016    6       0       2.240728        244.5631
2016    6       1       2.234415        244.6028
2016    6       2       2.300261        246.775
2016    6       3       2.454283        250.8835
2016    6       4       3.144582        262.9458
2016    6       5       3.524304        266.7169
2016    6       6       3.526723        266.0892
2016    6       7       2.786333        257.0279
2016    7       0       2.547649        253.343
2016    7       1       2.410121        251.068
2016    7       2       2.328875        249.2497
2016    7       3       2.30666         248.7961
2016    7       4       3.023109        262.1172
2016    7       5       3.53112         267.1908
2016    7       6       3.517508        266.1112
2016    7       7       3.350313        264.5047
2016    8       0       3.441495        266.1398
2016    8       1       3.109798        262.6953
2016    8       2       2.718777        256.826
2016    8       3       2.542663        253.5012
2016    8       4       2.521375        252.9904
2016    8       5       2.456464        251.6331
2016    8       6       2.697006        257.0397
2016    8       7       2.684195        256.7072
2016    9       0       2.572395        254.0681
2016    9       1       2.336016        248.3473
2016    9       2       2.147795        243.2323
2016    9       3       1.960109        236.783
2016    9       4       1.962627        236.3292
2016    9       5       2.03336         238.3289
2016    9       6       2.28147         246.5097
2016    9       7       2.303005        247.2765
2016    10      0       2.436107        250.876
2016    10      1       2.815627        258.3375
2016    10      2       2.912344        259.5248
2016    10      3       2.575369        253.334
2016    10      4       2.728685        255.7709
2016    10      5       2.809214        256.8991
2016    10      6       2.589442        252.4809
2016    10      7       2.222936        244.679
2016    11      0       1.846778        232.1519
2016    11      1       2.024079        238.5913
2016    11      2       2.253584        245.1747
2016    11      3       2.395474        248.4819
2016    11      4       2.480701        250.2433
2016    11      5       2.631398        252.6169
2016    11      6       2.30193         244.3926
2016    11      7       2.276583        244.0085
2016    12      0       2.363839        246.8419
2016    12      1       2.32691         246.1867
2016    12      2       2.014764        236.5072
2016    12      3       1.879943        231.2898
2016    12      4       1.821627        228.6306
2016    12      5       1.726593        224.2803
2016    12      6       1.908076        232.4498
2016    12      7       2.305103        246.4184
2016    13      0       2.677827        255.9873
2016    13      1       2.54678         253.9379
2016    13      2       2.581593        255.0055
2016    13      3       2.870277        260.542
2016    13      4       3.234774        265.1393
2016    13      5       2.789441        258.8317
2016    13      6       2.50206         253.1949
2016    13      7       2.431647        251.1865
2016    14      0       2.498056        252.6929
2016    14      1       2.447835        251.9778
2016    14      2       2.390898        250.9231
2016    14      3       2.440128        252.0136
2016    14      4       2.713783        256.6157
2016    14      5       3.115939        261.4357
2016    14      6       3.00318         259.0538
2016    14      7       3.502927        265.6746
2016    15      0       2.817822        258.0792
2016    15      1       2.361848        249.4427
2016    15      2       2.141368        243.0737
2016    15      3       2.29502         247.7759
2016    15      4       2.409703        250.4252
2016    15      5       2.144595        242.5895
2016    15      6       2.114323        240.7826
2016    15      7       1.991046        236.9453
2016    16      0       2.153141        243.507
2016    16      1       2.521416        253.1124
2016    16      2       2.958742        260.933
2016    16      3       2.425246        249.4942
2016    16      4       2.053471        237.9542
2016    16      5       0.8004422       152.28
2016    16      6       0.5257917       114.0514
2016    16      7       0.9407015       167.605
2016    17      0       1.177365        189.0888
2016    17      1       1.166923        187.8054
2016    17      2       1.283858        196.0271
2016    17      3       1.215175        190.617
2016    17      4       1.23447         191.7333
2016    17      5       1.208396        189.4451
2016    17      6       1.204643        188.6628
2016    17      7       1.690906        219.6622
2016    18      0       1.933337        230.8462
2016    18      1       1.86944         228.2458
2016    18      2       1.461573        207.2672
2016    18      3       1.454309        206.5308
2016    18      4       1.620309        215.7953
2016    18      5       1.582072        213.8887
2016    18      6       1.535215        212.9457
2016    18      7       1.577748        216.0383
2016    19      0       1.434841        208.5732
2016    19      1       1.287965        198.9569
2016    19      2       1.082681        182.2341
2016    19      3       1.219943        192.4318
2016    19      4       1.822985        227.773
2016    19      5       2.271503        244.5921
2016    19      6       2.079731        239.9783
2016    19      7       2.046233        237.8605
2016    20      0       2.028224        237.3912
2016    20      1       1.883461        231.2253
2016    20      2       2.359385        246.781
2016    20      3       2.450587        249.2952
2016    20      4       2.37713         247.4868
2016    20      5       2.50453         250.1097
2016    20      6       2.334218        245.4292
2016    20      7       2.561259        250.6277
2016    21      0       2.636897        252.2245
2016    21      1       2.795786        255.1279
2016    21      2       3.122327        259.6681
2016    21      3       2.946953        256.4504
2016    21      4       2.877064        255.0386
2016    21      5       2.968965        256.6442
2016    21      6       2.889728        255.8822
2016    21      7       2.951695        257.3028
2016    22      0       2.832653        255.8788
2016    22      1       2.338242        245.0978
2016    22      2       2.166572        240.0121
2016    22      3       2.304704        243.5586
2016    22      4       2.541144        248.4177
2016    22      5       2.478056        246.3234
2016    22      6       1.986369        231.1131
2016    22      7       1.682965        219.688
2016    23      0       1.637715        218.3329
2016    23      1       1.461368        208.6127
2016    23      2       1.454094        208.1006
2016    23      3       1.542308        213.1009
2016    23      4       1.386321        203.6504
2016    23      5       1.239147        193.2919
2016    23      6       1.297259        198.0889
2016    23      7       1.337881        201.5094
2016    24      0       1.161268        188.4202
2016    24      1       1.315465        200.0402
2016    24      2       1.412138        206.819
2016    24      3       1.503012        212.7128
2016    24      4       1.882838        230.4756
2016    24      5       1.819341        227.2165
2016    24      6       2.362879        246.2497
2016    24      7       1.893719        230.6865
2016    25      0       1.714699        222.4659
2016    25      1       1.680895        220.2786
2016    25      2       1.615519        217.368
2016    25      3       1.536349        213.5467
2016    25      4       1.475943        209.2546
2016    25      5       1.407121        204.5194
2016    25      6       1.28853         196.047
2016    25      7       1.307758        196.8843
2016    26      0       1.258613        193.307
2016    26      1       1.632352        217.1207
2016    26      2       1.809007        226.1872
2016    26      3       1.927479        231.3364
2016    26      4       2.066853        236.4479
2016    26      5       2.618832        251.1262
2016    26      6       3.275893        262.4582
2016    26      7       3.48754         265.1654
2016    27      0       3.482275        265.064
2016    27      1       2.687032        254.1899
2016    27      2       3.133716        262.0988
2016    27      3       3.386656        264.7277
2016    27      4       3.182897        261.9272
2016    27      5       2.725217        254.3108
2016    27      6       2.188198        240.5678
2016    27      7       2.506639        248.2618
2016    28      0       2.349243        243.173
2016    28      1       2.173586        236.9252
2016    28      2       1.995055        230.1673
2016    28      3       1.472905        205.1383
2016    28      4       0.766172        143.8217
2016    28      5       0.7253287       138.572
2016    28      6       0.8236039       150.9069
2016    28      7       0.7863553       146.5426
2016    29      0       0.7575022       143.3138
2016    29      1       0.77793         145.846
2016    29      2       0.9339249       163.4432
2016    29      3       1.89315         227.5045
2016    29      4       2.199709        238.658
2016    29      5       2.074634        235.7226
2016    29      6       1.808832        225.2159
2016    29      7       1.866481        227.9153
2016    30      0       1.944982        231.4103
2016    30      1       1.959025        232.0658
2016    30      2       2.217069        241.4203
2016    30      3       2.678714        253.2535
2016    30      4       2.341581        245.7067
2016    30      5       2.141767        239.8513
2016    30      6       2.091202        238.7304
2016    30      7       1.834122        229.5369
2016    31      0       1.73897         225.4916
2016    31      1       1.349697        204.0714
2016    31      2       1.321265        201.4469
2016    31      3       1.73502         224.2944
2016    31      4       2.084193        238.3095
2016    31      5       2.288           244.3032
2016    31      6       2.418951        248.0355
2016    31      7       2.10897         239.7127
2017    1       0       1.791574        225.6479
2017    1       1       1.825316        226.6542
2017    1       2       1.733689        221.8031
2017    1       3       1.750926        222.0402
2017    1       4       2.058924        234.6349
2017    1       5       1.701512        220.2446
2017    1       6       1.849394        227.4638
2017    1       7       1.954859        232.8084
2017    2       0       1.437667        207.6753
2017    2       1       0.7929131       151.115
2017    2       2       0.6236322       129.1308
2017    2       3       0.520093        113.4023
2017    2       4       0.5036844       110.1208
2017    2       5       0.5372752       114.5203
2017    2       6       0.5275063       112.4823
2017    2       7       0.5999185       122.8946
2017    3       0       0.7483869       143.3363
2017    3       1       0.9889688       171.1404
2017    3       2       1.251791        194.594
2017    3       3       1.471631        210.3845
2017    3       4       1.869264        230.8619
2017    3       5       1.994484        235.7027
2017    3       6       2.078745        238.9128
2017    3       7       2.502215        250.7561
2017    4       0       3.018087        259.1235
2017    4       1       1.993231        233.9807
2017    4       2       2.439824        247.8067
2017    4       3       1.904558        231.4052
2017    4       4       1.806104        227.5451
2017    4       5       1.711886        223.2371
2017    4       6       1.934184        233.5836
2017    4       7       2.012398        236.7133
2017    5       0       1.984992        235.9137
2017    5       1       1.622121        219.654
2017    5       2       1.464278        210.6492
2017    5       3       1.407506        207.1418
2017    5       4       1.309353        200.2066
2017    5       5       1.149728        187.7648
2017    5       6       1.129725        186.749
2017    5       7       1.102807        184.6154
2017    6       0       1.178207        191.2539
2017    6       1       1.376788        205.868
2017    6       2       1.577891        217.7483
2017    6       3       1.777488        227.3408
2017    6       4       1.909402        232.6042
2017    6       5       2.374283        247.4028
2017    6       6       3.297714        263.4092
2017    6       7       3.159895        262.3407
2017    7       0       3.226322        262.7876
2017    7       1       3.062103        259.6642
2017    7       2       2.200608        241.5095
2017    7       3       1.397922        205.8505
2017    7       4       0.964069        170.4593
2017    7       5       0.8465344       157.2058
2017    7       6       0.8364227       156.2704
2017    7       7       0.7328208       144.17
2017    8       0       0.5043165       111.3751
2017    8       1       0.3889553       91.69349
2017    8       2       0.3279999       80.46238
2017    8       3       0.3640611       87.64275
2017    8       4       0.2541419       65.45172
2017    8       5       0.2759626       69.85871
2017    8       6       0.2899525       72.81981
2017    8       7       0.346498        84.08484
2017    9       0       0.4406151       101.4019
2017    9       1       0.6439603       133.4784
2017    9       2       0.8926607       164.2272
2017    9       3       1.122935        186.0057
2017    9       4       1.405613        206.7795
2017    9       5       1.448157        209.0469
2017    9       6       1.27147         196.6857
2017    9       7       1.607759        218.855
2017    10      0       2.142825        241.8364
2017    10      1       1.996415        237.3199
2017    10      2       1.767845        228.3747
2017    10      3       1.448483        211.7787
2017    10      4       1.23727         196.4522
2017    10      5       1.250316        197.2633
2017    10      6       1.098607        184.6836
2017    10      7       1.047991        180.7117
2017    11      0       0.9892843       175.9469
2017    11      1       0.798868        154.9414
2017    11      2       0.6010905       128.267
2017    11      3       0.4542091       104.8084
2017    11      4       0.3880637       93.05487
2017    11      5       0.3571642       87.27731
2017    11      6       0.3011876       76.35162
2017    11      7       0.2492742       65.71304
2017    12      0       0.2382111       63.50916
2017    12      1       0.4933177       112.7092
2017    12      2       0.7671732       153.0954
2017    12      3       0.8625936       164.3092
2017    12      4       0.9936469       178.0939
2017    12      5       1.042013        182.7523
2017    12      6       1.149609        192.5978
2017    12      7       1.32273         206.5831
2017    13      0       1.391219        211.4755
2017    13      1       1.32535         206.9468
2017    13      2       1.310051        205.2261
2017    13      3       1.578124        221.7554
2017    13      4       2.022277        241.72
2017    13      5       2.69119         257.9688
2017    13      6       3.19422         264.8076
2017    13      7       2.514036        252.9989
2017    14      0       2.556403        251.8451
2017    14      1       2.472517        248.9341
2017    14      2       1.954585        232.0868
2017    14      3       1.493223        209.5694
2017    14      4       1.257498        194.5041
2017    14      5       1.357759        201.9595
2017    14      6       1.489559        210.6065
2017    14      7       2.23678         241.5499
2017    15      0       2.309959        243.1029
2017    15      1       2.176621        239.7966
2017    15      2       1.881829        229.9211
2017    15      3       1.56849         215.3849
2017    15      4       1.408236        205.3672
2017    15      5       1.347811        201.1988
2017    15      6       1.441911        206.1139
2017    15      7       1.302001        197.8812
2017    16      0       1.196642        189.9075
2017    16      1       1.212642        191.3254
2017    16      2       1.497145        210.5041
2017    16      3       1.858658        228.5589
2017    16      4       2.167887        239.5914
2017    16      5       1.853283        228.8553
2017    16      6       1.937235        232.019
2017    16      7       2.293475        243.8344
2017    17      0       2.625709        252.2079
2017    17      1       2.372193        246.1972
2017    17      2       2.13066         239.3342
2017    17      3       1.997189        234.8498
2017    17      4       1.851389        228.9186
2017    17      5       1.645583        219.528
2017    17      6       1.359871        203.5903
2017    17      7       1.332987        202.3244
2017    18      0       1.712589        224.0852
2017    18      1       2.454235        248.9604
2017    18      2       2.893958        257.7924
2017    18      3       2.445516        249.1954
2017    18      4       2.276244        244.262
2017    18      5       2.515228        249.5145
2017    18      6       1.81248         224.7796
2017    18      7       1.460215        207.0002
2017    19      0       1.421775        204.4737
2017    19      1       1.413648        202.9825
2017    19      2       1.328021        196.3134
2017    19      3       1.599138        212.5009
2017    19      4       1.069774        176.1829
2017    19      5       0.8610668       155.4973
2017    19      6       0.7045768       137.0522
2017    19      7       0.9053036       160.9689
2017    20      0       1.164633        184.8642
2017    20      1       1.404302        202.0779
2017    20      2       1.350866        197.9711
2017    20      3       1.301813        194.9934
2017    20      4       1.168461        185.1193
2017    20      5       1.00474         170.7566
2017    20      6       0.9527967       165.5857
2017    20      7       1.089494        179.0386
2017    21      0       0.9855216       170.3166
2017    21      1       0.8868581       160.1018
2017    21      2       0.9263866       164.3457
2017    21      3       1.008788        172.5594
2017    21      4       1.208883        190.0016
2017    21      5       1.949554        231.3472
2017    21      6       2.539531        249.4902
2017    21      7       2.716113        254.7834
2017    22      0       2.53123         251.1929
2017    22      1       2.729001        254.9698
2017    22      2       2.277087        245.7148
2017    22      3       1.602381        219.4088
2017    22      4       1.860718        230.9871
2017    22      5       2.017199        237.1524
2017    22      6       1.517525        214.2432
2017    22      7       1.267858        198.0716
2017    23      0       1.324973        202.7006
2017    23      1       1.775807        228.3731
2017    23      2       2.496622        252.7814
2017    23      3       3.213338        264.7342
2017    23      4       2.175239        244.5594
2017    23      5       1.790619        228.1907
2017    23      6       1.968349        235.3989
2017    23      7       2.371572        247.2151
2017    24      0       1.768542        227.6932
2017    24      1       1.96332         235.9033
2017    24      2       2.259034        244.8542
2017    24      3       2.526649        252.2975
2017    24      4       3.224443        264.4892
2017    24      5       2.287018        246.1566
2017    24      6       2.293852        245.9097
2017    24      7       2.555835        251.571
2017    25      0       2.229451        238.9157
2017    25      1       1.874801        226.2909
2017    25      2       2.019           231.2622
2017    25      3       1.851244        224.2283
2017    25      4       1.741084        219.0998
2017    25      5       1.352558        198.0269
2017    25      6       0.9909928       169.9973
2017    25      7       1.229324        191.6161
2017    26      0       1.302046        196.7532
2017    26      1       1.330152        198.5798
2017    26      2       1.062595        177.2613
2017    26      3       0.932209        164.8703
2017    26      4       1.361991        200.8251
2017    26      5       1.935497        230.4923
2017    26      6       1.890573        229.2541
2017    26      7       1.868562        229.2596
2017    27      0       1.868434        230.0256
2017    27      1       1.417194        206.3471
2017    27      2       1.766927        224.4968
2017    27      3       1.855348        227.9857
2017    27      4       2.116346        237.5649
2017    27      5       2.272726        242.1097
2017    27      6       2.116101        238.162
2017    27      7       2.267753        243.2803
2017    28      0       2.741414        253.504
2017    28      1       1.646087        219.291
2017    28      2       0.8798547       161.6934
2017    28      3       0.5522775       119.1645
2017    28      4       0.3384567       81.73651
2017    28      5       0.332804        79.55425
2017    28      6       0.5242133       111.295
2017    28      7       0.7114294       137.4616
2017    29      0       0.8105295       150.0969
2017    29      1       0.8251297       152.1579
2017    29      2       0.8586353       155.4309
2017    29      3       1.080817        178.9102
2017    29      4       1.529632        213.6408
2017    29      5       1.759995        226.7732
2017    29      6       1.684497        224.0775
2017    29      7       1.400584        207.9541
2017    30      0       1.158884        189.5772
2017    30      1       1.759023        228.6284
2017    30      2       2.203451        246.0333
2017    30      3       1.725816        226.8595
2017    30      4       1.75839         227.9953
2017    30      5       1.510037        215.3455
2017    30      6       1.417808        209.7867
2017    30      7       1.281552        199.4999
2017    31      0       1.420474        207.2064
2017    31      1       2.24184         243.6826
2017    31      2       1.506249        212.4118
2017    31      3       1.976655        234.4767
2017    31      4       0.7551413       145.0029
2017    31      5       0.8042896       150.6396
2017    31      6       0.9660619       168.4093
2017    31      7       0.9145302       162.9892
2018    1       0       2.916583        260.575
2018    1       1       2.596771        255.4715
2018    1       2       2.38906         251.2104
2018    1       3       2.228616        247.0598
2018    1       4       1.96829         237.8098
2018    1       5       1.91386         235.7166
2018    1       6       1.912069        235.211
2018    1       7       2.710721        257.2647
2018    2       0       2.834685        258.847
2018    2       1       3.06533         261.9074
2018    2       2       2.893628        259.2507
2018    2       3       2.738892        256.8756
2018    2       4       2.94079         259.5997
2018    2       5       2.827624        257.5728
2018    2       6       3.004554        259.903
2018    2       7       3.162376        262.3093
2018    3       0       3.499358        266.8126
2018    3       1       3.145006        263.054
2018    3       2       2.843781        259.5277
2018    3       3       2.673715        257.171
2018    3       4       2.580924        255.2829
2018    3       5       2.345876        249.7234
2018    3       6       2.175517        244.4254
2018    3       7       2.469862        251.6159
2018    4       0       2.736654        257.2907
2018    4       1       3.652144        268.2082
2018    4       2       2.950465        258.821
2018    4       3       2.350479        247.2828
2018    4       4       2.250894        244.8917
2018    4       5       2.446089        249.9178
2018    4       6       2.601227        253.1667
2018    4       7       2.782128        256.7561
2018    5       0       2.453664        249.9085
2018    5       1       2.254089        244.5969
2018    5       2       2.235849        243.6673
2018    5       3       2.078201        238.5452
2018    5       4       1.96607         234.636
2018    5       5       2.037074        237.651
2018    5       6       1.942369        234.4635
2018    5       7       1.830986        230.2948
2018    6       0       1.612859        220.2848
2018    6       1       1.413362        208.3967
2018    6       2       1.460929        211.7298
2018    6       3       1.873253        234.0705
2018    6       4       2.490712        254.0376
2018    6       5       2.859404        260.7656
2018    6       6       2.789582        258.8035
2018    6       7       2.595541        253.0119
2018    7       0       2.880792        258.1743
2018    7       1       3.561638        267.4286
2018    7       2       3.315239        265.8956
2018    7       3       3.188336        264.7637
2018    7       4       3.131597        263.6084
2018    7       5       3.294898        265.0045
2018    7       6       3.37099         266.0684
2018    7       7       3.139158        263.8588
2018    8       0       2.532563        253.7472
2018    8       1       2.653741        256.3204
2018    8       2       2.575688        255.7444
2018    8       3       2.245854        248.621
2018    8       4       2.278849        249.3199
2018    8       5       1.921706        237.7267
2018    8       6       1.664355        225.6477
2018    8       7       1.142295        189.0642
2018    9       0       1.029111        178.2884
2018    9       1       1.312863        204.4293
2018    9       2       1.746644        230.6942
2018    9       3       1.638089        224.8536
2018    9       4       2.108339        244.93
2018    9       5       2.284259        249.7563
2018    9       6       2.620551        257.3702
2018    9       7       2.580377        257.1447
2018    10      0       2.076905        243.907
2018    10      1       3.405992        270.4046
2018    10      2       2.984971        266.049
2018    10      3       2.75163         262.1405
2018    10      4       1.905652        236.0546
2018    10      5       1.812201        232.037
2018    10      6       1.836894        232.7554
2018    10      7       1.954777        237.1704
2018    11      0       2.26024         246.935
2018    11      1       2.075342        240.3351
2018    11      2       1.368128        204.7278
2018    11      3       1.035872        178.076
2018    11      4       0.759039        147.6238
2018    11      5       0.5861448       123.6538
2018    11      6       0.5568698       118.544
2018    11      7       0.8031396       151.3948
2018    12      0       0.7553761       144.6827
2018    12      1       1.07248         179.321
2018    12      2       1.184499        189.3631
2018    12      3       1.250323        194.286
2018    12      4       1.331974        199.2644
2018    12      5       1.444839        205.8659
2018    12      6       1.501156        209.3449
2018    12      7       1.524399        211.6877
2018    13      0       1.270322        196.1009
2018    13      1       1.178737        188.8101
2018    13      2       1.257791        194.4604
2018    13      3       1.582724        216.0201
2018    13      4       1.849806        230.0847
2018    13      5       1.922448        233.5873
2018    13      6       1.868717        232.8573
2018    13      7       1.897518        235.4046
2018    14      0       3.125827        264.5913
2018    14      1       3.22168         265.9337
2018    14      2       3.165558        265.7254
2018    14      3       3.004184        262.9951
2018    14      4       2.739435        257.444
2018    14      5       2.510803        252.9225
2018    14      6       2.845891        260.8284
2018    14      7       3.28147         266.9043
2018    15      0       3.475587        268.6106
2018    15      1       2.28684         248.7002
2018    15      2       1.962433        236.1407
2018    15      3       2.426594        249.944
2018    15      4       1.736881        227.0744
2018    15      5       1.489229        213.2272
2018    15      6       1.222719        193.7053
2018    15      7       1.375345        204.1453
2018    16      0       1.137102        186.6954
2018    16      1       1.117811        185.7241
2018    16      2       1.192231        192.5133
2018    16      3       1.11911         186.6325
2018    16      4       0.6315576       131.4995
2018    16      5       0.7102041       140.3544
2018    16      6       1.143952        184.9643
2018    16      7       1.191173        190.5121
2018    17      0       1.303243        199.1789
2018    17      1       1.093102        180.5789
2018    17      2       0.9199841       159.9093
2018    17      3       1.529908        212.0945
2018    17      4       1.61317         219.049
2018    17      5       1.675999        222.1051
2018    17      6       1.544407        214.4867
2018    17      7       1.142784        187.0572
2018    18      0       1.250415        195.4473
2018    18      1       1.212564        191.7869
2018    18      2       1.55575         214.0281
2018    18      3       1.958917        231.7923
2018    18      4       0.9294432       163.983
2018    18      5       0.6137082       125.4915
2018    18      6       0.6854382       135.5127
2018    18      7       0.822529        153.2022
2018    19      0       0.8599226       156.9022
2018    19      1       0.9813463       168.3456
2018    19      2       1.313517        195.6416
2018    19      3       0.9862819       169.9887
2018    19      4       0.9232093       163.4287
2018    19      5       0.8635694       156.8629
2018    19      6       0.9153914       162.2179
2018    19      7       1.163615        185.2778
2018    20      0       1.267296        193.1537
2018    20      1       1.101216        180.2029
2018    20      2       0.8204669       152.6252
2018    20      3       0.6986662       137.7649
2018    20      4       0.6329638       128.6179
2018    20      5       0.6139141       125.7137
2018    20      6       0.7391236       140.8333
2018    20      7       1.142471        182.0174
2018    21      0       1.364715        201.0019
2018    21      1       1.524667        213.5025
2018    21      2       2.011165        237.8325
2018    21      3       2.368067        248.9192
2018    21      4       2.29271         246.6592
2018    21      5       2.276435        246.6449
2018    21      6       2.285347        247.4822
2018    21      7       2.357497        250.65
2018    22      0       1.837475        235.6789
2018    22      1       1.292425        203.3016
2018    22      2       0.8104547       158.1067
2018    22      3       0.6842503       142.0944
2018    22      4       0.4460867       103.6357
2018    22      5       0.7608979       149.5146
2018    22      6       1.095351        185.1005
2018    22      7       1.472222        213.777
2018    23      0       1.395031        208.3935
2018    23      1       1.923673        234.8893
2018    23      2       2.069366        240.3983
2018    23      3       1.651026        221.3707
2018    23      4       1.862576        229.8988
2018    23      5       1.943404        232.8459
2018    23      6       1.904111        231.4592
2018    23      7       1.948739        232.953
2018    24      0       2.111415        238.6645
2018    24      1       1.910943        231.3037
2018    24      2       1.649962        218.4874
2018    24      3       1.491391        208.2736
2018    24      4       1.168775        185.6655
2018    24      5       1.145494        184.178
2018    24      6       1.155656        184.8045
2018    24      7       1.066358        176.9817
2018    25      0       1.35119         199.419
2018    25      1       1.488403        207.958
2018    25      2       1.75223         221.7996
2018    25      3       2.192797        238.7106
2018    25      4       2.063133        234.0689
2018    25      5       2.014025        232.4381
2018    25      6       2.231297        240.2496
2018    25      7       1.960411        231.1604
2018    26      0       2.381695        243.4988
2018    26      1       2.197513        237.6457
2018    26      2       2.279988        241.2373
2018    26      3       2.251903        240.004
2018    26      4       1.58323         212.5916
2018    26      5       1.438337        203.8717
2018    26      6       1.584469        212.0625
2018    26      7       2.011741        230.6824
2018    27      0       1.771862        221.1941
2018    27      1       1.402195        201.0482
2018    27      2       1.201833        186.7375
2018    27      3       1.11916         180.4514
2018    27      4       1.078647        177.4518
2018    27      5       0.8203104       151.717
2018    27      6       0.7155764       138.4771
2018    27      7       1.067523        174.4892
2018    28      0       1.561768        211.889
2018    28      1       1.917938        229.4569
2018    28      2       1.836034        226.1632
2018    28      3       1.561056        213.0571
2018    28      4       1.345666        199.4566
2018    28      5       1.350068        199.4009
2018    28      6       1.815323        225.1453
2018    28      7       2.528165        248.1745
2018    29      0       1.910509        229.3932
2018    29      1       2.018743        233.6831
2018    29      2       2.432414        246.3007
2018    29      3       2.03327         234.9314
2018    29      4       1.184827        188.8385
2018    29      5       0.9039606       161.9019
2018    29      6       1.138275        183.6067
2018    29      7       1.579239        213.6629
2018    30      0       1.643391        216.4888
2018    30      1       1.671556        217.2601
2018    30      2       1.980112        231.2198
2018    30      3       1.925776        228.2503
2018    30      4       1.653736        215.7958
2018    30      5       1.558826        210.7294
2018    30      6       1.7629          220.5965
2018    30      7       1.827726        222.4584
2018    31      0       1.316926        194.5636
2018    31      1       0.7801076       146.376
2018    31      2       0.8289406       151.7655
2018    31      3       1.110396        178.8961
2018    31      4       1.391112        199.8511
2018    31      5       1.224297        189.2862
2018    31      6       1.443454        204.7133
2018    31      7       1.689915        217.9402
