####################################################################################################
# Month: 05May                                                                                     #
# Station: CNI                                                                                     #
# Frequency: 345 GHz                                                                               #
# Columns are: year    day     segment         tau     Tb (K)                                      #
####################################################################################################
2009    1       0       0.344086        80.57779
2009    1       1       0.3749811       85.60549
2009    1       2       0.3606768       83.60653
2009    1       3       0.4248852       94.95885
2009    1       4       0.5350433       113.8851
2009    1       5       0.6845159       135.8337
2009    1       6       0.6672889       134.8318
2009    1       7       0.6432814       132.8398
2009    2       0       0.6498185       134.0486
2009    2       1       0.5100764       113.2592
2009    2       2       0.4131753       96.74135
2009    2       3       0.3663295       87.98918
2009    2       4       0.3082508       76.8011
2009    2       5       0.3212692       79.13574
2009    2       6       0.2958781       74.04062
2009    2       7       0.2687238       68.51603
2009    3       0       0.2258173       59.88508
2009    3       1       0.247512        64.18785
2009    3       2       0.3240456       78.60967
2009    3       3       0.3344342       80.41377
2009    3       4       0.4034743       92.77052
2009    3       5       0.4823059       106.051
2009    3       6       0.5564212       117.3032
2009    3       7       0.6341555       128.2143
2009    4       0       0.7399396       141.6803
2009    4       1       0.7738282       146.4738
2009    4       2       0.7368547       142.5862
2009    4       3       0.7393315       143.1956
2009    4       4       0.7445611       144.3193
2009    4       5       0.5179957       112.1799
2009    4       6       0.4893142       109.3771
2009    4       7       0.4060036       95.49846
2009    5       0       0.3976089       93.84522
2009    5       1       0.3711634       88.98453
2009    5       2       0.3227022       79.82416
2009    5       3       0.2938274       74.12085
2009    5       4       0.3076196       76.64507
2009    5       5       0.3345527       81.58373
2009    5       6       0.3613492       86.13101
2009    5       7       0.3486848       83.78051
2009    6       0       0.3332446       80.51971
2009    6       1       0.3530161       83.80652
2009    6       2       0.3753785       87.88864
2009    6       3       0.4437081       99.81492
2009    6       4       0.5329372       114.5481
2009    6       5       0.6002625       124.7784
2009    6       6       0.6969244       138.3737
2009    6       7       0.7604468       147.1693
2009    7       0       0.7667039       148.441
2009    7       1       0.8371653       157.0517
2009    7       2       1.095265        183.0409
2009    7       3       1.557918        217.3666
2009    7       4       1.85796         232.7887
2009    7       5       1.850304        231.612
2009    7       6       1.753983        226.452
2009    7       7       1.734471        225.188
2009    8       0       1.528266        214.4917
2009    8       1       1.038172        176.8881
2009    8       2       0.6794116       136.0166
2009    8       3       0.5090487       111.454
2009    8       4       0.4403165       99.96298
2009    8       5       0.4807683       106.1529
2009    8       6       0.369365        87.17166
2009    8       7       0.2896495       72.29364
2009    9       0       0.2419292       63.12962
2009    9       1       0.234497        61.68293
2009    9       2       0.2299793       60.64875
2009    9       3       0.2305311       60.88915
2009    9       4       0.2330928       61.64586
2009    9       5       0.2335568       61.78414
2009    9       6       0.226232        60.2662
2009    9       7       0.2210995       59.13105
2009    10      0       0.2071778       56.15107
2009    10      1       0.1916061       52.75453
2009    10      2       0.1937094       53.17906
2009    10      3       0.2452714       63.99034
2009    10      4       0.3940604       92.55362
2009    10      5       0.5676467       121.1784
2009    10      6       0.7713419       149.7398
2009    10      7       0.9491954       170.6866
2009    11      0       0.9594162       171.9483
2009    11      1       0.8443554       159.1366
2009    11      2       0.7169603       143.5423
2009    11      3       0.6696435       136.8314
2009    11      4       0.656808        134.7563
2009    11      5       0.6613247       135.0179
2009    11      6       0.614719        128.3042
2009    11      7       0.544235        117.2838
2009    12      0       0.4233124       96.85548
2009    12      1       0.3263081       78.61285
2009    12      2       0.2624562       65.89656
2009    12      3       0.2265244       58.40258
2009    12      4       0.2293545       58.87934
2009    12      5       0.2525738       63.75095
2009    12      6       0.3119721       75.77895
2009    12      7       0.4203987       96.49675
2009    13      0       0.6346889       131.2447
2009    13      1       0.7584962       148.0845
2009    13      2       0.5934285       125.1148
2009    13      3       0.5484057       117.8519
2009    13      4       0.5944482       125.2259
2009    13      5       0.5793394       123.3705
2009    13      6       0.5166229       113.4732
2009    13      7       0.437101        99.9645
2009    14      0       0.4123134       95.28099
2009    14      1       0.5166569       113.6025
2009    14      2       0.7084303       142.6042
2009    14      3       0.666218        137.0438
2009    14      4       0.5308275       116.6994
2009    14      5       0.4437412       102.0339
2009    14      6       0.4581303       104.2994
2009    14      7       0.5517458       119.5414
2009    15      0       0.6852857       139.2618
2009    15      1       0.7557571       148.8992
2009    15      2       0.6578987       135.9719
2009    15      3       0.5450267       119.2522
2009    15      4       0.5728795       123.7327
2009    15      5       0.6548319       135.9001
2009    15      6       0.7235193       145.1023
2009    15      7       0.7481113       147.6102
2009    16      0       0.7619346       149.3576
2009    16      1       0.7662961       149.8704
2009    16      2       0.7783317       151.0913
2009    16      3       0.8331765       157.6053
2009    16      4       0.8438475       158.942
2009    16      5       0.8433301       158.5244
2009    16      6       0.836529        157.4165
2009    16      7       0.7854693       151.2431
2009    17      0       0.7780063       150.2534
2009    17      1       0.7597589       148.3284
2009    17      2       0.7238307       143.5979
2009    17      3       0.6812346       137.8769
2009    17      4       0.6435289       132.7963
2009    17      5       0.6405387       132.3116
2009    17      6       0.6105978       128.0637
2009    17      7       0.5352162       117.0013
2009    18      0       0.5146657       113.6806
2009    18      1       0.5134652       113.2559
2009    18      2       0.5099769       112.717
2009    18      3       0.5153025       113.7769
2009    18      4       0.4935915       110.4399
2009    18      5       0.4433222       102.1613
2009    18      6       0.377025        90.40591
2009    18      7       0.2932692       74.26922
2009    19      0       0.2476346       64.73129
2009    19      1       0.2385341       62.4766
2009    19      2       0.2200987       58.41608
2009    19      3       0.2066902       55.34954
2009    19      4       0.2064384       55.01707
2009    19      5       0.2005999       53.80581
2009    19      6       0.1902538       51.64103
2009    19      7       0.1866156       50.77635
2009    20      0       0.2100063       55.84509
2009    20      1       0.2492359       63.94107
2009    20      2       0.3055178       74.72375
2009    20      3       0.3477646       83.32685
2009    20      4       0.5114403       111.0196
2009    20      5       0.714751        139.3607
2009    20      6       0.8990997       161.7973
2009    20      7       1.118631        183.872
2009    21      0       1.195984        191.2746
2009    21      1       1.136331        186.3963
2009    21      2       0.97482         171.8439
2009    21      3       0.8502085       158.5129
2009    21      4       0.7759301       149.5169
2009    21      5       0.7054202       140.2896
2009    21      6       0.4638661       103.0412
2009    21      7       0.367635        86.35967
2009    22      0       0.3177616       77.84382
2009    22      1       0.2863044       72.47466
2009    22      2       0.2826777       71.79898
2009    22      3       0.228167        60.2018
2009    22      4       0.2088438       55.73008
2009    22      5       0.2535446       65.4245
2009    22      6       0.2245451       59.62893
2009    22      7       0.1807347       50.18829
2009    23      0       0.1562512       44.59288
2009    23      1       0.1565439       44.55928
2009    23      2       0.1600222       45.22512
2009    23      3       0.1697429       47.34956
2009    23      4       0.2110878       56.39053
2009    23      5       0.3131486       77.67248
2009    23      6       0.4431509       102.2172
2009    23      7       0.4668817       106.2444
2009    24      0       0.4581259       104.2884
2009    24      1       0.4939414       109.9131
2009    24      2       0.5018038       111.3407
2009    24      3       0.5655334       121.6243
2009    24      4       0.7347717       145.639
2009    24      5       0.9438154       169.9901
2009    24      6       0.9564325       171.0133
2009    24      7       0.8070727       153.5582
2009    25      0       0.7353031       144.0836
2009    25      1       0.7001637       140.0648
2009    25      2       0.7020326       141.3173
2009    25      3       0.7094969       143.0552
2009    25      4       0.6950587       141.2807
2009    25      5       0.5847582       125.5192
2009    25      6       0.4612816       105.6121
2009    25      7       0.3987305       94.28634
2009    26      0       0.3917792       92.61584
2009    26      1       0.3679952       88.19927
2009    26      2       0.3413476       82.75934
2009    26      3       0.3606965       85.77169
2009    26      4       0.4657724       103.943
2009    26      5       0.5857644       123.0106
2009    26      6       0.6627116       133.8986
2009    26      7       0.6809539       135.833
2009    27      0       0.7078331       139.2551
2009    27      1       0.7816888       148.8515
2009    27      2       0.8035131       150.9107
2009    27      3       0.7689392       146.2115
2009    27      4       0.8434641       153.9985
2009    27      5       0.9462022       166.1088
2009    27      6       0.8356407       153.4909
2009    27      7       0.8366398       152.9985
2009    28      0       0.8767773       157.9261
2009    28      1       1.002266        171.8584
2009    28      2       1.185156        188.8133
2009    28      3       1.321801        199.727
2009    28      4       1.318708        199.6704
2009    28      5       1.49904         210.8528
2009    28      6       1.387409        204.3641
2009    28      7       0.9061693       164.9746
2009    29      0       0.6290817       131.4304
2009    29      1       0.5635078       121.6673
2009    29      2       0.5467507       118.7851
2009    29      3       0.5313872       116.1494
2009    29      4       0.5024094       111.4488
2009    29      5       0.4735685       106.7614
2009    29      6       0.4541888       103.4041
2009    29      7       0.4601781       104.0316
2009    30      0       0.4758135       106.4178
2009    30      1       0.475328        106.4562
2009    30      2       0.4443367       101.3394
2009    30      3       0.4116113       95.66988
2009    30      4       0.4124277       95.80048
2009    30      5       0.4337383       99.57695
2009    30      6       0.4399964       100.7763
2009    30      7       0.4164762       96.9001
2009    31      0       0.3886975       92.06011
2009    31      1       0.3741126       89.52588
2009    31      2       0.3836294       91.47788
2009    31      3       0.3927454       93.26943
2009    31      4       0.3765336       90.44408
2009    31      5       0.3515852       85.68809
2009    31      6       0.3677189       88.36579
2009    31      7       0.3921681       92.71429
2010    1       0       0.9895935       172.0399
2010    1       1       0.9185936       165.2687
2010    1       2       0.7562428       147.6516
2010    1       3       0.6050103       127.6592
2010    1       4       0.5560962       120.1822
2010    1       5       0.5242424       115.5246
2010    1       6       0.5154538       113.9675
2010    1       7       0.5227729       114.7378
2010    2       0       0.5543744       119.1429
2010    2       1       0.5274888       114.7715
2010    2       2       0.5849772       121.6281
2010    2       3       0.7669473       145.4685
2010    2       4       0.9173674       162.7384
2010    2       5       0.9105905       161.9284
2010    2       6       1.056388        175.802
2010    2       7       0.9729092       169.414
2010    3       0       0.8067795       152.6551
2010    3       1       0.7070126       140.7474
2010    3       2       0.7970129       152.2227
2010    3       3       1.017993        175.6509
2010    3       4       1.151794        188.2009
2010    3       5       1.360572        203.9148
2010    3       6       1.421913        208.1361
2010    3       7       1.569579        216.4678
2010    4       0       1.705621        223.0914
2010    4       1       1.972697        236.3615
2010    4       2       1.65625         223.0969
2010    4       3       1.398089        208.079
2010    4       4       1.350002        205.0263
2010    4       5       1.402414        208.4691
2010    4       6       1.221816        195.448
2010    4       7       1.022249        178.2548
2010    5       0       1.059792        182.135
2010    5       1       1.114372        186.9419
2010    5       2       1.138762        187.6994
2010    5       3       1.106781        184.1735
2010    5       4       1.038748        178.3464
2010    5       5       0.9513395       170.5612
2010    5       6       0.9246097       168.3695
2010    5       7       0.8640892       161.8987
2010    6       0       0.7660275       150.2716
2010    6       1       0.7035893       141.7809
2010    6       2       0.9566459       169.9945
2010    6       3       1.080415        182.6454
2010    6       4       1.299272        201.5346
2010    6       5       1.568303        219.4185
2010    6       6       1.377741        208.0644
2010    6       7       1.107745        187.6803
2010    7       0       0.9931521       176.8816
2010    7       1       1.040095        180.7579
2010    7       2       1.15191         190.5876
2010    7       3       1.17794         192.7497
2010    7       4       1.13404         189.3549
2010    7       5       1.078554        183.7513
2010    7       6       1.055573        180.8524
2010    7       7       1.414026        209.8213
2010    8       0       1.625194        222.2275
2010    8       1       1.647321        222.6838
2010    8       2       1.543214        216.4844
2010    8       3       1.116893        185.4341
2010    8       4       0.739193        146.909
2010    8       5       0.5504216       120.6183
2010    8       6       0.2629521       68.41241
2010    8       7       0.1900447       52.3774
2010    9       0       0.2882166       73.16118
2010    9       1       0.2605675       67.12875
2010    9       2       0.325382        78.8409
2010    9       3       0.4229285       95.21585
2010    9       4       0.4438413       98.23767
2010    9       5       0.5044044       106.9064
2010    9       6       0.5938205       120.8072
2010    9       7       0.4865414       106.508
2010    10      0       0.3531622       85.72144
2010    10      1       0.3709693       88.69886
2010    10      2       0.3849518       90.75333
2010    10      3       0.3617833       85.67951
2010    10      4       0.35035         83.75929
2010    10      5       0.3859267       90.9629
2010    10      6       0.4379768       100.5789
2010    10      7       0.500358        110.9094
2010    11      0       0.4903633       109.1153
2010    11      1       0.5172844       113.1703
2010    11      2       0.6096095       126.6253
2010    11      3       0.8613976       157.8412
2010    11      4       0.9632306       169.1185
2010    11      5       0.9357683       166.6742
2010    11      6       0.8464061       156.7214
2010    11      7       0.7405252       144.1031
2010    12      0       0.6585841       133.1051
2010    12      1       0.6107649       125.5291
2010    12      2       0.5006388       109.1597
2010    12      3       0.4452078       100.5136
2010    12      4       0.3765133       88.94847
2010    12      5       0.3166431       77.60826
2010    12      6       0.2977844       73.72581
2010    12      7       0.2486044       64.05956
2010    13      0       0.2429245       62.60793
2010    13      1       0.2245127       59.22487
2010    13      2       0.2343134       61.40365
2010    13      3       0.3477971       83.89157
2010    13      4       0.4084095       95.23481
2010    13      5       0.1903918       52.28708
2010    13      6       0.1463615       42.21409
2010    13      7       0.174534        48.70566
2010    14      0       0.1727797       48.39238
2010    14      1       0.1700654       47.68089
2010    14      2       0.1843069       50.73196
2010    14      3       0.2208233       58.6687
2010    14      4       0.2450629       63.83743
2010    14      5       0.2479241       64.53218
2010    14      6       0.2488168       64.69292
2010    14      7       0.2627292       67.38995
2010    15      0       0.2672365       68.33275
2010    15      1       0.262718        67.48652
2010    15      2       0.2803218       70.99948
2010    15      3       0.2999487       74.81143
2010    15      4       0.2948881       73.85703
2010    15      5       0.2853338       71.9684
2010    15      6       0.2755759       70.03143
2010    15      7       0.2718494       69.27036
2010    16      0       0.2851101       71.8799
2010    16      1       0.2901547       72.81827
2010    16      2       0.2543215       65.62863
2010    16      3       0.2245072       59.4163
2010    16      4       0.2164056       57.75244
2010    16      5       0.2244996       59.54313
2010    16      6       0.2339885       61.60326
2010    16      7       0.2330828       61.38517
2010    17      0       0.2277523       60.12348
2010    17      1       0.2095806       56.24729
2010    17      2       0.1911843       52.39185
2010    17      3       0.1814283       50.20203
2010    17      4       0.1933901       52.48311
2010    17      5       0.2058642       55.0633
2010    17      6       0.20465         54.98386
2010    17      7       0.2253857       59.07404
2010    18      0       0.2715158       68.2052
2010    18      1       0.3008543       73.82381
2010    18      2       0.2971223       72.90996
2010    18      3       0.2786043       69.32888
2010    18      4       0.3190174       77.2702
2010    18      5       0.3713752       87.15164
2010    18      6       0.3417106       81.74218
2010    18      7       0.3616902       86.09513
2010    19      0       0.3516642       84.22704
2010    19      1       0.2972189       73.33859
2010    19      2       0.2250818       58.49826
2010    19      3       0.1799688       49.19638
2010    19      4       0.2013427       54.43998
2010    19      5       0.2787846       71.04589
2010    19      6       0.2807232       71.39874
2010    19      7       0.286116        72.6283
2010    20      0       0.4486321       103.0868
2010    20      1       0.5122276       113.293
2010    20      2       0.4276228       98.70887
2010    20      3       0.4223482       97.47654
2010    20      4       0.552632        118.9414
2010    20      5       0.686768        138.5621
2010    20      6       0.7417564       145.9388
2010    20      7       0.7289179       144.4735
2010    21      0       0.6572741       134.7962
2010    21      1       0.6044341       127.1437
2010    21      2       0.5434111       117.9924
2010    21      3       0.4788415       107.3523
2010    21      4       0.4275467       98.4904
2010    21      5       0.3480364       83.96449
2010    21      6       0.3064228       75.922
2010    21      7       0.274426        69.60324
2010    22      0       0.2404975       62.71141
2010    22      1       0.2223756       58.80959
2010    22      2       0.2167766       57.45309
2010    22      3       0.2055229       54.92207
2010    22      4       0.2259968       58.8821
2010    22      5       0.2283672       59.52461
2010    22      6       0.2625549       66.862
2010    22      7       0.3505773       84.70147
2010    23      0       0.4355722       100.7607
2010    23      1       0.4636237       105.9401
2010    23      2       0.3984068       94.82876
2010    23      3       0.3211831       80.19573
2010    23      4       0.2527512       66.15905
2010    23      5       0.233797        62.10142
2010    23      6       0.2213818       59.41606
2010    23      7       0.2544416       66.07952
2010    24      0       0.2804065       71.00982
2010    24      1       0.298456        74.19409
2010    24      2       0.2997668       74.13354
2010    24      3       0.2982268       73.95836
2010    24      4       0.3436818       83.32148
2010    24      5       0.3407582       83.15587
2010    24      6       0.4308203       98.9956
2010    24      7       0.5268752       114.1012
2010    25      0       0.5930459       123.4456
2010    25      1       0.6352743       129.2797
2010    25      2       0.6633014       132.5442
2010    25      3       0.7656811       144.7434
2010    25      4       0.6878512       135.2745
2010    25      5       0.5924797       123.2572
2010    25      6       0.55579         118.7861
2010    25      7       0.5690108       120.6923
2010    26      0       0.5838695       123.0284
2010    26      1       0.6190515       127.8144
2010    26      2       0.60052         125.5473
2010    26      3       0.5869554       123.4
2010    26      4       0.481992        107.9206
2010    26      5       0.3332952       82.02504
2010    26      6       0.3166396       78.80407
2010    26      7       0.2720122       69.87223
2010    27      0       0.2054161       55.50493
2010    27      1       0.16988         47.37338
2010    27      2       0.1925094       52.32759
2010    27      3       0.2597692       65.58466
2010    27      4       0.3428254       82.17285
2010    27      5       0.4048437       93.65595
2010    27      6       0.457099        102.8095
2010    27      7       0.5623386       119.8717
2010    28      0       0.6371566       131.0424
2010    28      1       0.7177477       142.2076
2010    28      2       0.7192465       142.9096
2010    28      3       0.7439964       146.3024
2010    28      4       0.8877813       163.7596
2010    28      5       1.021362        178.2208
2010    28      6       0.9924687       175.7036
2010    28      7       0.9583726       172.7472
2010    29      0       0.9365299       169.6342
2010    29      1       0.9281139       168.3686
2010    29      2       0.9599781       171.5376
2010    29      3       0.9859457       174.4012
2010    29      4       1.039313        180.1114
2010    29      5       1.054528        182.2414
2010    29      6       1.000999        177.6993
2010    29      7       0.8717616       164.4731
2010    30      0       0.7713598       152.5247
2010    30      1       0.7378196       147.6533
2010    30      2       0.6655198       137.4813
2010    30      3       0.666311        136.9219
2010    30      4       0.7265987       144.5805
2010    30      5       0.7644477       149.2225
2010    30      6       0.8081665       154.288
2010    30      7       0.8354622       157.8382
2010    31      0       0.7922669       153.0851
2010    31      1       0.7501714       147.8846
2010    31      2       0.7510551       147.925
2010    31      3       0.7006042       141.6561
2010    31      4       0.6322748       132.3793
2010    31      5       0.5791908       124.822
2010    31      6       0.5817641       125.6786
2010    31      7       0.6707959       138.9634
2011    1       0       0.4900482       106.0628
2011    1       1       0.886027        157.8954
2011    1       2       0.5913313       122.2675
2011    1       3       0.4219635       96.04524
2011    1       4       0.3518511       82.72299
2011    1       5       0.4783505       104.5576
2011    1       6       0.6758312       135.0537
2011    1       7       1.06913         181.3935
2011    2       0       0.9183053       167.3437
2011    2       1       0.6467404       134.1673
2011    2       2       0.4697379       106.2826
2011    2       3       0.4130215       96.54005
2011    2       4       0.4086591       95.73937
2011    2       5       0.3891516       92.1179
2011    2       6       0.3639508       87.38214
2011    2       7       0.3531361       85.075
2011    3       0       0.3755381       88.58713
2011    3       1       0.4448567       99.74848
2011    3       2       0.5078963       109.594
2011    3       3       0.5727523       119.0974
2011    3       4       0.6457089       129.3404
2011    3       5       0.7304594       140.2204
2011    3       6       0.5978437       123.4227
2011    3       7       0.5398186       115.5673
2011    4       0       0.5353151       114.9777
2011    4       1       0.5128223       111.6361
2011    4       2       0.473817        105.3927
2011    4       3       0.4407596       99.73008
2011    4       4       0.4556656       101.819
2011    4       5       0.4916779       107.4948
2011    4       6       0.4862055       106.4088
2011    4       7       0.4641595       102.6719
2011    5       0       0.3706342       87.11644
2011    5       1       0.3386545       81.90454
2011    5       2       0.3364997       81.1412
2011    5       3       0.3346333       80.73416
2011    5       4       0.3809851       89.25127
2011    5       5       0.450702        100.2635
2011    5       6       0.4600429       101.6824
2011    5       7       0.3730488       87.46533
2011    6       0       0.4074474       93.55265
2011    6       1       0.4628005       102.9978
2011    6       2       0.4819342       106.4294
2011    6       3       0.5568542       119.1962
2011    6       4       0.478013        107.3603
2011    6       5       0.3577278       85.28374
2011    6       6       0.4434358       99.04004
2011    6       7       0.5057799       110.616
2011    7       0       0.5554015       119.3391
2011    7       1       0.5925326       125.3665
2011    7       2       0.5952396       125.6523
2011    7       3       0.5927505       125.1759
2011    7       4       0.6155442       128.4662
2011    7       5       0.6276965       130.1546
2011    7       6       0.5828336       123.7061
2011    7       7       0.5202074       114.2975
2011    8       0       0.4761645       107.4672
2011    8       1       0.4087554       95.88309
2011    8       2       0.3738973       89.25801
2011    8       3       0.3781161       89.96887
2011    8       4       0.4071027       94.67817
2011    8       5       0.4614876       103.2136
2011    8       6       0.4809021       105.5485
2011    8       7       0.5188813       110.8951
2011    9       0       0.5596254       117.0104
2011    9       1       0.515172        110.7356
2011    9       2       0.4468606       99.83464
2011    9       3       0.4102884       93.58158
2011    9       4       0.3990392       91.97877
2011    9       5       0.4325881       97.35602
2011    9       6       0.4473292       99.9038
2011    9       7       0.4370314       98.62841
2011    10      0       0.4661799       103.3344
2011    10      1       0.5051875       109.2486
2011    10      2       0.5009118       108.5163
2011    10      3       0.4706994       104.1388
2011    10      4       0.4879229       107.7317
2011    10      5       0.5324598       115.0894
2011    10      6       0.5408884       116.206
2011    10      7       0.567985        119.9931
2011    11      0       0.6221937       128.1378
2011    11      1       0.6565349       133.3969
2011    11      2       0.6828319       137.3183
2011    11      3       0.6923876       138.9295
2011    11      4       0.6943278       139.7139
2011    11      5       0.6956382       140.3236
2011    11      6       0.6589089       135.5089
2011    11      7       0.6226802       130.4736
2011    12      0       0.630698        131.6778
2011    12      1       0.7560237       148.9532
2011    12      2       1.02577         179.1205
2011    12      3       1.073801        183.7531
2011    12      4       0.9774722       174.6426
2011    12      5       0.8484055       160.5574
2011    12      6       0.682398        139.3183
2011    12      7       0.5843129       125.2087
2011    13      0       0.4866181       109.833
2011    13      1       0.380053        91.00747
2011    13      2       0.302514        76.07794
2011    13      3       0.2786319       70.92995
2011    13      4       0.2458473       64.116
2011    13      5       0.2335439       61.14612
2011    13      6       0.2378664       61.41291
2011    13      7       0.2356055       60.53736
2011    14      0       0.2368901       60.8267
2011    14      1       0.2532207       64.50587
2011    14      2       0.2860664       71.12881
2011    14      3       0.3430435       81.97876
2011    14      4       0.3904906       90.79029
2011    14      5       0.3626301       86.27448
2011    14      6       0.3232003       79.65508
2011    14      7       0.3660098       87.69699
2011    15      0       0.4194978       97.64829
2011    15      1       0.4257964       98.88797
2011    15      2       0.4119582       96.32488
2011    15      3       0.4126316       96.31902
2011    15      4       0.4435306       101.9815
2011    15      5       0.4841682       109.0128
2011    15      6       0.4670818       106.3297
2011    15      7       0.4197787       98.26045
2011    16      0       0.3567704       86.61616
2011    16      1       0.2851226       72.60754
2011    16      2       0.2830566       71.95278
2011    16      3       0.3098322       77.16719
2011    16      4       0.2715999       69.75295
2011    16      5       0.2218852       59.43379
2011    16      6       0.2060966       55.85673
2011    16      7       0.205523        55.63912
2011    17      0       0.2264618       60.17903
2011    17      1       0.232733        61.6176
2011    17      2       0.2455845       64.29359
2011    17      3       0.2804637       70.98174
2011    17      4       0.305904        76.05806
2011    17      5       0.3131125       77.3618
2011    17      6       0.2578509       66.3217
2011    17      7       0.2527891       66.2193
2011    18      0       0.329544        81.77047
2011    18      1       0.2906563       74.00369
2011    18      2       0.2864688       72.22164
2011    18      3       0.3301515       80.35903
2011    18      4       0.4242023       97.69619
2011    18      5       0.4413032       101.2065
2011    18      6       0.4103854       95.6685
2011    18      7       0.3258199       80.35967
2011    19      0       0.2790337       71.07063
2011    19      1       0.2583817       66.60983
2011    19      2       0.2692937       68.89469
2011    19      3       0.2939933       74.24446
2011    19      4       0.2731269       70.08497
2011    19      5       0.258542        67.06982
2011    19      6       0.2439976       64.03644
2011    19      7       0.2258761       60.11535
2011    20      0       0.2167916       58.04262
2011    20      1       0.2070946       55.84066
2011    20      2       0.1998238       54.06424
2011    20      3       0.2068659       55.4424
2011    20      4       0.2639415       67.34817
2011    20      5       0.3601321       86.25897
2011    20      6       0.451438        102.5542
2011    20      7       0.4777762       107.0866
2011    21      0       0.473089        106.2968
2011    21      1       0.5212263       113.6095
2011    21      2       0.5577115       119.1806
2011    21      3       0.6245139       128.6772
2011    21      4       0.7696066       147.3518
2011    21      5       0.8296561       154.321
2011    21      6       0.7422407       143.7223
2011    21      7       0.6822464       136.5141
2011    22      0       0.7026302       140.0511
2011    22      1       0.6997861       140.003
2011    22      2       0.6874469       138.3241
2011    22      3       0.7050294       139.8544
2011    22      4       0.6302914       129.9318
2011    22      5       0.577565        122.3357
2011    22      6       0.5967085       124.5649
2011    22      7       0.648789        131.3652
2011    23      0       0.8691077       157.515
2011    23      1       0.8824517       159.5112
2011    23      2       0.8646028       157.4881
2011    23      3       0.9559105       166.5895
2011    23      4       1.239531        191.1799
2011    23      5       1.659432        219.0661
2011    23      6       1.988811        234.7274
2011    23      7       1.805627        228.2592
2011    24      0       1.770839        226.349
2011    24      1       1.571886        215.2535
2011    24      2       1.776134        224.3232
2011    24      3       2.169308        240.9322
2011    24      4       0.9621776       171.1237
2011    24      5       0.6826191       138.8038
2011    24      6       0.5056616       112.9296
2011    24      7       0.2750285       70.76759
2011    25      0       0.2597237       67.10746
2011    25      1       0.2931036       73.23548
2011    25      2       0.2658012       67.66268
2011    25      3       0.2279431       59.72462
2011    25      4       0.2406545       62.39607
2011    25      5       0.3376461       82.98023
2011    25      6       0.5142948       113.6058
2011    25      7       0.625125        130.3082
2011    26      0       0.5713923       122.4286
2011    26      1       0.6917362       139.1709
2011    26      2       0.7557913       147.1866
2011    26      3       0.519221        113.8823
2011    26      4       0.4249071       98.15604
2011    26      5       0.4778471       106.877
2011    26      6       0.4562778       103.1473
2011    26      7       0.3939286       91.55917
2011    27      0       0.3013614       74.39898
2011    27      1       0.269837        68.33288
2011    27      2       0.2925066       73.03998
2011    27      3       0.3332908       81.20699
2011    27      4       0.4658245       105.125
2011    27      5       0.6388298       132.0088
2011    27      6       0.7487375       146.7315
2011    27      7       0.7173074       142.6709
2011    28      0       0.6399641       132.2207
2011    28      1       0.67869         137.2328
2011    28      2       0.6886495       138.9537
2011    28      3       0.6698562       136.7981
2011    28      4       0.6638321       135.9761
2011    28      5       0.646278        133.4059
2011    28      6       0.5906542       125.3382
2011    28      7       0.5224425       114.8726
2011    29      0       0.4814051       108.2065
2011    29      1       0.4586072       104.452
2011    29      2       0.4519317       103.271
2011    29      3       0.4284419       99.19016
2011    29      4       0.437939        100.5885
2011    29      5       0.4695611       105.815
2011    29      6       0.4692312       105.5371
2011    29      7       0.4267577       98.18582
2011    30      0       0.4051543       94.27503
2011    30      1       0.3973691       92.34665
2011    30      2       0.3583979       85.58265
2011    30      3       0.3407314       82.58112
2011    30      4       0.3333152       81.23308
2011    30      5       0.3271932       80.15899
2011    30      6       0.3236443       79.37003
2011    30      7       0.3227444       78.88162
2011    31      0       0.3552049       84.88998
2011    31      1       0.4052554       93.42191
2011    31      2       0.4979929       107.8252
2011    31      3       0.5950994       121.7591
2011    31      4       0.6197066       125.8214
2011    31      5       0.7894761       148.1559
2011    31      6       1.273317        194.6979
2011    31      7       1.304452        197.9188
2012    1       0       0.4295763       96.5063
2012    1       1       0.4497562       99.88699
2012    1       2       0.4349521       97.96302
2012    1       3       0.4315185       97.60156
2012    1       4       0.4143845       95.17147
2012    1       5       0.3939598       91.4977
2012    1       6       0.3609366       85.41003
2012    1       7       0.3553332       84.17098
2012    2       0       0.3663398       85.96712
2012    2       1       0.3618263       85.15329
2012    2       2       0.3486122       83.02644
2012    2       3       0.3367243       80.91796
2012    2       4       0.3151419       76.94439
2012    2       5       0.2687382       68.07609
2012    2       6       0.2002881       53.97286
2012    2       7       0.1810876       49.54849
2012    3       0       0.1901061       51.5217
2012    3       1       0.1870777       50.62359
2012    3       2       0.1847125       49.97765
2012    3       3       0.1819858       49.42095
2012    3       4       0.1913037       51.34694
2012    3       5       0.1906468       51.29827
2012    3       6       0.2115617       55.46126
2012    3       7       0.1875144       50.69064
2012    4       0       0.1973777       52.83058
2012    4       1       0.2985648       73.67521
2012    4       2       0.4544239       102.016
2012    4       3       0.5509597       118.4438
2012    4       4       0.5737502       122.2922
2012    4       5       0.5713282       121.8912
2012    4       6       0.5097672       112.1203
2012    4       7       0.4305766       98.71835
2012    5       0       0.4607111       103.6845
2012    5       1       0.5260934       114.2416
2012    5       2       0.5186049       113.8888
2012    5       3       0.6336971       131.3826
2012    5       4       0.7970511       152.7653
2012    5       5       0.8694039       161.0046
2012    5       6       0.8514527       159.0235
2012    5       7       0.7817686       149.9144
2012    6       0       0.6706138       135.8069
2012    6       1       0.8032675       151.8749
2012    6       2       0.7899993       150.0526
2012    6       3       0.8329275       155.3184
2012    6       4       0.9788257       171.5025
2012    6       5       1.111762        185.023
2012    6       6       0.9872392       173.8359
2012    6       7       0.9636276       171.3049
2012    7       0       1.056817        179.6484
2012    7       1       1.145836        187.2787
2012    7       2       1.280978        197.9414
2012    7       3       1.509726        211.9654
2012    7       4       1.376461        203.9218
2012    7       5       1.781687        224.8387
2012    7       6       1.818363        226.7793
2012    7       7       2.693213        253.5808
2012    8       0       3.117662        261.4161
2012    8       1       2.874235        258.7816
2012    8       2       2.514956        251.8791
2012    8       3       2.419294        250.0316
2012    8       4       2.554391        252.9629
2012    8       5       2.50308         252.3047
2012    8       6       2.405846        250.3393
2012    8       7       2.277006        247.2441
2012    9       0       2.327066        248.4903
2012    9       1       2.339016        249.3441
2012    9       2       2.344805        249.1534
2012    9       3       2.47308         251.4477
2012    9       4       2.515618        252.5319
2012    9       5       2.461299        252.0743
2012    9       6       2.265986        247.6331
2012    9       7       2.076711        241.7306
2012    10      0       1.757563        229.292
2012    10      1       1.458795        213.2857
2012    10      2       1.170956        191.6536
2012    10      3       1.298323        199.3508
2012    10      4       2.018636        237.6658
2012    10      5       2.576969        254.9784
2012    10      6       2.519718        254.0744
2012    10      7       2.422598        251.8477
2012    11      0       2.343282        249.8107
2012    11      1       2.669467        256.8851
2012    11      2       2.649748        255.4095
2012    11      3       2.630818        255.9798
2012    11      4       2.424716        251.5127
2012    11      5       2.394934        250.5742
2012    11      6       2.277734        247.2986
2012    11      7       1.960446        236.9567
2012    12      0       1.98831         237.8098
2012    12      1       1.936275        234.8991
2012    12      2       1.851059        231.0815
2012    12      3       1.839863        230.7237
2012    12      4       1.837743        230.9079
2012    12      5       1.796041        229.2517
2012    12      6       1.709546        225.0986
2012    12      7       1.660517        222.4192
2012    13      0       1.711824        226.0781
2012    13      1       1.651675        223.2243
2012    13      2       1.561189        218.3193
2012    13      3       1.571831        218.841
2012    13      4       1.561068        218.2845
2012    13      5       1.563867        218.7005
2012    13      6       1.452525        212.7415
2012    13      7       1.506471        216.0943
2012    14      0       1.398085        209.299
2012    14      1       1.184126        191.441
2012    14      2       1.191353        190.7082
2012    14      3       1.243539        194.5034
2012    14      4       1.278619        198.0086
2012    14      5       1.315578        201.7662
2012    14      6       1.432728        208.976
2012    14      7       1.399417        206.7418
2012    15      0       1.333187        202.8657
2012    15      1       1.263839        198.0849
2012    15      2       1.14373         189.1157
2012    15      3       1.183765        193.3401
2012    15      4       1.118625        187.2164
2012    15      5       1.19185         193.5308
2012    15      6       1.166153        191.3578
2012    15      7       1.138024        188.7701
2012    16      0       1.068269        181.7533
2012    16      1       1.030205        177.5412
2012    16      2       0.9887493       173.4896
2012    16      3       0.9080404       164.2528
2012    16      4       1.118535        184.135
2012    16      5       1.077068        181.4978
2012    16      6       0.8954454       163.9121
2012    16      7       0.8418558       157.7656
2012    17      0       0.8229648       155.4713
2012    17      1       0.8440727       157.8974
2012    17      2       0.7874675       152.1219
2012    17      3       0.8578681       160.4586
2012    17      4       0.9737778       172.9438
2012    17      5       1.134768        187.4829
2012    17      6       1.156717        189.6769
2012    17      7       1.184483        192.4496
2012    18      0       1.338979        203.9443
2012    18      1       1.528167        216.1531
2012    18      2       1.632204        221.9249
2012    18      3       1.925937        235.2953
2012    18      4       1.616225        220.3135
2012    18      5       1.422782        208.9355
2012    18      6       1.248827        195.6438
2012    18      7       1.186018        190.3818
2012    19      0       1.273923        197.5957
2012    19      1       1.445501        209.6775
2012    19      2       1.303948        199.5853
2012    19      3       1.139426        185.3651
2012    19      4       1.144806        185.5514
2012    19      5       0.999043        171.6973
2012    19      6       0.7824611       147.4851
2012    19      7       0.6698343       133.1112
2012    20      0       0.6205178       125.5627
2012    20      1       0.5351966       112.6668
2012    20      2       0.5357794       112.4666
2012    20      3       0.449135        98.6821
2012    20      4       0.3525358       82.17897
2012    20      5       0.2996684       72.54874
2012    20      6       0.258673        64.95935
2012    20      7       0.1872325       50.99824
2012    21      0       0.1592689       45.49398
2012    21      1       0.167413        47.57231
2012    21      2       0.2899453       73.01108
2012    21      3       0.5568718       118.3762
2012    21      4       0.7408055       144.1842
2012    21      5       0.7303027       143.7572
2012    21      6       0.6846131       137.9629
2012    21      7       0.680265        137.33
2012    22      0       0.6627864       135.2331
2012    22      1       0.6052689       127.8558
2012    22      2       0.5421949       118.3616
2012    22      3       0.5043219       112.2139
2012    22      4       0.4997945       111.403
2012    22      5       0.488152        109.654
2012    22      6       0.474347        107.3026
2012    22      7       0.4635243       105.1066
2012    23      0       0.459393        104.2737
2012    23      1       0.4795095       107.5738
2012    23      2       0.4945655       109.4683
2012    23      3       0.5489348       117.0887
2012    23      4       0.5440492       116.6285
2012    23      5       0.5197018       112.8708
2012    23      6       0.4877186       107.56
2012    23      7       0.5109067       110.6094
2012    24      0       0.4686011       104.2693
2012    24      1       0.4473011       101.3884
2012    24      2       0.4335923       99.43998
2012    24      3       0.4439667       101.1784
2012    24      4       0.4560817       103.1558
2012    24      5       0.4877193       108.2441
2012    24      6       0.528612        115.0513
2012    24      7       0.3985548       93.19572
2012    25      0       0.3319539       80.65879
2012    25      1       0.2881392       71.78582
2012    25      2       0.2202343       57.73186
2012    25      3       0.2024376       53.85099
2012    25      4       0.2902831       72.45954
2012    25      5       0.4205651       96.76397
2012    25      6       0.5624352       119.3806
2012    25      7       0.678161        135.7404
2012    26      0       0.7549098       145.4544
2012    26      1       0.8628812       157.5703
2012    26      2       0.7457729       144.4689
2012    26      3       0.6483593       132.3709
2012    26      4       0.5254016       114.8343
2012    26      5       0.5127259       113.8395
2012    26      6       0.4269401       99.57241
2012    26      7       0.4426813       102.056
2012    27      0       0.4749487       107.3951
2012    27      1       0.4786814       107.6437
2012    27      2       0.5737981       122.123
2012    27      3       0.5902771       124.4863
2012    27      4       0.5695744       121.399
2012    27      5       0.5811834       122.9782
2012    27      6       0.5818726       123.6385
2012    27      7       0.6694206       135.7308
2012    28      0       0.8616958       159.0979
2012    28      1       1.024918        175.8534
2012    28      2       1.210212        193.0654
2012    28      3       1.202001        192.9414
2012    28      4       1.18534         192.2123
2012    28      5       1.223722        195.5852
2012    28      6       1.129553        187.154
2012    28      7       1.06307         181.1979
2012    29      0       1.285124        200.0142
2012    29      1       1.512244        215.1084
2012    29      2       1.636542        221.6523
2012    29      3       1.570902        218.0333
2012    29      4       1.227483        196.0093
2012    29      5       1.161971        190.9189
2012    29      6       1.190317        192.9767
2012    29      7       1.159518        190.2507
2012    30      0       1.009876        176.5762
2012    30      1       0.8443652       159.4067
2012    30      2       0.7596083       149.3598
2012    30      3       0.7435863       147.2803
2012    30      4       0.7659046       150.6575
2012    30      5       0.8180177       157.2956
2012    30      6       0.8240822       157.5711
2012    30      7       0.7453504       147.7705
2012    31      0       0.7334171       146.214
2012    31      1       0.7763591       151.2193
2012    31      2       0.7729481       150.782
2012    31      3       0.7440185       147.0517
2012    31      4       0.6506267       134.8196
2012    31      5       0.5782972       124.6006
2012    31      6       0.5211272       115.5923
2012    31      7       0.5108881       113.8392
2013    1       0       0.2593073       64.78697
2013    1       1       0.2714766       67.17314
2013    1       2       0.269058        66.72309
2013    1       3       0.2415602       61.48466
2013    1       4       0.2118692       55.73946
2013    1       5       0.2101579       55.46998
2013    1       6       0.2115716       55.80249
2013    1       7       0.2176474       57.11792
2013    2       0       0.2539593       64.44601
2013    2       1       0.3068859       74.43651
2013    2       2       0.3174452       76.8436
2013    2       3       0.3853293       88.86186
2013    2       4       0.4508821       100.1829
2013    2       5       0.4908742       106.905
2013    2       6       0.5027003       109.0866
2013    2       7       0.5125434       111.1003
2013    3       0       0.5849819       122.141
2013    3       1       0.6216369       127.7077
2013    3       2       0.6142114       127.3339
2013    3       3       0.6916684       137.8782
2013    3       4       0.8698135       159.4274
2013    3       5       1.022769        175.2799
2013    3       6       1.102158        183.0454
2013    3       7       1.069215        180.0605
2013    4       0       1.072707        179.6452
2013    4       1       1.111456        182.8494
2013    4       2       1.208954        190.4727
2013    4       3       1.289693        196.9317
2013    4       4       1.277508        196.5893
2013    4       5       1.298785        197.509
2013    4       6       1.272118        194.401
2013    4       7       1.111766        181.2674
2013    5       0       0.9031901       162.5631
2013    5       1       0.7697105       148.2991
2013    5       2       0.7915124       151.6072
2013    5       3       0.8119168       154.2497
2013    5       4       0.8360656       156.7175
2013    5       5       0.8956453       163.1129
2013    5       6       0.8560877       158.258
2013    5       7       0.9578252       169.0154
2013    6       0       1.080525        180.1811
2013    6       1       1.143748        185.4705
2013    6       2       1.184452        189.4946
2013    6       3       1.170763        188.554
2013    6       4       1.060463        178.8894
2013    6       5       0.9509884       167.1258
2013    6       6       1.087063        178.2399
2013    6       7       0.9842172       169.7198
2013    7       0       1.221442        190.2458
2013    7       1       1.440822        206.1433
2013    7       2       1.333135        198.8646
2013    7       3       1.128276        183.0814
2013    7       4       1.108289        182.3965
2013    7       5       1.214025        191.8955
2013    7       6       1.244792        195.7037
2013    7       7       1.289369        200.7388
2013    8       0       1.407419        209.8515
2013    8       1       1.413615        210.2543
2013    8       2       1.337369        204.624
2013    8       3       1.436873        211.2365
2013    8       4       1.592566        220.3949
2013    8       5       1.442115        210.274
2013    8       6       1.297819        198.8425
2013    8       7       1.331433        201.3305
2013    9       0       1.600008        220.2528
2013    9       1       1.66477         224.202
2013    9       2       1.46406         212.9427
2013    9       3       1.291696        200.7026
2013    9       4       1.3057          201.0999
2013    9       5       1.365282        205.1141
2013    9       6       1.379217        205.672
2013    9       7       1.336783        202.1839
2013    10      0       1.195246        191.3748
2013    10      1       1.224132        193.2331
2013    10      2       1.298238        198.3919
2013    10      3       1.388462        204.6284
2013    10      4       1.528155        213.6128
2013    10      5       1.650648        221.4179
2013    10      6       1.735663        225.4208
2013    10      7       1.645952        220.7142
2013    11      0       1.620298        218.9109
2013    11      1       1.691561        222.3959
2013    11      2       1.821321        228.4601
2013    11      3       1.601031        218.7331
2013    11      4       1.232383        195.6859
2013    11      5       1.05158         180.6299
2013    11      6       1.065865        181.5156
2013    11      7       1.07958         182.4645
2013    12      0       1.295363        200.0357
2013    12      1       2.31325         246.4239
2013    12      2       2.134843        241.1787
2013    12      3       1.848792        229.6629
2013    12      4       1.733929        224.5772
2013    12      5       1.555704        216.0759
2013    12      6       1.704759        223.4665
2013    12      7       1.460327        209.8632
2013    13      0       1.392889        204.517
2013    13      1       1.314965        198.5803
2013    13      2       1.275754        195.3795
2013    13      3       0.849339        157.2633
2013    13      4       0.4519223       102.0566
2013    13      5       0.3811616       88.17668
2013    13      6       0.34697         81.98514
2013    13      7       0.3906315       90.31577
2013    14      0       0.4728366       104.3126
2013    14      1       0.5616558       117.7444
2013    14      2       0.4973386       108.8677
2013    14      3       0.4836945       106.8258
2013    14      4       0.4878558       106.8786
2013    14      5       0.4704131       103.1208
2013    14      6       0.471615        102.0034
2013    14      7       0.4767344       102.4971
2013    15      0       0.4456671       97.25264
2013    15      1       0.395939        88.69061
2013    15      2       0.4090562       91.40865
2013    15      3       0.4465121       98.8202
2013    15      4       0.4522177       100.5907
2013    15      5       0.4624031       102.5459
2013    15      6       0.3698266       86.76357
2013    15      7       0.2638121       66.59644
2013    16      0       0.1968236       52.74407
2013    16      1       0.2177869       57.58599
2013    16      2       0.4872674       108.5289
2013    16      3       0.8391484       157.3212
2013    16      4       0.9918538       173.852
2013    16      5       0.9663153       171.2487
2013    16      6       0.8489621       158.4032
2013    16      7       0.7846635       150.5002
2013    17      0       0.8224266       154.4494
2013    17      1       0.9249405       165.4077
2013    17      2       0.9979666       172.525
2013    17      3       0.8058709       151.9833
2013    17      4       0.4457623       101.8006
2013    17      5       0.2940468       74.33043
2013    17      6       0.2245924       59.78366
2013    17      7       0.1813365       50.3063
2013    18      0       0.175934        49.15233
2013    18      1       0.1919429       52.90936
2013    18      2       0.1962745       53.89609
2013    18      3       0.1829768       50.84279
2013    18      4       0.1629575       46.36838
2013    18      5       0.1583736       45.35891
2013    18      6       0.1644066       46.69647
2013    18      7       0.1711749       48.15074
2013    19      0       0.1789111       49.7105
2013    19      1       0.1945544       52.70521
2013    19      2       0.2307922       59.37771
2013    19      3       0.2272608       58.55287
2013    19      4       0.2477345       62.73374
2013    19      5       0.2531897       64.41729
2013    19      6       0.2865735       70.98296
2013    19      7       0.3050201       74.41781
2013    20      0       0.2740186       68.60866
2013    20      1       0.2525587       64.55338
2013    20      2       0.2532938       64.8806
2013    20      3       0.2707457       68.36944
2013    20      4       0.2870951       71.53026
2013    20      5       0.288049        71.73627
2013    20      6       0.2891012       71.97975
2013    20      7       0.2949279       73.24099
2013    21      0       0.32242         78.49624
2013    21      1       0.3485537       83.32527
2013    21      2       0.3482658       83.16585
2013    21      3       0.3395986       81.56345
2013    21      4       0.3526867       83.87164
2013    21      5       0.3507467       83.71375
2013    21      6       0.3275906       79.54238
2013    21      7       0.325469        79.05744
2013    22      0       0.3290526       80.14787
2013    22      1       0.3196291       78.78718
2013    22      2       0.2937774       73.79873
2013    22      3       0.2806093       71.1764
2013    22      4       0.2875635       72.36352
2013    22      5       0.294958        73.50571
2013    22      6       0.3058107       74.95379
2013    22      7       0.2792284       70.26795
2013    23      0       0.2851358       71.60041
2013    23      1       0.2887788       72.23112
2013    23      2       0.2826852       71.12239
2013    23      3       0.2863411       71.81237
2013    23      4       0.2918594       72.68079
2013    23      5       0.293454        72.97331
2013    23      6       0.357864        84.44902
2013    23      7       0.4131743       93.81241
2013    24      0       0.4627802       101.6902
2013    24      1       0.4961245       107.5138
2013    24      2       0.6043333       123.1837
2013    24      3       0.6351327       127.6064
2013    24      4       0.6956406       135.569
2013    24      5       0.743609        142.724
2013    24      6       0.6551138       132.3112
2013    24      7       0.5635754       119.7127
2013    25      0       0.5951387       124.3484
2013    25      1       0.6445127       131.6632
2013    25      2       0.6784084       136.4741
2013    25      3       0.741159        145.0541
2013    25      4       0.7977741       152.5634
2013    25      5       0.8663238       160.731
2013    25      6       0.8024185       153.8109
2013    25      7       0.6845348       138.9389
2013    26      0       0.690618        139.2421
2013    26      1       0.7808833       150.6629
2013    26      2       0.8825275       161.8554
2013    26      3       0.9324183       167.0034
2013    26      4       0.930669        166.4709
2013    26      5       0.9108923       163.57
2013    26      6       0.8748603       159.1172
2013    26      7       0.7911509       149.7266
2013    27      0       0.7448285       144.0977
2013    27      1       0.7689581       146.984
2013    27      2       0.7936578       149.6712
2013    27      3       0.7736295       147.3251
2013    27      4       0.745095        144.0656
2013    27      5       0.6999868       138.6829
2013    27      6       0.6195931       128.1516
2013    27      7       0.4955688       109.7557
2013    28      0       0.4201617       97.09977
2013    28      1       0.430731        98.72856
2013    28      2       0.4089229       95.13802
2013    28      3       0.468503        104.9957
2013    28      4       0.6025587       126.1174
2013    28      5       0.7231367       143.1938
2013    28      6       0.674427        137.359
2013    28      7       0.4667361       106.4272
2013    29      0       0.3783088       90.53393
2013    29      1       0.3208729       79.03078
2013    29      2       0.330624        80.07155
2013    29      3       0.3653401       86.4196
2013    29      4       0.3856213       90.43609
2013    29      5       0.3298874       80.99508
2013    29      6       0.2952015       74.2218
2013    29      7       0.2486266       64.76647
2013    30      0       0.3034877       75.75081
2013    30      1       0.35888         86.58023
2013    30      2       0.385236        91.54966
2013    30      3       0.4198146       97.71634
2013    30      4       0.4335356       100.032
2013    30      5       0.4300434       99.38753
2013    30      6       0.3996369       94.23521
2013    30      7       0.3741022       89.80839
2013    31      0       0.3692008       88.98263
2013    31      1       0.3645663       88.11872
2013    31      2       0.3647739       88.01391
2013    31      3       0.3689207       88.71499
2013    31      4       0.3772035       90.39031
2013    31      5       0.3738662       89.91702
2013    31      6       0.3545293       86.41089
2013    31      7       0.3256107       81.01342
2014    1       0       0.7562049       145.9785
2014    1       1       0.7877882       149.7482
2014    1       2       0.7889702       149.7797
2014    1       3       0.8025209       151.2892
2014    1       4       0.7617674       147.009
2014    1       5       0.659579        134.4713
2014    1       6       0.5685347       121.641
2014    1       7       0.497988        110.6689
2014    2       0       0.4305273       99.73783
2014    2       1       0.3835311       91.90384
2014    2       2       0.4498019       104.0604
2014    2       3       0.3497815       85.5989
2014    2       4       0.3861904       92.50971
2014    2       5       0.4126936       97.41283
2014    2       6       0.4480629       103.677
2014    2       7       0.4333611       101.1955
2014    3       0       0.4138092       97.7732
2014    3       1       0.3749651       90.6524
2014    3       2       0.3094816       77.78358
2014    3       3       0.2892173       73.35024
2014    3       4       0.300372        75.20367
2014    3       5       0.3212154       78.36407
2014    3       6       0.3073621       75.85304
2014    3       7       0.3110265       76.4701
2014    4       0       0.3546474       84.41241
2014    4       1       0.4421163       99.41096
2014    4       2       0.4835189       105.4185
2014    4       3       0.5617226       118.5911
2014    4       4       0.50633         110.9279
2014    4       5       0.5098727       111.938
2014    4       6       0.5244984       114.4785
2014    4       7       0.5372564       116.273
2014    5       0       0.5368674       116.167
2014    5       1       0.5582976       119.3109
2014    5       2       0.5743457       121.7167
2014    5       3       0.6026019       125.8621
2014    5       4       0.6095699       126.7671
2014    5       5       0.604848        126.0208
2014    5       6       0.6127447       126.9859
2014    5       7       0.5952156       124.4797
2014    6       0       0.5778391       121.5472
2014    6       1       0.5611833       119.0421
2014    6       2       0.5126898       111.8508
2014    6       3       0.4657631       104.3678
2014    6       4       0.5422844       116.5601
2014    6       5       0.6939889       138.9781
2014    6       6       0.8246704       155.4601
2014    6       7       0.8578969       159.3071
2014    7       0       0.9026021       164.1508
2014    7       1       1.179763        191.0271
2014    7       2       1.28605         199.8604
2014    7       3       1.038868        179.5439
2014    7       4       0.80829         154.27
2014    7       5       0.8577292       159.2271
2014    7       6       1.013898        176.0487
2014    7       7       1.286017        200.5152
2014    8       0       1.429853        210.2391
2014    8       1       1.322099        202.6456
2014    8       2       1.163735        190.4343
2014    8       3       1.049162        180.2988
2014    8       4       0.9814741       174.1373
2014    8       5       0.9422838       170.5244
2014    8       6       0.9413307       170.5207
2014    8       7       0.922439        168.3181
2014    9       0       0.8702236       162.5013
2014    9       1       0.8529713       160.345
2014    9       2       0.7952259       153.5897
2014    9       3       0.732832        146.097
2014    9       4       0.683781        139.8644
2014    9       5       0.6423439       134.3567
2014    9       6       0.5972457       128.0105
2014    9       7       0.5630684       122.7747
2014    10      0       0.5285123       117.1139
2014    10      1       0.4754506       108.2804
2014    10      2       0.4030063       95.46202
2014    10      3       0.3429822       84.05923
2014    10      4       0.3250651       80.66127
2014    10      5       0.3295854       81.70521
2014    10      6       0.3425299       84.36089
2014    10      7       0.3411714       84.32931
2014    11      0       0.3364905       83.52915
2014    11      1       0.3363396       83.53904
2014    11      2       0.3292195       82.03842
2014    11      3       0.3310338       82.26952
2014    11      4       0.3296331       82.1234
2014    11      5       0.3337217       83.16552
2014    11      6       0.3882372       93.72786
2014    11      7       0.5410702       120.1773
2014    12      0       0.6865138       141.6428
2014    12      1       0.7467542       149.0734
2014    12      2       0.8303983       158.7184
2014    12      3       0.9480666       171.5412
2014    12      4       1.031563        180.4458
2014    12      5       0.9356955       171.4763
2014    12      6       0.8154978       157.7864
2014    12      7       0.5751096       124.5418
2014    13      0       0.43998         102.4737
2014    13      1       0.3927867       93.98913
2014    13      2       0.3822542       91.48286
2014    13      3       0.3420712       83.56518
2014    13      4       0.3442686       83.78832
2014    13      5       0.3823711       91.0517
2014    13      6       0.3498379       84.96068
2014    13      7       0.3084725       76.44452
2014    14      0       0.41203         95.62553
2014    14      1       0.688935        139.3559
2014    14      2       1.079088        183.3606
2014    14      3       1.400031        208.8596
2014    14      4       1.79545         230.6701
2014    14      5       2.055803        241.1478
2014    14      6       1.362           204.0943
2014    14      7       0.8807512       161.308
2014    15      0       0.7091616       141.973
2014    15      1       0.6256766       130.6206
2014    15      2       0.5564471       120.5791
2014    15      3       0.5528028       120.1812
2014    15      4       0.6325579       132.208
2014    15      5       0.6258906       131.084
2014    15      6       0.6145323       129.5311
2014    15      7       0.5006665       111.842
2014    16      0       0.4559387       104.3485
2014    16      1       0.4446595       101.956
2014    16      2       0.3781414       88.90585
2014    16      3       0.3464275       82.49494
2014    16      4       0.3277007       79.16514
2014    16      5       0.3080421       75.74875
2014    16      6       0.2767951       69.78803
2014    16      7       0.257191        65.99847
2014    17      0       0.2814311       71.15123
2014    17      1       0.2906259       73.1892
2014    17      2       0.2718109       69.40617
2014    17      3       0.2722657       69.36138
2014    17      4       0.2878029       72.61406
2014    17      5       0.2725661       69.58548
2014    17      6       0.2330425       61.23704
2014    17      7       0.2218961       58.86558
2014    18      0       0.249926        64.50044
2014    18      1       0.2258664       59.66527
2014    18      2       0.1938483       52.91841
2014    18      3       0.1992228       54.14462
2014    18      4       0.2124173       56.93169
2014    18      5       0.2162422       57.92812
2014    18      6       0.2409737       63.31829
2014    18      7       0.2360977       62.16556
2014    19      0       0.2503712       65.12261
2014    19      1       0.260317        66.90314
2014    19      2       0.2572253       66.07846
2014    19      3       0.2653897       67.65752
2014    19      4       0.2639998       67.41981
2014    19      5       0.2665079       67.79924
2014    19      6       0.2706213       68.62694
2014    19      7       0.2821775       71.04258
2014    20      0       0.2814907       71.00341
2014    20      1       0.3033231       75.28341
2014    20      2       0.3732669       88.63017
2014    20      3       0.42261         97.76581
2014    20      4       0.4023833       94.57277
2014    20      5       0.4418881       101.5953
2014    20      6       0.3688613       88.37502
2014    20      7       0.3488306       84.53572
2014    21      0       0.5184441       112.1085
2014    21      1       0.6511158       130.875
2014    21      2       0.58867         122.0614
2014    21      3       0.5523819       117.0237
2014    21      4       0.6061699       125.651
2014    21      5       0.672512        135.8458
2014    21      6       0.6148103       128.2594
2014    21      7       0.587331        123.7523
2014    22      0       0.5925614       123.9782
2014    22      1       0.5727847       120.8556
2014    22      2       0.6105505       125.9993
2014    22      3       0.5621998       119.7302
2014    22      4       0.6313468       129.3377
2014    22      5       0.6257015       128.8549
2014    22      6       0.5505977       118.3435
2014    22      7       0.4961331       109.4995
2014    23      0       0.4519404       101.6876
2014    23      1       0.3893167       90.77401
2014    23      2       0.2979097       73.98
2014    23      3       0.2657731       67.69046
2014    23      4       0.2633367       67.44715
2014    23      5       0.2666972       68.46046
2014    23      6       0.2596759       67.16053
2014    23      7       0.2272814       60.27112
2014    24      0       0.1886543       51.82906
2014    24      1       0.191541        52.02791
2014    24      2       0.2072757       55.40812
2014    24      3       0.2257713       58.94992
2014    24      4       0.2926634       71.35633
2014    24      5       0.4952333       105.8321
2014    24      6       0.5540628       114.395
2014    24      7       0.4392697       98.28172
2014    25      0       0.3336422       81.08804
2014    25      1       0.3600733       86.04148
2014    25      2       0.3611818       86.17552
2014    25      3       0.3402295       82.0711
2014    25      4       0.3422754       81.98511
2014    25      5       0.3870185       89.81056
2014    25      6       0.4735502       104.5145
2014    25      7       0.5680964       119.1508
2014    26      0       0.6124169       124.9884
2014    26      1       0.6061787       123.5318
2014    26      2       0.5641855       117.8847
2014    26      3       0.5428541       114.9637
2014    26      4       0.4939021       107.8132
2014    26      5       0.402752        93.59584
2014    26      6       0.3053675       76.55711
2014    26      7       0.2573466       67.18595
2014    27      0       0.2630362       67.99727
2014    27      1       0.2588393       66.76047
2014    27      2       0.2983953       74.4708
2014    27      3       0.4062661       94.63728
2014    27      4       0.5714523       122.3319
2014    27      5       0.6911274       139.6942
2014    27      6       0.7841919       151.87
2014    27      7       0.8451016       159.8527
2014    28      0       0.9103409       167.7951
2014    28      1       0.8644871       162.937
2014    28      2       0.7750307       152.1018
2014    28      3       0.7096007       143.5302
2014    28      4       0.6494494       135.1688
2014    28      5       0.5964391       127.3191
2014    28      6       0.521591        115.6491
2014    28      7       0.4637885       106.0062
2014    29      0       0.4790546       108.7676
2014    29      1       0.4954465       111.5961
2014    29      2       0.4422436       102.4506
2014    29      3       0.4350385       101.2278
2014    29      4       0.460565        105.868
2014    29      5       0.4841936       109.9651
2014    29      6       0.478816        109.1283
2014    29      7       0.4475948       103.8923
2014    30      0       0.4161098       98.38048
2014    30      1       0.3803471       91.72821
2014    30      2       0.3533833       86.5704
2014    30      3       0.3377314       83.53553
2014    30      4       0.3210632       80.34751
2014    30      5       0.316278        79.30904
2014    30      6       0.3298897       81.5253
2014    30      7       0.3348155       82.27347
2014    31      0       0.3540168       85.65448
2014    31      1       0.3830832       90.72991
2014    31      2       0.4014644       93.45144
2014    31      3       0.4188181       96.11618
2014    31      4       0.4895074       107.4631
2014    31      5       0.5276515       113.487
2014    31      6       0.495592        109.315
2014    31      7       0.4544505       103.2415
2015    1       0       0.9116983       166.3336
2015    1       1       0.8924076       164.1383
2015    1       2       0.9600767       171.1049
2015    1       3       0.9944097       174.6072
2015    1       4       0.9280123       167.8222
2015    1       5       0.7990707       153.7427
2015    1       6       0.7198707       144.0618
2015    1       7       0.6581499       136.0386
2015    2       0       0.639183        133.263
2015    2       1       0.6614444       136.5085
2015    2       2       0.7389618       147.1709
2015    2       3       0.7879867       153.4733
2015    2       4       0.9169634       168.288
2015    2       5       1.03237         180.3156
2015    2       6       1.08566         184.6951
2015    2       7       1.128983        189.1118
2015    3       0       1.150695        191.1625
2015    3       1       1.26467         199.8939
2015    3       2       1.366956        206.5999
2015    3       3       1.485982        213.2593
2015    3       4       1.53276         214.6494
2015    3       5       1.334205        201.3498
2015    3       6       1.372779        204.328
2015    3       7       1.45628         210.6247
2015    4       0       1.531837        215.0933
2015    4       1       1.388132        205.8226
2015    4       2       1.362031        204.168
2015    4       3       1.489279        212.8968
2015    4       4       1.825811        230.9235
2015    4       5       1.886234        233.4117
2015    4       6       1.63562         221.1221
2015    4       7       1.327971        202.198
2015    5       0       1.272472        198.3704
2015    5       1       1.32395         202.0023
2015    5       2       1.287221        199.6036
2015    5       3       1.198897        192.6775
2015    5       4       1.129853        186.9409
2015    5       5       1.092512        182.9617
2015    5       6       1.208121        193.2398
2015    5       7       1.131054        187.7163
2015    6       0       0.9815871       175.0066
2015    6       1       0.8717805       163.8852
2015    6       2       0.7959976       154.8905
2015    6       3       0.7698471       151.6779
2015    6       4       0.8440851       160.6899
2015    6       5       0.8517624       161.59
2015    6       6       0.6951849       141.606
2015    6       7       0.5676662       122.9654
2015    7       0       0.4484434       103.2658
2015    7       1       0.4330125       100.1531
2015    7       2       0.4200931       97.14009
2015    7       3       0.2681315       67.98357
2015    7       4       0.1315946       38.34739
2015    7       5       0.1417754       40.82734
2015    7       6       0.1653584       46.27591
2015    7       7       0.1801124       49.39812
2015    8       0       0.2047866       54.76936
2015    8       1       0.2031096       54.45506
2015    8       2       0.1965392       52.88554
2015    8       3       0.1499085       43.17095
2015    8       4       0.1448123       42.17715
2015    8       5       0.1520465       43.82811
2015    8       6       0.1517597       43.81836
2015    8       7       0.1524825       44.08426
2015    9       0       0.1732849       48.8673
2015    9       1       0.2107941       57.19109
2015    9       2       0.2399851       63.33223
2015    9       3       0.2802515       71.59631
2015    9       4       0.3010054       75.64087
2015    9       5       0.2997372       75.08538
2015    9       6       0.3191751       78.85804
2015    9       7       0.3377126       82.58522
2015    10      0       0.3895451       92.1815
2015    10      1       0.4378057       100.5436
2015    10      2       0.4564323       103.5065
2015    10      3       0.4935741       109.9127
2015    10      4       0.5328182       116.7462
2015    10      5       0.5737052       123.5301
2015    10      6       0.6696829       137.8028
2015    10      7       0.7783754       151.8341
2015    11      0       0.8934738       164.4038
2015    11      1       0.9141508       166.3399
2015    11      2       0.8528076       159.4631
2015    11      3       0.8714223       161.1329
2015    11      4       1.044346        178.1279
2015    11      5       1.222076        193.3223
2015    11      6       1.006192        174.5009
2015    11      7       0.914796        164.1993
2015    12      0       0.9847186       171.0752
2015    12      1       1.034277        175.8775
2015    12      2       1.054353        177.7392
2015    12      3       1.054977        178.0573
2015    12      4       1.144355        186.2253
2015    12      5       1.416563        207.2334
2015    12      6       1.666778        221.5441
2015    12      7       1.6129          218.3966
2015    13      0       1.355281        202.3826
2015    13      1       1.488568        209.7857
2015    13      2       1.48082         209.5853
2015    13      3       1.438921        207.6016
2015    13      4       1.622238        218.4498
2015    13      5       1.618386        218.8082
2015    13      6       1.516825        213.4461
2015    13      7       1.42153         207.2315
2015    14      0       1.361465        203.0319
2015    14      1       1.379347        204.5866
2015    14      2       1.276555        197.4466
2015    14      3       1.137682        186.6167
2015    14      4       1.074875        180.7809
2015    14      5       0.980562        170.7489
2015    14      6       0.8170886       152.7496
2015    14      7       0.6769175       134.8188
2015    15      0       0.6365596       129.3695
2015    15      1       0.7164178       140.7182
2015    15      2       0.8891676       161.8571
2015    15      3       1.020912        175.6889
2015    15      4       1.039476        177.4634
2015    15      5       1.033865        177.0348
2015    15      6       1.035923        176.3663
2015    15      7       1.142429        185.0215
2015    16      0       1.377787        203.0862
2015    16      1       1.684991        222.0079
2015    16      2       1.83674         229.8509
2015    16      3       1.766979        227.9428
2015    16      4       1.619061        221.0426
2015    16      5       1.582006        218.2711
2015    16      6       1.711157        224.8693
2015    16      7       1.854219        231.6007
2015    17      0       1.465568        211.644
2015    17      1       1.248037        196.8747
2015    17      2       1.137327        187.906
2015    17      3       1.078843        182.6653
2015    17      4       1.021572        177.5665
2015    17      5       0.8436134       159.3351
2015    17      6       0.7198319       144.438
2015    17      7       0.6909503       140.5876
2015    18      0       0.7476464       148.0106
2015    18      1       0.5680883       122.1982
2015    18      2       0.5352912       116.8585
2015    18      3       0.4635294       104.6688
2015    18      4       0.4454203       101.2885
2015    18      5       0.4669607       105.1046
2015    18      6       0.4275697       98.85005
2015    18      7       0.3579732       86.507
2015    19      0       0.3443053       83.99005
2015    19      1       0.3647183       87.58575
2015    19      2       0.4443717       101.7271
2015    19      3       0.5230194       114.9314
2015    19      4       0.4230296       98.29304
2015    19      5       0.4302731       99.51622
2015    19      6       0.5029201       112.0738
2015    19      7       0.5257699       116.0285
2015    20      0       0.480169        108.288
2015    20      1       0.5120963       113.2086
2015    20      2       0.579604        123.3977
2015    20      3       0.6542249       133.8874
2015    20      4       0.7776823       150.0261
2015    20      5       0.8866517       162.6682
2015    20      6       0.7823149       150.2521
2015    20      7       0.7346518       144.0383
2015    21      0       0.754553        146.6013
2015    21      1       0.7894679       150.8119
2015    21      2       0.6880636       137.8286
2015    21      3       0.5092758       112.3653
2015    21      4       0.5283416       116.5664
2015    21      5       0.6176521       129.7938
2015    21      6       0.5887248       125.6618
2015    21      7       0.5253213       115.8393
2015    22      0       0.4621979       105.0504
2015    22      1       0.3976376       93.47933
2015    22      2       0.3502434       84.57413
2015    22      3       0.3789442       89.98427
2015    22      4       0.4276039       98.80343
2015    22      5       0.4521589       103.1493
2015    22      6       0.4191891       97.25412
2015    22      7       0.4385313       100.1995
2015    23      0       0.5258776       114.1442
2015    23      1       0.6298863       129.5543
2015    23      2       0.6672677       134.6193
2015    23      3       0.5241459       113.9839
2015    23      4       0.3823442       90.65034
2015    23      5       0.4348013       100.0947
2015    23      6       0.5143379       113.3159
2015    23      7       0.5300913       115.8731
2015    24      0       0.4797405       107.5992
2015    24      1       0.3996328       93.75033
2015    24      2       0.3382644       82.54419
2015    24      3       0.304115        75.93954
2015    24      4       0.2948713       74.08877
2015    24      5       0.3185707       78.80138
2015    24      6       0.3048473       76.08887
2015    24      7       0.2730224       69.6908
2015    25      0       0.2785119       70.50238
2015    25      1       0.2832476       71.20787
2015    25      2       0.278217        69.97419
2015    25      3       0.2659007       67.52449
2015    25      4       0.2608034       66.63155
2015    25      5       0.2550077       65.43438
2015    25      6       0.2504993       64.61093
2015    25      7       0.3077476       76.10376
2015    26      0       0.3977357       92.80033
2015    26      1       0.4778882       106.21
2015    26      2       0.4987596       109.5339
2015    26      3       0.4839839       107.1201
2015    26      4       0.4325804       98.30257
2015    26      5       0.4474271       101.019
2015    26      6       0.4039073       93.60572
2015    26      7       0.3338457       80.88986
2015    27      0       0.298744        74.21762
2015    27      1       0.3432584       82.87316
2015    27      2       0.4055288       94.33406
2015    27      3       0.4817086       107.4117
2015    27      4       0.5427317       117.0304
2015    27      5       0.5694343       121.163
2015    27      6       0.5891405       124.1684
2015    27      7       0.6334859       130.5725
2015    28      0       0.5254828       114.5356
2015    28      1       0.4351345       99.70212
2015    28      2       0.3699956       88.37917
2015    28      3       0.358999        86.31641
2015    28      4       0.3864228       91.71791
2015    28      5       0.4464239       102.6992
2015    28      6       0.4325437       100.8134
2015    28      7       0.3976284       94.5832
2015    29      0       0.3555193       86.77178
2015    29      1       0.3497617       85.57294
2015    29      2       0.3374077       83.10732
2015    29      3       0.3311239       81.80169
2015    29      4       0.3362543       82.59227
2015    29      5       0.3164467       78.5256
2015    29      6       0.2627849       67.78691
2015    29      7       0.2245056       59.83013
2015    30      0       0.2495059       64.88472
2015    30      1       0.2646385       67.75556
2015    30      2       0.2462422       63.9132
2015    30      3       0.2302732       60.58971
2015    30      4       0.2190765       58.30763
2015    30      5       0.1992519       54.22875
2015    30      6       0.1667451       47.18359
2015    30      7       0.150363        43.50659
2015    31      0       0.1532681       44.1261
2015    31      1       0.1597666       45.46296
2015    31      2       0.1661727       46.50829
2015    31      3       0.1760728       48.45928
2015    31      4       0.1886039       51.06659
2015    31      5       0.2189561       56.95147
2015    31      6       0.2227811       57.49004
2015    31      7       0.1913549       51.67659
2016    1       0       0.650722        132.1933
2016    1       1       0.5726381       120.9034
2016    1       2       0.4965023       108.9367
2016    1       3       0.45542         101.7686
2016    1       4       0.4811962       105.5717
2016    1       5       0.5521552       116.1759
2016    1       6       0.5494381       115.7239
2016    1       7       0.4569758       101.3577
2016    2       0       0.3039487       74.08494
2016    2       1       0.2353949       60.27656
2016    2       2       0.2416759       61.46048
2016    2       3       0.2725721       67.47533
2016    2       4       0.3568365       82.99447
2016    2       5       0.4952949       105.9505
2016    2       6       0.6220109       124.8817
2016    2       7       0.5052368       108.7074
2016    3       0       0.4059098       93.12344
2016    3       1       0.4062519       93.41929
2016    3       2       0.3834218       89.38389
2016    3       3       0.3677305       86.5963
2016    3       4       0.3789102       88.7064
2016    3       5       0.332293        80.3103
2016    3       6       0.2322449       60.50693
2016    3       7       0.2662652       67.38607
2016    4       0       0.4727174       105.2725
2016    4       1       0.6088444       125.9531
2016    4       2       0.5637982       119.186
2016    4       3       0.5169782       111.8415
2016    4       4       0.6074027       125.4485
2016    4       5       0.7956156       150.331
2016    4       6       0.997192        173.5123
2016    4       7       1.068786        180.631
2016    5       0       0.9462976       168.9373
2016    5       1       0.9221049       166.7234
2016    5       2       0.8807437       162.2868
2016    5       3       0.6122991       127.9375
2016    5       4       0.5491828       117.4648
2016    5       5       0.603709        124.4755
2016    5       6       0.6074802       124.3792
2016    5       7       0.6690474       131.8979
2016    6       0       0.7796713       147.4776
2016    6       1       0.6339706       130.5665
2016    6       2       0.5919305       124.6995
2016    6       3       0.6674783       135.1632
2016    6       4       0.6482926       132.6608
2016    6       5       0.5892884       123.9029
2016    6       6       0.6289191       129.3316
2016    6       7       0.7129882       141.3614
2016    7       0       0.898687        164.2179
2016    7       1       1.065454        181.8284
2016    7       2       1.062032        181.8438
2016    7       3       1.232789        197.011
2016    7       4       1.026526        178.5362
2016    7       5       0.9020968       165.4266
2016    7       6       0.9448736       168.5677
2016    7       7       1.240341        193.6529
2016    8       0       1.430106        205.8747
2016    8       1       1.764664        225.5344
2016    8       2       1.852602        230.2129
2016    8       3       2.485775        250.6151
2016    8       4       3.146889        262.5855
2016    8       5       2.230223        245.1034
2016    8       6       1.585753        218.738
2016    8       7       0.935077        169.8953
2016    9       0       0.5521864       120.2576
2016    9       1       0.2697499       69.45079
2016    9       2       0.2478015       64.50567
2016    9       3       0.2441914       63.65099
2016    9       4       0.2732816       69.25741
2016    9       5       0.4223325       95.01761
2016    9       6       0.5784324       119.0141
2016    9       7       0.7380055       141.1383
2016    10      0       0.7673433       145.3681
2016    10      1       0.713576        140.0197
2016    10      2       0.5200988       113.4504
2016    10      3       0.3864828       90.90271
2016    10      4       0.3026079       75.17026
2016    10      5       0.2259681       59.28667
2016    10      6       0.1955672       52.34108
2016    10      7       0.2152607       56.73443
2016    11      0       0.3308658       80.06325
2016    11      1       0.4033176       93.40466
2016    11      2       0.4030618       92.75395
2016    11      3       0.3952012       91.22607
2016    11      4       0.3605643       84.70845
2016    11      5       0.3971903       91.33984
2016    11      6       0.4582212       101.8646
2016    11      7       0.4850756       106.3153
2016    12      0       0.4681469       103.8473
2016    12      1       0.4400216       99.22129
2016    12      2       0.4183954       95.63971
2016    12      3       0.3808428       89.85708
2016    12      4       0.3775368       89.96901
2016    12      5       0.3248655       80.42709
2016    12      6       0.278743        71.55976
2016    12      7       0.2424253       63.92549
2016    13      0       0.3842021       91.25849
2016    13      1       0.6523123       133.9149
2016    13      2       0.8241374       156.25
2016    13      3       0.8469632       159.3353
2016    13      4       0.8865313       164.162
2016    13      5       0.9015061       165.724
2016    13      6       0.8864621       164.1827
2016    13      7       0.7928472       153.5732
2016    14      0       0.8891055       164.7724
2016    14      1       1.006335        176.8294
2016    14      2       0.8841139       163.8974
2016    14      3       0.7362776       145.5435
2016    14      4       0.6153942       127.9876
2016    14      5       0.5895131       123.383
2016    14      6       0.5790094       121.8128
2016    14      7       0.5673892       119.6426
2016    15      0       0.6126298       126.6776
2016    15      1       0.7110015       139.7424
2016    15      2       0.7698681       146.7071
2016    15      3       0.7666895       146.6342
2016    15      4       0.7746958       148.1108
2016    15      5       0.8072089       152.0003
2016    15      6       0.8330578       154.3726
2016    15      7       0.7955736       150.2978
2016    16      0       0.7909254       150.7374
2016    16      1       0.8275765       155.85
2016    16      2       0.8589493       159.3208
2016    16      3       0.8400408       157.1262
2016    16      4       0.8717013       160.7735
2016    16      5       0.9373538       167.7109
2016    16      6       0.9075466       164.0477
2016    16      7       0.802353        151.2024
2016    17      0       0.7056561       138.8288
2016    17      1       0.6181345       127.5184
2016    17      2       0.6310071       129.9804
2016    17      3       0.6431574       132.2803
2016    17      4       0.6661118       135.7032
2016    17      5       0.6539054       134.9677
2016    17      6       0.5448427       119.715
2016    17      7       0.3291162       81.84422
2016    18      0       0.1890522       51.8942
2016    18      1       0.1992988       54.0365
2016    18      2       0.1992077       54.12471
2016    18      3       0.1687106       47.34196
2016    18      4       0.1924623       52.93553
2016    18      5       0.2262751       60.54728
2016    18      6       0.2313515       61.73273
2016    18      7       0.223635        60.1099
2016    19      0       0.2429276       64.20213
2016    19      1       0.2675114       69.20602
2016    19      2       0.2677457       69.19253
2016    19      3       0.2632663       68.25809
2016    19      4       0.247513        64.99025
2016    19      5       0.2395791       63.27696
2016    19      6       0.2571371       66.84396
2016    19      7       0.2769853       70.85881
2016    20      0       0.2848014       72.43325
2016    20      1       0.2895167       73.33183
2016    20      2       0.2944643       74.32614
2016    20      3       0.2958447       74.62441
2016    20      4       0.3050041       76.46634
2016    20      5       0.3040243       76.31524
2016    20      6       0.2991056       75.42107
2016    20      7       0.2777127       71.26727
2016    21      0       0.2745891       70.60297
2016    21      1       0.2735829       70.33237
2016    21      2       0.2525125       66.0107
2016    21      3       0.238951        63.04557
2016    21      4       0.229311        60.9694
2016    21      5       0.2261304       60.12961
2016    21      6       0.223276        59.42545
2016    21      7       0.219852        58.66508
2016    22      0       0.2244291       59.47763
2016    22      1       0.2321571       61.02305
2016    22      2       0.2375871       62.0173
2016    22      3       0.2529692       64.81887
2016    22      4       0.2833059       71.0788
2016    22      5       0.3398333       82.58983
2016    22      6       0.3666986       87.51355
2016    22      7       0.3565669       85.20364
2016    23      0       0.3546118       84.31848
2016    23      1       0.4032306       92.81717
2016    23      2       0.4225321       96.25789
2016    23      3       0.4334297       98.27324
2016    23      4       0.4608043       102.8623
2016    23      5       0.5412249       116.6663
2016    23      6       0.6076702       127.6015
2016    23      7       0.5655891       122.3298
2016    24      0       0.5801738       125.4506
2016    24      1       0.6315288       133.6678
2016    24      2       0.5671579       123.6315
2016    24      3       0.405177        96.14606
2016    24      4       0.3405743       83.8385
2016    24      5       0.3781515       90.82964
2016    24      6       0.4219411       98.54288
2016    24      7       0.4400185       101.5393
2016    25      0       0.5010895       112.0933
2016    25      1       0.5248934       115.8565
2016    25      2       0.5497931       119.3927
2016    25      3       0.5917116       125.2057
2016    25      4       0.722168        142.6954
2016    25      5       0.9113525       164.8935
2016    25      6       1.100745        184.248
2016    25      7       1.333105        203.4816
2016    26      0       1.247362        196.9525
2016    26      1       1.138851        187.1922
2016    26      2       1.054842        179.2265
2016    26      3       0.9712822       170.5839
2016    26      4       0.8862592       161.3712
2016    26      5       0.7261326       142.2097
2016    26      6       0.5397374       115.3491
2016    26      7       0.4225339       95.6899
2016    27      0       0.3844599       89.14841
2016    27      1       0.592461        124.4324
2016    27      2       0.820541        155.0763
2016    27      3       0.7649363       148.2415
2016    27      4       0.5824024       123.3834
2016    27      5       0.4663955       105.2934
2016    27      6       0.4009424       93.89529
2016    27      7       0.3640504       87.28287
2016    28      0       0.2563278       66.6865
2016    28      1       0.1744925       49.07849
2016    28      2       0.1649922       46.73172
2016    28      3       0.1793155       49.76443
2016    28      4       0.1884369       51.92609
2016    28      5       0.1986296       54.34508
2016    28      6       0.2154892       58.16355
2016    28      7       0.2242579       60.19473
2016    29      0       0.222509        60.00531
2016    29      1       0.2305895       61.79052
2016    29      2       0.238075        63.20813
2016    29      3       0.2348969       62.38601
2016    29      4       0.2672656       68.78793
2016    29      5       0.3015689       75.26473
2016    29      6       0.2832391       71.48308
2016    29      7       0.3391744       82.52151
2016    30      0       0.4456975       102.5732
2016    30      1       0.4577048       105.2772
2016    30      2       0.4718988       107.3983
2016    30      3       0.461218        105.2274
2016    30      4       0.3564404       86.56243
2016    30      5       0.3191413       79.19478
2016    30      6       0.2931472       73.70858
2016    30      7       0.2924645       73.22227
2016    31      0       0.3014993       74.91615
2016    31      1       0.3168863       77.86994
2016    31      2       0.3417607       82.60112
2016    31      3       0.3677717       87.35232
2016    31      4       0.3847947       90.24324
2016    31      5       0.4070788       94.03843
2016    31      6       0.470501        104.3316
2016    31      7       0.5570344       117.5904
2017    1       0       0.6155391       129.4754
2017    1       1       0.5642984       121.9245
2017    1       2       0.4870963       109.676
2017    1       3       0.4291711       99.73307
2017    1       4       0.4230339       98.50276
2017    1       5       0.4556245       103.7727
2017    1       6       0.458095        103.2119
2017    1       7       0.4362175       98.95807
2017    2       0       0.5443223       115.6066
2017    2       1       0.5875422       121.3944
2017    2       2       0.6371194       128.3984
2017    2       3       0.5675003       119.387
2017    2       4       0.5009411       109.911
2017    2       5       0.4867949       107.5836
2017    2       6       0.4431038       100.9731
2017    2       7       0.4156577       96.01957
2017    3       0       0.4117416       95.18027
2017    3       1       0.3978859       93.10384
2017    3       2       0.3673484       87.36851
2017    3       3       0.3608569       85.64518
2017    3       4       0.384226        89.74228
2017    3       5       0.3933641       90.9781
2017    3       6       0.3956977       91.33949
2017    3       7       0.4243032       96.75541
2017    4       0       0.5400984       116.3623
2017    4       1       0.9571195       169.6753
2017    4       2       1.275484        197.7804
2017    4       3       1.270673        197.6455
2017    4       4       0.8362429       157.1026
2017    4       5       0.4364858       100.8409
2017    4       6       0.3338007       82.37762
2017    4       7       0.2315392       61.37763
2017    5       0       0.2305543       60.85825
2017    5       1       0.2512401       64.91634
2017    5       2       0.2953531       73.79651
2017    5       3       0.4091193       95.15047
2017    5       4       0.5252252       114.6046
2017    5       5       0.5486437       118.3656
2017    5       6       0.5096126       112.1738
2017    5       7       0.5231656       114.088
2017    6       0       0.5316022       115.4613
2017    6       1       0.5021379       110.7919
2017    6       2       0.4563517       102.9786
2017    6       3       0.417664        95.76443
2017    6       4       0.4428624       99.4104
2017    6       5       0.5234253       112.0397
2017    6       6       0.4875433       106.4001
2017    6       7       0.407383        93.06233
2017    7       0       0.3417609       82.64244
2017    7       1       0.3413369       83.04371
2017    7       2       0.3724412       89.09926
2017    7       3       0.3937394       93.25547
2017    7       4       0.3936402       93.42848
2017    7       5       0.3644119       88.07601
2017    7       6       0.374891        89.8209
2017    7       7       0.444383        102.0589
2017    8       0       0.499175        110.9091
2017    8       1       0.6365798       131.3241
2017    8       2       0.7256652       143.3957
2017    8       3       0.8982437       164.4495
2017    8       4       1.350458        205.1529
2017    8       5       1.783653        230.0549
2017    8       6       1.794436        230.836
2017    8       7       1.617103        222.4392
2017    9       0       1.128395        188.37
2017    9       1       0.654215        135.1244
2017    9       2       0.4796941       108.1379
2017    9       3       0.4446053       102.2036
2017    9       4       0.4338559       100.268
2017    9       5       0.4591131       104.4338
2017    9       6       0.4433247       100.953
2017    9       7       0.3770059       87.78787
2017    10      0       0.8165499       149.5938
2017    10      1       0.7619726       145.5175
2017    10      2       0.5872357       123.3632
2017    10      3       0.5466449       116.9672
2017    10      4       0.4801687       105.0412
2017    10      5       0.5212636       111.7305
2017    10      6       0.4738139       105.0827
2017    10      7       0.5270891       114.2035
2017    11      0       0.6784289       136.7324
2017    11      1       1.062184        180.0411
2017    11      2       1.149504        187.8549
2017    11      3       1.1067          183.9239
2017    11      4       1.053855        177.8437
2017    11      5       0.8720633       157.2787
2017    11      6       0.5005254       107.9507
2017    11      7       0.1991644       52.75018
2017    12      0       0.1906492       51.06925
2017    12      1       0.2617488       65.49779
2017    12      2       0.3008523       73.34837
2017    12      3       0.3077242       75.13918
2017    12      4       0.3421039       82.31529
2017    12      5       0.3581073       85.52244
2017    12      6       0.3598833       85.94111
2017    12      7       0.4042208       94.41977
2017    13      0       0.443142        101.4745
2017    13      1       0.4258877       98.33218
2017    13      2       0.3703761       89.15721
2017    13      3       0.3040074       76.64035
2017    13      4       0.5038841       112.5082
2017    13      5       0.4958525       110.4862
2017    13      6       0.5489282       119.2793
2017    13      7       0.6213596       130.4435
2017    14      0       0.7675854       149.9747
2017    14      1       0.7101725       142.7196
2017    14      2       0.6048877       127.9933
2017    14      3       0.5344188       117.0623
2017    14      4       0.5518027       119.9709
2017    14      5       0.5484181       119.3464
2017    14      6       0.5805305       124.2759
2017    14      7       0.5470601       118.8893
2017    15      0       0.5087605       112.5346
2017    15      1       0.5378335       116.3687
2017    15      2       0.4998083       110.1468
2017    15      3       0.4277496       98.16818
2017    15      4       0.4639358       104.7005
2017    15      5       0.4998513       110.9519
2017    15      6       0.5018106       110.4046
2017    15      7       0.4490928       100.9757
2017    16      0       0.5944481       123.0533
2017    16      1       0.7997574       150.1832
2017    16      2       0.8688485       158.5897
2017    16      3       0.7959514       150.7827
2017    16      4       0.6384733       131.6658
2017    16      5       0.5680157       122.4634
2017    16      6       0.5941855       126.5794
2017    16      7       0.6316223       132.0864
2017    17      0       0.7638422       149.2447
2017    17      1       0.9736087       171.9897
2017    17      2       1.087351        182.3441
2017    17      3       1.067254        180.1673
2017    17      4       1.006251        174.585
2017    17      5       0.9472041       169.17
2017    17      6       0.8601573       160.0938
2017    17      7       0.7800076       150.7894
2017    18      0       0.7339677       144.9094
2017    18      1       0.7484555       146.4653
2017    18      2       0.7701047       148.9892
2017    18      3       0.7777174       149.6543
2017    18      4       0.7674297       148.4266
2017    18      5       0.7562691       147.1854
2017    18      6       0.7538729       146.969
2017    18      7       0.8234854       155.8714
2017    19      0       0.7768095       149.472
2017    19      1       0.7994139       151.994
2017    19      2       0.7933622       151.3148
2017    19      3       0.7623605       147.9821
2017    19      4       0.6992392       140.0623
2017    19      5       0.6546061       134.267
2017    19      6       0.6418632       132.3516
2017    19      7       0.6601611       134.4234
2017    20      0       0.705938        140.4851
2017    20      1       0.8205216       154.6146
2017    20      2       0.874148        160.4572
2017    20      3       0.9101057       163.6291
2017    20      4       1.068437        179.4634
2017    20      5       1.185113        191.3123
2017    20      6       1.104651        184.9077
2017    20      7       0.9374415       168.9956
2017    21      0       0.9268368       167.0025
2017    21      1       0.9531185       169.1898
2017    21      2       0.765488        148.0671
2017    21      3       0.4513508       103.508
2017    21      4       0.3932788       93.72763
2017    21      5       0.4510353       103.7432
2017    21      6       0.4791206       108.3151
2017    21      7       0.5058139       112.881
2017    22      0       0.6014389       127.9245
2017    22      1       0.7227686       144.7397
2017    22      2       0.7685407       150.466
2017    22      3       0.7486419       147.8784
2017    22      4       0.7246393       144.893
2017    22      5       0.6923984       140.5481
2017    22      6       0.6204738       130.5635
2017    22      7       0.5475556       119.1515
2017    23      0       0.5432846       118.1385
2017    23      1       0.5146026       113.7773
2017    23      2       0.5093559       112.6873
2017    23      3       0.5627895       120.1529
2017    23      4       0.5845811       122.9306
2017    23      5       0.5738582       121.3617
2017    23      6       0.5077705       111.7
2017    23      7       0.5062186       110.5679
2017    24      0       0.5244796       113.6673
2017    24      1       0.5504218       117.7403
2017    24      2       0.5290039       114.3961
2017    24      3       0.4525064       102.5396
2017    24      4       0.4225456       97.52686
2017    24      5       0.4380508       100.0902
2017    24      6       0.439644        100.0319
2017    24      7       0.5512322       118.8062
2017    25      0       0.6183028       129.2439
2017    25      1       0.678684        137.764
2017    25      2       0.7052897       141.1798
2017    25      3       0.7285649       144.5153
2017    25      4       0.9809543       174.5043
2017    25      5       1.397988        210.1732
2017    25      6       1.113612        188.4828
2017    25      7       0.7133802       144.5799
2017    26      0       0.4595386       105.3923
2017    26      1       0.4449784       102.1461
2017    26      2       0.4674165       104.7864
2017    26      3       0.5509963       116.8812
2017    26      4       0.5219869       113.1833
2017    26      5       0.4704946       104.8992
2017    26      6       0.4309199       97.98763
2017    26      7       0.4159083       95.64738
2017    27      0       0.4474152       101.3772
2017    27      1       0.4760924       106.6889
2017    27      2       0.5533482       119.0788
2017    27      3       0.8850142       162.2704
2017    27      4       1.351102        204.2572
2017    27      5       1.632456        222.5097
2017    27      6       1.574945        220.1362
2017    27      7       1.48152         214.589
2017    28      0       1.546941        217.6224
2017    28      1       1.510204        214.7115
2017    28      2       1.30541         200.5114
2017    28      3       1.154118        188.5402
2017    28      4       1.205098        193.4154
2017    28      5       1.290006        200.6344
2017    28      6       1.316454        203.589
2017    28      7       1.320942        204.6289
2017    29      0       1.352455        207.1922
2017    29      1       1.375871        208.4442
2017    29      2       1.317263        203.9297
2017    29      3       1.285966        201.6438
2017    29      4       1.208391        195.6055
2017    29      5       1.112823        187.5277
2017    29      6       1.073452        184.3596
2017    29      7       1.082085        185.4945
2017    30      0       1.156988        192.0629
2017    30      1       1.198361        195.2585
2017    30      2       1.028014        179.7946
2017    30      3       0.6499522       134.8823
2017    30      4       0.4484503       103.5222
2017    30      5       0.4089323       96.82019
2017    30      6       0.3654338       88.89127
2017    30      7       0.3218919       80.62755
2017    31      0       0.2903122       74.15011
2017    31      1       0.2681886       69.51782
2017    31      2       0.3097835       77.67322
2017    31      3       0.4546518       104.1803
2017    31      4       0.5035031       112.4101
2017    31      5       0.5212438       115.5667
2017    31      6       0.4487877       103.6938
2017    31      7       0.4592464       105.6803
2018    1       0       0.2016618       54.59895
2018    1       1       0.1442315       41.65622
2018    1       2       0.1286261       38.1137
2018    1       3       0.1497365       43.08167
2018    1       4       0.1806822       50.18185
2018    1       5       0.2088746       56.41456
2018    1       6       0.2057955       55.84529
2018    1       7       0.1934644       53.26615
2018    2       0       0.2059266       55.93998
2018    2       1       0.2248521       59.97779
2018    2       2       0.2554509       66.4026
2018    2       3       0.2988293       75.08205
2018    2       4       0.3058035       76.41681
2018    2       5       0.2887326       73.13229
2018    2       6       0.3549985       85.64615
2018    2       7       0.6766535       136.4622
2018    3       0       1.060926        179.5533
2018    3       1       1.153731        187.4358
2018    3       2       0.7359429       143.2957
2018    3       3       0.4308183       97.86742
2018    3       4       0.37864         89.19642
2018    3       5       0.4149098       96.18652
2018    3       6       0.3743752       89.31076
2018    3       7       0.2847076       72.12229
2018    4       0       0.2323776       61.28444
2018    4       1       0.2139367       57.44871
2018    4       2       0.2157117       57.68783
2018    4       3       0.2223123       58.91711
2018    4       4       0.2197389       58.47671
2018    4       5       0.2174723       58.0671
2018    4       6       0.2245977       59.54319
2018    4       7       0.2487229       64.27348
2018    5       0       0.2998051       74.16412
2018    5       1       0.3633795       85.71973
2018    5       2       0.4110416       93.78403
2018    5       3       0.5303592       112.3954
2018    5       4       0.5202517       111.153
2018    5       5       0.4766499       104.5664
2018    5       6       0.4437925       99.33603
2018    5       7       0.435323        97.80237
2018    6       0       0.4267284       96.01362
2018    6       1       0.4297681       96.63235
2018    6       2       0.570687        119.8355
2018    6       3       0.6880539       136.7903
2018    6       4       0.6161005       126.1966
2018    6       5       0.6027124       124.0127
2018    6       6       0.6501602       131.3832
2018    6       7       0.574958        120.9329
2018    7       0       0.4508506       101.4082
2018    7       1       0.3963172       91.82964
2018    7       2       0.4092688       94.2368
2018    7       3       0.4955698       109.503
2018    7       4       0.5537097       119.3333
2018    7       5       0.4671546       105.7708
2018    7       6       0.3351243       82.26898
2018    7       7       0.2709642       69.67338
2018    8       0       0.2614797       67.64698
2018    8       1       0.2545641       66.22441
2018    8       2       0.2288582       60.8792
2018    8       3       0.2067603       56.15673
2018    8       4       0.1958196       53.76454
2018    8       5       0.2027282       55.12713
2018    8       6       0.2241842       59.14239
2018    8       7       0.2662363       66.89855
2018    9       0       0.3135736       75.75403
2018    9       1       0.3074646       75.39874
2018    9       2       0.331218        79.13003
2018    9       3       0.3409784       81.06824
2018    9       4       0.3474801       82.68113
2018    9       5       0.4712531       104.316
2018    9       6       0.5621771       119.9531
2018    9       7       0.664432        135.7085
2018    10      0       0.7344015       144.4625
2018    10      1       0.7873964       151.2116
2018    10      2       0.7503486       147.3878
2018    10      3       0.6889774       139.5983
2018    10      4       0.7556457       148.5464
2018    10      5       0.9576968       172.4713
2018    10      6       1.010471        178.5697
2018    10      7       0.857159        162.2997
2018    11      0       0.729584        146.3244
2018    11      1       0.554262        120.9138
2018    11      2       0.4110856       96.81592
2018    11      3       0.397427        94.44415
2018    11      4       0.4398463       102.2691
2018    11      5       0.4784781       108.9536
2018    11      6       0.5012678       112.7742
2018    11      7       0.5269256       117.041
2018    12      0       0.5627269       122.3904
2018    12      1       0.5950261       127.178
2018    12      2       0.6563701       135.9195
2018    12      3       0.6718283       137.8414
2018    12      4       0.7284125       145.5834
2018    12      5       0.7600207       149.9017
2018    12      6       0.7428042       147.6446
2018    12      7       0.6196845       130.4032
2018    13      0       0.5202294       114.9849
2018    13      1       0.5347397       117.0859
2018    13      2       0.5200231       114.2782
2018    13      3       0.479584        107.8883
2018    13      4       0.4808624       108.2793
2018    13      5       0.4789466       108.0778
2018    13      6       0.4556476       104.3308
2018    13      7       0.4535045       103.8788
2018    14      0       0.4544691       103.8436
2018    14      1       0.4489118       102.9352
2018    14      2       0.4444934       102.3629
2018    14      3       0.4516539       103.3712
2018    14      4       0.54587         117.6201
2018    14      5       0.5830056       123.2871
2018    14      6       0.6556661       133.8868
2018    14      7       0.7558897       146.494
2018    15      0       0.6964706       138.6996
2018    15      1       0.6284995       129.0136
2018    15      2       0.5446989       116.1662
2018    15      3       0.5221417       112.9687
2018    15      4       0.6624976       133.369
2018    15      5       0.8416611       155.2221
2018    15      6       0.9755278       168.75
2018    15      7       1.05995         176.5017
2018    16      0       0.9909518       170.4227
2018    16      1       0.7407406       143.2564
2018    16      2       0.6458985       130.8318
2018    16      3       0.4558048       102.3037
2018    16      4       0.2461676       63.49055
2018    16      5       0.1845839       50.62377
2018    16      6       0.1562495       44.51207
2018    16      7       0.1726218       48.15579
2018    17      0       0.2590559       67.06987
2018    17      1       0.4204482       98.38546
2018    17      2       0.5124544       113.8904
2018    17      3       0.4334973       100.5191
2018    17      4       0.340166        83.46448
2018    17      5       0.3201434       79.24564
2018    17      6       0.3835501       90.84574
2018    17      7       0.4624053       104.9621
2018    18      0       0.4761891       107.4912
2018    18      1       0.4630865       105.1745
2018    18      2       0.4528793       103.1909
2018    18      3       0.4310292       99.22762
2018    18      4       0.3902376       91.93881
2018    18      5       0.3449086       83.47823
2018    18      6       0.3183859       78.58357
2018    18      7       0.3407093       83.29082
2018    19      0       0.3531443       85.78076
2018    19      1       0.3229384       80.04214
2018    19      2       0.3014124       75.72803
2018    19      3       0.2683593       69.00216
2018    19      4       0.2188871       58.46285
2018    19      5       0.1946074       53.02335
2018    19      6       0.1852394       51.00195
2018    19      7       0.1746426       48.67178
2018    20      0       0.1937005       52.52552
2018    20      1       0.2187232       57.60016
2018    20      2       0.2298241       59.85245
2018    20      3       0.2300306       60.26161
2018    20      4       0.2849546       71.65741
2018    20      5       0.351235        83.95436
2018    20      6       0.3214895       77.95682
2018    20      7       0.2983249       74.02216
2018    21      0       0.3084835       76.64693
2018    21      1       0.2730038       69.9504
2018    21      2       0.2309261       61.25835
2018    21      3       0.207178        56.05414
2018    21      4       0.2492422       65.13834
2018    21      5       0.2792557       71.03536
2018    21      6       0.3021097       75.11769
2018    21      7       0.4716514       105.6391
2018    22      0       0.8802317       161.9177
2018    22      1       1.286877        200.6296
2018    22      2       0.854669        161.024
2018    22      3       0.4202688       97.6451
2018    22      4       0.4121092       95.10993
2018    22      5       0.427344        97.44749
2018    22      6       0.4661635       103.8097
2018    22      7       0.5395008       115.5002
2018    23      0       0.6073539       125.6155
2018    23      1       0.6886379       136.7792
2018    23      2       0.8947827       160.8991
2018    23      3       1.092903        179.7684
2018    23      4       1.001847        172.6302
2018    23      5       0.7514205       145.7526
2018    23      6       0.7010259       139.6009
2018    23      7       0.3999564       93.51764
2018    24      0       0.4608119       104.3694
2018    24      1       0.6833266       138.3706
2018    24      2       0.6271064       130.1346
2018    24      3       0.7576952       146.6057
2018    24      4       0.8415334       156.2472
2018    24      5       0.9574822       168.3468
2018    24      6       0.9775892       169.3794
2018    24      7       0.9231743       163.1698
2018    25      0       0.7742231       146.0044
2018    25      1       0.7096539       139.1841
2018    25      2       0.7062943       138.841
2018    25      3       0.6997618       138.1854
2018    25      4       0.8311953       154.375
2018    25      5       0.8271875       154.8383
2018    25      6       0.5213267       113.698
2018    25      7       0.3076278       75.96307
2018    26      0       0.1925679       52.10328
2018    26      1       0.125737        37.00441
2018    26      2       0.2289606       59.88361
2018    26      3       0.3509102       84.39021
2018    26      4       0.4831615       106.9031
2018    26      5       0.5678348       120.2007
2018    26      6       0.6345691       129.9542
2018    26      7       0.7373336       144.6033
2018    27      0       0.7983422       152.7798
2018    27      1       0.7420236       145.7368
2018    27      2       0.6756569       136.6494
2018    27      3       0.6021382       125.5896
2018    27      4       0.5921977       123.5648
2018    27      5       0.6141991       126.6538
2018    27      6       0.6028605       124.7646
2018    27      7       0.5844862       122.0727
2018    28      0       0.5704483       120.145
2018    28      1       0.5638643       119.4122
2018    28      2       0.5448788       116.4858
2018    28      3       0.4924426       108.4235
2018    28      4       0.4365967       99.80246
2018    28      5       0.4173284       96.7501
2018    28      6       0.4088947       95.33961
2018    28      7       0.4101495       95.51361
2018    29      0       0.4495824       102.3038
2018    29      1       0.5528415       119.2382
2018    29      2       0.6078247       127.6987
2018    29      3       0.5970966       126.1934
2018    29      4       0.5609886       120.7243
2018    29      5       0.5640796       121.1982
2018    29      6       0.5883903       124.7513
2018    29      7       0.6143646       128.3357
2018    30      0       0.6536575       133.9022
2018    30      1       0.6703989       135.9589
2018    30      2       0.6372578       131.1516
2018    30      3       0.5662697       120.6387
2018    30      4       0.5230962       113.7763
2018    30      5       0.4960151       109.412
2018    30      6       0.4838248       107.4158
2018    30      7       0.4721728       105.5215
2018    31      0       0.4485111       101.5421
2018    31      1       0.4229266       96.88633
2018    31      2       0.4163756       95.47642
2018    31      3       0.4225395       95.88413
2018    31      4       0.4508159       100.5608
2018    31      5       0.4150576       95.12151
2018    31      6       0.4032019       93.01923
2018    31      7       0.4369131       98.5112
