####################################################################################################
# Month: 02Feb                                                                                     #
# Station: GAM                                                                                     #
# Frequency: 345 GHz                                                                               #
# Columns are: year    day     segment         tau     Tb (K)                                      #
####################################################################################################
2009    1       0       2.53559         259.2944
2009    1       1       2.946117        267.9591
2009    1       2       3.150855        270.7309
2009    1       3       3.187221        270.8266
2009    1       4       3.851862        277.0386
2009    1       5       4.34062         279.5719
2009    1       6       4.491289        279.9039
2009    1       7       4.53038         279.9237
2009    2       0       4.422622        279.3164
2009    2       1       4.028237        277.7676
2009    2       2       3.714772        275.815
2009    2       3       4.283069        278.4998
2009    2       4       4.735716        280.643
2009    2       5       4.29392         279.5489
2009    2       6       4.315086        279.6
2009    2       7       4.161761        279.0665
2009    3       0       4.112542        279.0292
2009    3       1       4.138284        279.0409
2009    3       2       3.993575        277.8277
2009    3       3       3.987936        277.0746
2009    3       4       4.130425        277.9612
2009    3       5       3.592734        274.6458
2009    3       6       3.200066        270.3495
2009    3       7       2.792756        264.2397
2009    4       0       2.730472        262.9916
2009    4       1       3.281993        271.5511
2009    4       2       3.151007        269.8196
2009    4       3       3.199131        270.5506
2009    4       4       4.007118        278.1009
2009    4       5       4.888201        281.6079
2009    4       6       5.194942        281.7797
2009    4       7       4.705793        280.2943
2009    5       0       4.468496        278.7386
2009    5       1       3.992363        276.1032
2009    5       2       3.333158        271.0684
2009    5       3       2.961635        266.6762
2009    5       4       3.296883        271.6143
2009    5       5       3.671222        274.9545
2009    5       6       3.276502        270.1758
2009    5       7       3.251807        268.9638
2009    6       0       4.278824        275.8734
2009    6       1       4.742444        277.1467
2009    6       2       4.358197        276.3416
2009    6       3       4.957606        278.8903
2009    6       4       5.595169        280.7364
2009    6       5       5.399321        280.3082
2009    6       6       5.012774        279.3587
2009    6       7       4.635319        278.5702
2009    7       0       4.162847        276.8451
2009    7       1       3.674579        274.3408
2009    7       2       3.435204        272.4916
2009    7       3       3.834088        275.4068
2009    7       4       4.473648        279.2255
2009    7       5       5.013742        280.9195
2009    7       6       5.213985        280.9265
2009    7       7       4.552183        279.3
2009    8       0       4.612624        278.8165
2009    8       1       4.771688        278.4298
2009    8       2       4.17047         275.9058
2009    8       3       4.21404         276.0817
2009    8       4       4.66504         278.4884
2009    8       5       4.567158        278.3942
2009    8       6       3.999504        276.6701
2009    8       7       3.873052        275.9155
2009    9       0       4.017769        276.3416
2009    9       1       4.138856        276.5814
2009    9       2       3.937249        275.3597
2009    9       3       4.347024        277.5471
2009    9       4       4.733522        279.7444
2009    9       5       5.083394        280.7057
2009    9       6       5.098507        280.7179
2009    9       7       4.966937        280.5644
2009    10      0       4.963878        280.169
2009    10      1       4.909008        279.7882
2009    10      2       4.662488        278.8407
2009    10      3       4.712362        278.9348
2009    10      4       4.967898        280.0442
2009    10      5       5.207828        280.7624
2009    10      6       4.684411        279.7569
2009    10      7       4.218245        277.8388
2009    11      0       3.801983        275.1714
2009    11      1       3.664291        273.9251
2009    11      2       3.559397        272.5468
2009    11      3       3.965537        275.0118
2009    11      4       4.552725        278.0893
2009    11      5       4.725611        278.5904
2009    11      6       4.476132        277.98
2009    11      7       4.185323        277.1826
2009    12      0       4.103375        276.3262
2009    12      1       3.700105        273.8586
2009    12      2       3.652626        273.3926
2009    12      3       4.155093        276.1499
2009    12      4       4.954828        279.5439
2009    12      5       4.913536        279.4758
2009    12      6       4.657818        278.8885
2009    12      7       4.617869        278.7549
2009    13      0       4.738919        278.784
2009    13      1       5.094952        279.2728
2009    13      2       4.889494        278.2979
2009    13      3       5.088182        278.0523
2009    13      4       5.567263        279.7511
2009    13      5       5.809251        280.2761
2009    13      6       5.695272        280.2956
2009    13      7       5.512959        280.2745
2009    14      0       5.680122        280.6193
2009    14      1       5.527064        280.1248
2009    14      2       5.007689        278.6741
2009    14      3       5.225373        279.1102
2009    14      4       5.326946        279.4214
2009    14      5       5.251682        279.5256
2009    14      6       5.063629        279.3534
2009    14      7       4.653102        278.8133
2009    15      0       4.92447         279.1306
2009    15      1       5.335942        279.5244
2009    15      2       4.509628        276.6366
2009    15      3       4.377424        276.3047
2009    15      4       4.924399        278.4983
2009    15      5       5.210819        279.4039
2009    15      6       4.603407        277.8071
2009    15      7       4.372457        276.5509
2009    16      0       4.616196        278.0055
2009    16      1       4.348554        277.5542
2009    16      2       4.050044        275.9776
2009    16      3       4.511585        277.43
2009    16      4       4.984007        279.5379
2009    16      5       5.186579        280.0751
2009    16      6       4.701206        278.8821
2009    16      7       4.223613        276.9122
2009    17      0       3.787422        274.6083
2009    17      1       3.781972        274.602
2009    17      2       3.97449         275.8538
2009    17      3       4.395305        277.4472
2009    17      4       5.324818        280.1017
2009    17      5       5.790177        280.7964
2009    17      6       5.50648         280.165
2009    17      7       4.901598        278.5435
2009    18      0       4.647991        277.4735
2009    18      1       4.184696        275.8489
2009    18      2       3.799203        274.1985
2009    18      3       3.933274        275.2479
2009    18      4       4.551216        278.7082
2009    18      5       5.162381        280.4958
2009    18      6       4.94625         280.1039
2009    18      7       4.658046        279.3195
2009    19      0       4.627213        279.3735
2009    19      1       4.407251        278.8501
2009    19      2       5.064312        280.3656
2009    19      3       5.710994        280.6927
2009    19      4       5.436906        280.8333
2009    19      5       5.06566         280.3976
2009    19      6       5.150754        280.5116
2009    19      7       5.104874        280.2306
2009    20      0       4.729152        279.6259
2009    20      1       4.401115        278.7175
2009    20      2       4.417865        277.9722
2009    20      3       4.914632        278.7378
2009    20      4       5.258716        279.781
2009    20      5       5.178303        279.669
2009    20      6       5.138999        279.7686
2009    20      7       5.303012        280.0713
2009    21      0       5.143041        279.5831
2009    21      1       5.176665        279.249
2009    21      2       4.603901        277.5413
2009    21      3       4.230664        275.5943
2009    21      4       4.653827        277.5861
2009    21      5       5.157389        278.6629
2009    21      6       5.019789        278.4846
2009    21      7       4.753238        278.0148
2009    22      0       4.641966        277.5074
2009    22      1       4.360069        276.3399
2009    22      2       3.935518        274.2005
2009    22      3       4.645379        277.0128
2009    22      4       5.136857        279.0352
2009    22      5       5.330842        279.7452
2009    22      6       5.019468        279.4248
2009    22      7       4.563445        278.5839
2009    23      0       4.452645        277.9926
2009    23      1       4.393194        277.4049
2009    23      2       4.063164        275.3653
2009    23      3       3.807241        273.2996
2009    23      4       4.505292        277.0615
2009    23      5       5.151932        278.7878
2009    23      6       4.871999        278.0138
2009    23      7       4.036899        274.5638
2009    24      0       3.852002        273.095
2009    24      1       3.633373        271.3343
2009    24      2       3.407676        269.1635
2009    24      3       3.738568        271.7739
2009    24      4       4.184868        274.7364
2009    24      5       4.277063        275.6645
2009    24      6       4.045054        274.6621
2009    24      7       3.658189        272.0531
2009    25      0       3.590825        271.3024
2009    25      1       3.301474        268.8163
2009    25      2       3.184769        267.5001
2009    25      3       3.573809        271.3414
2009    25      4       4.465337        277.2171
2009    25      5       5.350715        280.087
2009    25      6       5.592658        280.5622
2009    25      7       5.202398        279.9906
2009    26      0       4.789233        278.7024
2009    26      1       4.425666        277.2367
2009    26      2       4.07971         275.7144
2009    26      3       4.543354        277.5209
2009    26      4       5.272749        280.1988
2009    26      5       5.467229        280.9258
2009    26      6       5.453736        281.0097
2009    26      7       4.931154        280.0807
2009    27      0       4.867504        279.2246
2009    27      1       4.799919        278.5825
2009    27      2       4.185123        276.6606
2009    27      3       4.263361        276.9339
2009    27      4       4.886404        279.4533
2009    27      5       5.153227        279.7641
2009    27      6       4.354823        277.5388
2009    27      7       3.477436        272.5342
2009    28      0       3.054021        267.7095
2009    28      1       2.945841        266.0652
2009    28      2       2.78437         263.5572
2009    28      3       3.046654        267.4731
2009    28      4       3.732818        274.5103
2009    28      5       4.280721        277.7612
2009    28      6       4.390268        278.0911
2009    28      7       3.838498        275.4557
2010    1       0       0.46512         107.7162
2010    1       1       0.4484196       104.4086
2010    1       2       0.4690266       107.6348
2010    1       3       0.6737434       139.862
2010    1       4       0.7837985       154.6977
2010    1       5       0.8402622       162.0902
2010    1       6       0.7764661       154.4124
2010    1       7       0.7541505       151.5644
2010    2       0       0.7676597       153.1553
2010    2       1       0.6837997       141.913
2010    2       2       0.58826         127.8568
2010    2       3       0.6472287       136.7446
2010    2       4       0.8512022       163.6766
2010    2       5       0.9831145       178.1834
2010    2       6       0.8278593       160.3463
2010    2       7       0.6271042       133.3637
2010    3       0       0.5211841       116.9225
2010    3       1       0.4489118       104.6801
2010    3       2       0.3972076       95.20574
2010    3       3       0.4231571       100.0109
2010    3       4       0.5224596       117.4036
2010    3       5       0.5979316       129.5489
2010    3       6       0.5323844       119.5015
2010    3       7       0.464222        108.2159
2010    4       0       0.5888908       128.1919
2010    4       1       0.8307172       160.2157
2010    4       2       0.778935        154.1506
2010    4       3       0.9055742       169.9367
2010    4       4       1.156967        195.1387
2010    4       5       1.440593        216.7279
2010    4       6       1.604881        226.3387
2010    4       7       1.777124        234.9836
2010    5       0       1.680967        229.534
2010    5       1       1.482938        217.983
2010    5       2       1.493124        219.1155
2010    5       3       1.658422        228.9489
2010    5       4       1.579854        225.5144
2010    5       5       1.647504        229.4801
2010    5       6       1.506115        221.4819
2010    5       7       1.558568        224.4326
2010    6       0       1.750058        233.7402
2010    6       1       1.78907         235.8928
2010    6       2       1.973791        244.1397
2010    6       3       2.397007        257.8799
2010    6       4       2.491961        260.6714
2010    6       5       2.288742        255.3455
2010    6       6       2.062794        247.3347
2010    6       7       2.181054        250.9251
2010    7       0       2.409432        256.9157
2010    7       1       2.774466        264.9093
2010    7       2       3.119199        270.0452
2010    7       3       3.769696        276.2554
2010    7       4       4.313748        280.0263
2010    7       5       4.332252        280.4225
2010    7       6       4.628577        281.4663
2010    7       7       4.675631        281.5782
2010    8       0       4.554561        280.6955
2010    8       1       4.350015        279.4956
2010    8       2       3.996995        277.8677
2010    8       3       4.020682        278.0457
2010    8       4       4.372467        280.2934
2010    8       5       4.64882         281.4065
2010    8       6       4.609798        281.5895
2010    8       7       4.127545        279.6869
2010    9       0       4.020716        278.8933
2010    9       1       3.890059        277.9177
2010    9       2       3.048884        269.6418
2010    9       3       2.7544          265.3119
2010    9       4       2.863946        268.2551
2010    9       5       3.107035        271.976
2010    9       6       3.313309        273.773
2010    9       7       3.404434        274.1399
2010    10      0       3.401923        273.485
2010    10      1       3.232668        271.09
2010    10      2       3.65833         276.0346
2010    10      3       2.457615        256.9513
2010    10      4       2.308878        253.2707
2010    10      5       2.351368        254.8361
2010    10      6       2.40505         256.5046
2010    10      7       2.796423        265.8831
2010    11      0       2.983598        267.6782
2010    11      1       3.200371        270.4256
2010    11      2       3.308877        271.4434
2010    11      3       3.411424        272.4545
2010    11      4       3.512824        275.1909
2010    11      5       3.927499        279.2281
2010    11      6       3.913461        278.6738
2010    11      7       3.465446        275.1198
2010    12      0       3.106412        271.0324
2010    12      1       2.974768        268.9082
2010    12      2       2.798221        265.6243
2010    12      3       2.808387        265.933
2010    12      4       3.09471         271.0312
2010    12      5       3.54046         275.868
2010    12      6       4.107079        278.7534
2010    12      7       4.182461        278.5916
2010    13      0       4.087378        277.5287
2010    13      1       3.67631         274.8796
2010    13      2       3.464336        272.9699
2010    13      3       3.529125        273.4109
2010    13      4       4.240892        278.7656
2010    13      5       5.036676        281.0841
2010    13      6       4.746841        280.0157
2010    13      7       4.359045        279.2727
2010    14      0       4.124176        277.9233
2010    14      1       3.875604        276.3404
2010    14      2       3.660929        275.0544
2010    14      3       3.895198        276.5512
2010    14      4       4.538719        280.1861
2010    14      5       4.62972         281.3278
2010    14      6       4.528191        280.675
2010    14      7       4.44003         280.1013
2010    15      0       4.12133         277.7676
2010    15      1       3.690523        275.2174
2010    15      2       3.216425        270.9248
2010    15      3       3.334572        271.362
2010    15      4       3.585084        273.8459
2010    15      5       3.319566        271.4436
2010    15      6       3.105227        268.9387
2010    15      7       2.896622        266.1446
2010    16      0       2.529156        259.4436
2010    16      1       2.06352         246.1565
2010    16      2       1.672222        228.7376
2010    16      3       1.471116        216.7177
2010    16      4       1.237132        200.5014
2010    16      5       1.047749        184.0107
2010    16      6       0.8364971       161.6005
2010    16      7       0.7457359       150.3644
2010    17      0       0.7769118       154.0336
2010    17      1       0.7567377       151.5084
2010    17      2       0.7366463       148.6597
2010    17      3       0.8097634       157.8789
2010    17      4       0.917283        170.6384
2010    17      5       1.105093        189.4098
2010    17      6       1.074305        186.8026
2010    17      7       1.083428        187.7074
2010    18      0       1.179505        196.2206
2010    18      1       1.237985        201.4283
2010    18      2       1.193678        198.2487
2010    18      3       1.482375        219.6859
2010    18      4       2.050512        247.3384
2010    18      5       2.682963        264.5314
2010    18      6       3.248176        272.1573
2010    18      7       3.268282        272.2798
2010    19      0       2.708425        264.2018
2010    19      1       2.17245         250.9332
2010    19      2       1.759781        234.5011
2010    19      3       1.449455        216.8403
2010    19      4       1.381338        212.374
2010    19      5       1.338527        209.251
2010    19      6       1.291986        205.4101
2010    19      7       1.297451        206.014
2010    20      0       1.086594        187.3041
2010    20      1       1.18138         195.696
2010    20      2       1.462474        216.905
2010    20      3       1.936794        241.5012
2010    20      4       2.44293         258.0702
2010    20      5       2.821547        266.2576
2010    20      6       3.105659        270.0369
2010    20      7       3.244994        271.6621
2010    21      0       2.922634        267.0517
2010    21      1       2.702348        263.1239
2010    21      2       2.563672        260.3437
2010    21      3       3.044845        268.3136
2010    21      4       3.508948        274.019
2010    21      5       3.612326        275.3294
2010    21      6       3.912723        276.7768
2010    21      7       3.579447        274.3335
2010    22      0       3.362297        272.2961
2010    22      1       3.489915        272.9742
2010    22      2       3.232233        270.0996
2010    22      3       3.098336        268.4685
2010    22      4       3.304344        271.8308
2010    22      5       3.415698        273.6782
2010    22      6       3.430221        273.7194
2010    22      7       3.213162        271.3582
2010    23      0       2.992838        268.2627
2010    23      1       2.619189        261.9116
2010    23      2       2.368756        256.1404
2010    23      3       2.770787        264.7163
2010    23      4       3.293139        272.6392
2010    23      5       3.454711        274.6147
2010    23      6       3.077751        270.6432
2010    23      7       3.061946        270.78
2010    24      0       3.178362        271.7296
2010    24      1       3.0819          270.2229
2010    24      2       2.778968        265.8997
2010    24      3       3.250772        272.5134
2010    24      4       3.815245        277.8219
2010    24      5       4.223001        280.977
2010    24      6       3.288718        273.2143
2010    24      7       3.257809        272.757
2010    25      0       3.357164        273.3314
2010    25      1       3.043753        269.7505
2010    25      2       3.663914        276.6585
2010    25      3       3.398441        273.1659
2010    25      4       3.796607        277.0479
2010    25      5       3.500292        275.0079
2010    25      6       2.919057        268.2857
2010    25      7       2.905788        268.0087
2010    26      0       2.886157        267.6012
2010    26      1       2.53867         261.0282
2010    26      2       2.152472        250.5642
2010    26      3       2.238354        253.2174
2010    26      4       2.792034        266.0392
2010    26      5       3.172198        271.0528
2010    26      6       2.877062        266.5754
2010    26      7       3.027365        267.9141
2010    27      0       2.775085        263.8911
2010    27      1       2.160286        249.2981
2010    27      2       1.547095        222.3148
2010    27      3       1.91521         240.4954
2010    27      4       3.006509        267.8583
2010    27      5       4.051375        276.8237
2010    27      6       4.038826        276.2222
2010    27      7       3.434697        270.9254
2010    28      0       3.249044        267.9143
2010    28      1       3.686786        272.6637
2010    28      2       3.980003        275.3312
2010    28      3       4.689793        278.7479
2010    28      4       5.932906        281.8759
2010    28      5       5.865505        281.913
2010    28      6       5.57133         281.6038
2010    28      7       6.149071        282.6808
2011    1       0       4.023227        275.3805
2011    1       1       3.761983        273.5738
2011    1       2       3.387361        270.8133
2011    1       3       3.465861        271.4546
2011    1       4       4.197944        276.679
2011    1       5       4.581669        278.2423
2011    1       6       4.615444        278.4298
2011    1       7       4.264805        277.3086
2011    2       0       4.134529        276.7052
2011    2       1       3.9909          275.6672
2011    2       2       3.63882         273.1485
2011    2       3       3.971767        275.0867
2011    2       4       4.653425        278.5253
2011    2       5       4.879262        279.3422
2011    2       6       4.726897        278.6377
2011    2       7       4.24419         276.9024
2011    3       0       4.109733        276.1731
2011    3       1       3.807434        274.3585
2011    3       2       3.51497         272.4554
2011    3       3       3.95759         275.5634
2011    3       4       4.760666        279.3877
2011    3       5       5.042675        280.2968
2011    3       6       5.310142        280.5744
2011    3       7       5.129477        280.1452
2011    4       0       4.765837        279.256
2011    4       1       4.316784        277.3661
2011    4       2       3.829235        274.7429
2011    4       3       4.112244        276.3675
2011    4       4       5.283678        281.2134
2011    4       5       6.24072         282.7317
2011    4       6       5.562114        281.3844
2011    4       7       5.233004        280.3112
2011    5       0       4.842983        279.4186
2011    5       1       4.944782        278.8346
2011    5       2       4.272593        276.7072
2011    5       3       4.732236        279.0521
2011    5       4       5.796269        281.7109
2011    5       5       6.433523        282.2658
2011    5       6       6.258679        282.1795
2011    5       7       5.684144        280.9504
2011    6       0       5.143066        279.5778
2011    6       1       4.491168        277.7589
2011    6       2       4.049651        275.7582
2011    6       3       4.209394        276.4777
2011    6       4       5.130502        279.8199
2011    6       5       5.640414        280.7771
2011    6       6       5.050865        279.6705
2011    6       7       4.44145         278.1163
2011    7       0       4.350267        277.5988
2011    7       1       4.032456        276.1725
2011    7       2       3.822017        274.8023
2011    7       3       4.421275        277.5409
2011    7       4       5.267196        280.2708
2011    7       5       5.568174        281.2046
2011    7       6       5.515726        281.249
2011    7       7       4.979744        280.2503
2011    8       0       4.584859        279.1222
2011    8       1       4.118011        276.9493
2011    8       2       3.57938         273.2914
2011    8       3       4.046852        276.3977
2011    8       4       4.613916        279.4241
2011    8       5       4.748806        280.212
2011    8       6       4.444659        279.0647
2011    8       7       3.520491        273.9231
2011    9       0       2.704285        263.2255
2011    9       1       2.19781         250.7772
2011    9       2       2.184891        250.3322
2011    9       3       2.325543        254.674
2011    9       4       2.887975        266.1186
2011    9       5       3.619393        273.949
2011    9       6       3.757171        274.614
2011    9       7       3.345806        270.9242
2011    10      0       3.356841        270.7264
2011    10      1       3.634453        272.7372
2011    10      2       3.749566        273.5286
2011    10      3       3.914711        274.689
2011    10      4       4.474676        277.9406
2011    10      5       4.802737        279.2327
2011    10      6       4.346946        277.8514
2011    10      7       3.880013        275.9648
2011    11      0       3.769805        275.2232
2011    11      1       3.689589        274.5559
2011    11      2       3.576428        273.5258
2011    11      3       3.979185        275.972
2011    11      4       4.342112        278.3451
2011    11      5       4.901224        280.3595
2011    11      6       5.101521        280.5933
2011    11      7       4.483997        278.8783
2011    12      0       4.023121        276.8929
2011    12      1       4.085853        276.9298
2011    12      2       4.106839        276.626
2011    12      3       3.838167        275.1941
2011    12      4       3.819494        275.7251
2011    12      5       4.256653        278.2154
2011    12      6       4.482334        278.9069
2011    12      7       4.484903        278.6472
2011    13      0       4.178362        277.234
2011    13      1       3.619917        273.7578
2011    13      2       3.442567        271.6695
2011    13      3       3.88157         274.9212
2011    13      4       4.686446        278.89
2011    13      5       4.750762        278.8695
2011    13      6       3.976052        276.0907
2011    13      7       4.069176        276.8778
2011    14      0       4.762408        279.3951
2011    14      1       4.425661        278.1925
2011    14      2       3.760647        274.6368
2011    14      3       3.829938        275.0032
2011    14      4       4.266096        277.9844
2011    14      5       4.823881        280.1149
2011    14      6       4.680433        279.7798
2011    14      7       4.203665        278.1907
2011    15      0       3.877727        276.7466
2011    15      1       3.716517        275.6992
2011    15      2       3.739042        275.4936
2011    15      3       4.143449        277.5502
2011    15      4       4.639986        279.9131
2011    15      5       4.923028        280.8462
2011    15      6       4.301076        279.0671
2011    15      7       4.006079        277.8569
2011    16      0       4.129627        278.1568
2011    16      1       4.163887        277.8772
2011    16      2       3.741419        275.0529
2011    16      3       4.178295        277.2363
2011    16      4       5.013719        280.1578
2011    16      5       5.115354        280.2209
2011    16      6       4.641608        279.1714
2011    16      7       4.419757        278.318
2011    17      0       4.028572        276.349
2011    17      1       3.673585        274.0855
2011    17      2       3.277445        270.6165
2011    17      3       3.347605        271.2818
2011    17      4       3.897222        275.9532
2011    17      5       4.278429        278.0235
2011    17      6       4.290001        278.29
2011    17      7       3.753941        275.7556
2011    18      0       3.56162         273.8615
2011    18      1       3.295215        270.9251
2011    18      2       2.665764        262.2131
2011    18      3       2.393505        256.4948
2011    18      4       2.572956        261.007
2011    18      5       2.501171        259.8403
2011    18      6       1.834572        238.6415
2011    18      7       1.302293        207.7876
2011    19      0       1.079548        188.5644
2011    19      1       0.9052554       170.5335
2011    19      2       0.7335727       149.62
2011    19      3       0.9457184       175.065
2011    19      4       1.102005        190.6304
2011    19      5       1.181008        197.6947
2011    19      6       1.019634        183.0486
2011    19      7       0.9327433       173.9985
2011    20      0       1.184803        197.7085
2011    20      1       1.249565        202.888
2011    20      2       1.232505        201.449
2011    20      3       1.398142        213.583
2011    20      4       2.025255        245.5333
2011    20      5       2.607568        261.5006
2011    20      6       2.866103        265.8503
2011    20      7       2.764524        264.0305
2011    21      0       2.749617        263.2913
2011    21      1       2.649541        261.1932
2011    21      2       2.598171        260.2391
2011    21      3       2.816937        264.1771
2011    21      4       3.544231        273.8162
2011    21      5       4.098571        277.547
2011    21      6       4.020633        276.9903
2011    21      7       3.814062        275.9623
2011    22      0       3.786564        275.6286
2011    22      1       3.635816        274.5217
2011    22      2       3.484505        273.1498
2011    22      3       4.064308        276.536
2011    22      4       4.651944        279.7031
2011    22      5       5.139764        281.0694
2011    22      6       5.315535        281.0523
2011    22      7       4.906142        280.1753
2011    23      0       4.647483        279.1717
2011    23      1       4.028932        276.3371
2011    23      2       3.473693        272.2696
2011    23      3       4.120201        276.476
2011    23      4       5.019344        280.1341
2011    23      5       5.35688         280.9916
2011    23      6       5.423352        280.9234
2011    23      7       4.623546        278.7843
2011    24      0       4.055395        276.222
2011    24      1       3.739814        274.1706
2011    24      2       3.365848        271.0234
2011    24      3       3.466973        272.0317
2011    24      4       4.415341        278.0108
2011    24      5       4.912865        279.6228
2011    24      6       4.869365        279.5726
2011    24      7       4.415642        278.0286
2011    25      0       3.573818        272.7777
2011    25      1       2.891741        264.9074
2011    25      2       2.545621        258.7806
2011    25      3       2.645854        260.9694
2011    25      4       3.331095        271.4173
2011    25      5       3.671034        274.4484
2011    25      6       3.793988        275.0967
2011    25      7       3.261345        270.4831
2011    26      0       2.760638        262.9026
2011    26      1       2.435923        255.5844
2011    26      2       2.045686        244.1901
2011    26      3       2.037055        244.1952
2011    26      4       2.378314        255.0883
2011    26      5       3.014582        267.1304
2011    26      6       2.928067        265.5627
2011    26      7       2.562402        258.7261
2011    27      0       2.446624        255.5577
2011    27      1       2.383197        253.6443
2011    27      2       2.0226          242.7281
2011    27      3       2.082442        244.8414
2011    27      4       2.470971        256.1613
2011    27      5       2.707967        261.4821
2011    27      6       2.694363        261.2291
2011    27      7       2.591368        258.9185
2011    28      0       2.65881         259.8967
2011    28      1       2.637936        259.3088
2011    28      2       2.441963        254.8445
2011    28      3       2.413453        254.4317
2011    28      4       2.662143        260.4314
2011    28      5       2.971184        266.1136
2011    28      6       2.971214        266.0281
2011    28      7       2.856529        264.0666
2012    1       0       4.628994        277.8662
2012    1       1       4.094534        274.7685
2012    1       2       4.030029        274.4732
2012    1       3       4.923779        278.0806
2012    1       4       5.548121        280.0238
2012    1       5       5.699966        280.3556
2012    1       6       5.148024        279.5146
2012    1       7       4.790171        279.1419
2012    2       0       4.953163        279.8687
2012    2       1       5.043393        279.8083
2012    2       2       4.778535        278.5652
2012    2       3       4.346484        277.389
2012    2       4       4.895673        278.8161
2012    2       5       4.362493        277.0317
2012    2       6       3.354651        271.0466
2012    2       7       2.583444        260.1577
2012    3       0       2.313293        253.5132
2012    3       1       2.038701        245.3877
2012    3       2       2.036917        245.6252
2012    3       3       2.45472         257.4958
2012    3       4       3.356899        271.5207
2012    3       5       3.530788        273.1575
2012    3       6       3.184796        269.554
2012    3       7       3.251181        270.4651
2012    4       0       3.382867        271.7305
2012    4       1       3.299345        270.7222
2012    4       2       3.027944        267.3671
2012    4       3       3.569252        273.0779
2012    4       4       3.937044        276.4888
2012    4       5       4.106502        278.335
2012    4       6       4.382466        279.7278
2012    4       7       4.166025        278.3676
2012    5       0       4.01695         277.503
2012    5       1       3.675715        275.2574
2012    5       2       3.625706        274.8147
2012    5       3       4.423347        278.6574
2012    5       4       5.27415         281.7934
2012    5       5       5.420377        281.8098
2012    5       6       5.320553        281.129
2012    5       7       5.07085         280.5807
2012    6       0       4.697304        279.107
2012    6       1       3.946445        275.616
2012    6       2       3.924952        275.5089
2012    6       3       4.741567        279.2491
2012    6       4       5.088651        280.7397
2012    6       5       5.151255        281.0989
2012    6       6       5.279474        281.3761
2012    6       7       4.840129        280.9764
2012    7       0       4.580078        280.2038
2012    7       1       4.790487        280.4948
2012    7       2       4.732517        280.3182
2012    7       3       4.896145        280.5443
2012    7       4       5.560093        282.2104
2012    7       5       5.9621          282.4409
2012    7       6       5.78331         282.1265
2012    7       7       5.573904        281.9514
2012    8       0       5.753529        281.9908
2012    8       1       5.654916        281.5968
2012    8       2       5.28659         280.8685
2012    8       3       5.37811         281.2768
2012    8       4       6.059295        283.141
2012    8       5       6.394399        283.4049
2012    8       6       6.165333        283.1204
2012    8       7       5.793584        282.9548
2012    9       0       5.66162         282.7593
2012    9       1       5.238198        282.2319
2012    9       2       5.125412        282.2786
2012    9       3       5.589019        282.5255
2012    9       4       5.969828        283.0319
2012    9       5       6.288886        282.7762
2012    9       6       5.580781        281.679
2012    9       7       5.04619         280.9643
2012    10      0       4.960438        280.2979
2012    10      1       4.654617        278.7459
2012    10      2       4.383277        277.6621
2012    10      3       4.225744        277.1446
2012    10      4       4.096327        276.8718
2012    10      5       3.773964        274.8558
2012    10      6       2.732233        262.5229
2012    10      7       2.042727        244.3388
2012    11      0       1.678744        228.7179
2012    11      1       1.512624        221.1852
2012    11      2       1.490231        219.7851
2012    11      3       1.365459        211.639
2012    11      4       1.662756        228.2739
2012    11      5       2.000625        243.6585
2012    11      6       2.237818        251.5806
2012    11      7       2.23431         251.2688
2012    12      0       1.967691        242.5697
2012    12      1       1.817442        236.4965
2012    12      2       1.814881        236.1804
2012    12      3       1.895725        239.665
2012    12      4       2.757666        264.0696
2012    12      5       3.241586        270.7828
2012    12      6       2.967348        267.0772
2012    12      7       2.660061        261.511
2012    13      0       2.49359         257.9896
2012    13      1       2.29893         253.0717
2012    13      2       1.920232        240.7856
2012    13      3       1.865818        238.7429
2012    13      4       2.190178        250.7506
2012    13      5       2.154734        249.5188
2012    13      6       2.038314        245.3427
2012    13      7       2.237126        251.9671
2012    14      0       2.196358        251.019
2012    14      1       2.038726        245.9285
2012    14      2       1.791925        235.8105
2012    14      3       1.788511        235.4678
2012    14      4       2.139202        249.5515
2012    14      5       2.315343        254.9786
2012    14      6       2.073803        247.2695
2012    14      7       1.90479         240.5949
2012    15      0       2.002627        243.9801
2012    15      1       2.057081        245.777
2012    15      2       2.094024        246.8435
2012    15      3       2.039506        245.061
2012    15      4       2.160366        250.2746
2012    15      5       2.330112        255.4388
2012    15      6       2.322756        254.8633
2012    15      7       2.374642        255.2816
2012    16      0       3.020403        266.9579
2012    16      1       3.741287        273.8289
2012    16      2       4.605912        279.1869
2012    16      3       4.330041        277.3537
2012    16      4       5.162203        280.6057
2012    16      5       5.180097        280.7991
2012    16      6       5.174258        280.7926
2012    16      7       4.778982        280.3477
2012    17      0       4.832215        280.4255
2012    17      1       5.015899        280.4488
2012    17      2       4.821767        279.6815
2012    17      3       5.246073        280.5684
2012    17      4       5.919785        282.484
2012    17      5       6.148617        282.8991
2012    17      6       5.847884        282.3432
2012    17      7       5.071949        281.4813
2012    18      0       5.26671         281.6914
2012    18      1       5.016568        280.6031
2012    18      2       4.654816        279.4563
2012    18      3       4.729199        279.7435
2012    18      4       4.93583         280.9954
2012    18      5       5.237862        282.1689
2012    18      6       5.217766        282.1881
2012    18      7       4.763381        280.9999
2012    19      0       3.849651        277.0376
2012    19      1       2.8255          265.9272
2012    19      2       1.801647        236.2605
2012    19      3       2.428025        258.1138
2012    19      4       3.655866        276.8827
2012    19      5       4.968068        282.6315
2012    19      6       5.544177        282.8
2012    19      7       5.688953        282.5453
2012    20      0       5.227865        280.9149
2012    20      1       5.425461        280.5995
2012    20      2       5.195684        280.1356
2012    20      3       5.046461        279.9016
2012    20      4       4.774483        279.7493
2012    20      5       5.053111        280.7533
2012    20      6       5.301992        281.3083
2012    20      7       5.595541        281.9502
2012    21      0       5.012488        280.676
2012    21      1       3.739645        275.1354
2012    21      2       3.050364        268.017
2012    21      3       3.276868        270.9426
2012    21      4       4.064528        277.6813
2012    21      5       4.912767        281.0155
2012    21      6       4.944979        280.944
2012    21      7       4.335278        279.142
2012    22      0       4.040874        277.5811
2012    22      1       3.836283        276.1777
2012    22      2       3.60242         274.1748
2012    22      3       4.065528        276.9522
2012    22      4       4.74204         280.2289
2012    22      5       5.190043        281.4054
2012    22      6       5.036547        280.894
2012    22      7       4.468342        279.584
2012    23      0       4.186354        278.4355
2012    23      1       4.051538        277.5937
2012    23      2       3.832728        276.2943
2012    23      3       3.857145        276.0544
2012    23      4       4.181406        278.1303
2012    23      5       4.57618         279.8672
2012    23      6       4.697041        280.3291
2012    23      7       4.401567        279.5592
2012    24      0       4.300682        279.0705
2012    24      1       4.512603        279.3835
2012    24      2       4.600859        278.9932
2012    24      3       4.570506        278.175
2012    24      4       4.962209        280.1088
2012    24      5       5.430242        281.3595
2012    24      6       5.608383        281.629
2012    24      7       5.164842        280.6977
2012    25      0       4.48214         278.5397
2012    25      1       4.530074        278.0601
2012    25      2       4.864318        278.6042
2012    25      3       4.708391        277.8581
2012    25      4       5.183095        279.4597
2012    25      5       5.683862        280.3684
2012    25      6       5.723142        280.6606
2012    25      7       4.833422        278.9643
2012    26      0       4.303309        276.5767
2012    26      1       3.797323        273.309
2012    26      2       3.425465        270.5191
2012    26      3       3.747686        273.8262
2012    26      4       4.517879        278.6217
2012    26      5       5.050824        280.6907
2012    26      6       5.348796        281.0292
2012    26      7       4.928513        279.8703
2012    27      0       4.482188        277.6348
2012    27      1       3.802373        274.1919
2012    27      2       3.40486         271.2398
2012    27      3       3.343023        271.0219
2012    27      4       4.193619        277.777
2012    27      5       4.774455        280.1876
2012    27      6       4.669101        279.9053
2012    27      7       4.278341        278.7761
2012    28      0       4.133996        277.8452
2012    28      1       3.912586        276.5174
2012    28      2       3.289589        271.4333
2012    28      3       3.428457        272.3461
2012    28      4       4.314867        278.0187
2012    28      5       4.638512        279.0467
2012    28      6       4.448926        278.4851
2012    28      7       3.664866        274.5989
2012    29      0       3.329038        271.4969
2012    29      1       2.966337        267.059
2012    29      2       2.742842        263.4878
2012    29      3       2.937531        266.0861
2012    29      4       3.610673        274.1541
2012    29      5       4.212716        277.8213
2012    29      6       4.07466         276.9464
2012    29      7       3.519719        273.5651
2013    1       0       1.049826        184.4744
2013    1       1       1.048629        183.9186
2013    1       2       1.065528        185.4257
2013    1       3       1.052032        184.3955
2013    1       4       1.139092        193.0255
2013    1       5       1.352413        210.5532
2013    1       6       1.399475        214.3694
2013    1       7       1.393192        213.8593
2013    2       0       1.444316        217.0473
2013    2       1       1.412877        215.0148
2013    2       2       1.273649        204.8908
2013    2       3       1.384363        213.2093
2013    2       4       1.560553        224.9867
2013    2       5       1.869038        240.542
2013    2       6       1.877929        239.9747
2013    2       7       1.845039        237.2585
2013    3       0       1.974613        241.9794
2013    3       1       1.959042        240.9356
2013    3       2       2.007316        242.8153
2013    3       3       2.144492        247.8487
2013    3       4       2.25            251.9087
2013    3       5       2.325402        254.6915
2013    3       6       2.129406        248.8876
2013    3       7       1.846439        237.4048
2013    4       0       1.721493        230.9655
2013    4       1       1.791252        234.0405
2013    4       2       1.7571          232.1693
2013    4       3       1.924232        240.518
2013    4       4       2.333184        255.3532
2013    4       5       2.602498        261.6043
2013    4       6       2.404448        255.8984
2013    4       7       1.977698        242.4588
2013    5       0       1.863699        237.5318
2013    5       1       1.802844        234.3911
2013    5       2       1.781213        233.1322
2013    5       3       1.880349        237.8399
2013    5       4       2.169723        249.2291
2013    5       5       2.564754        259.7526
2013    5       6       2.75941         263.0145
2013    5       7       2.88323         264.6584
2013    6       0       2.780889        262.3878
2013    6       1       2.428374        254.4652
2013    6       2       2.197886        248.2055
2013    6       3       2.22551         248.825
2013    6       4       2.292338        251.432
2013    6       5       2.138554        247.3534
2013    6       6       1.963832        240.9814
2013    6       7       2.014948        242.4689
2013    7       0       2.108556        245.0872
2013    7       1       1.97314         240.1816
2013    7       2       1.856197        235.7779
2013    7       3       1.964444        241.0995
2013    7       4       2.459466        257.4886
2013    7       5       3.073303        268.2713
2013    7       6       3.017935        266.8164
2013    7       7       3.134673        268.1788
2013    8       0       3.204075        268.7861
2013    8       1       2.610823        259.9584
2013    8       2       2.005088        243.1317
2013    8       3       2.074295        246.0547
2013    8       4       2.473229        258.4219
2013    8       5       2.862775        265.7626
2013    8       6       2.294387        252.4302
2013    8       7       1.72375         229.7796
2013    9       0       1.543051        219.2032
2013    9       1       1.499677        216.7856
2013    9       2       1.555686        220.712
2013    9       3       1.369307        209.4358
2013    9       4       1.203961        197.7694
2013    9       5       1.018981        181.3775
2013    9       6       0.7635864       153.0308
2013    9       7       0.6045511       130.8786
2013    10      0       0.6171855       132.2715
2013    10      1       0.6772987       140.2688
2013    10      2       0.8084783       157.0636
2013    10      3       0.9962204       178.1561
2013    10      4       1.013957        180.7629
2013    10      5       0.9027435       169.3106
2013    10      6       0.6697776       140.0837
2013    10      7       0.4480503       104.3161
2013    11      0       0.4653062       106.6451
2013    11      1       0.5009994       112.5403
2013    11      2       0.4739763       108.327
2013    11      3       0.6399365       134.9213
2013    11      4       0.7656203       152.4034
2013    11      5       0.7768423       153.9085
2013    11      6       0.8073628       157.5492
2013    11      7       0.9439975       172.6589
2013    12      0       1.045078        182.8413
2013    12      1       1.190143        196.8639
2013    12      2       1.370358        211.8871
2013    12      3       1.617357        227.7156
2013    12      4       2.231226        252.8259
2013    12      5       2.738326        264.1923
2013    12      6       2.53207         259.5124
2013    12      7       2.036929        245.1571
2013    13      0       1.894673        239.328
2013    13      1       1.894692        239.038
2013    13      2       1.928385        241.0415
2013    13      3       1.997416        244.0759
2013    13      4       2.422244        258.0835
2013    13      5       2.771336        265.7433
2013    13      6       2.788313        265.8354
2013    13      7       2.840134        266.4278
2013    14      0       3.06178         269.4472
2013    14      1       2.923951        267.4856
2013    14      2       2.692791        263.4933
2013    14      3       2.701478        263.8935
2013    14      4       2.992357        269.4651
2013    14      5       3.346257        273.9464
2013    14      6       3.520265        274.6676
2013    14      7       3.833101        276.851
2013    15      0       3.752886        275.5084
2013    15      1       3.587514        274.3028
2013    15      2       3.290215        271.7116
2013    15      3       3.434394        273.1578
2013    15      4       3.980192        278.1154
2013    15      5       4.215271        279.9161
2013    15      6       3.993783        277.958
2013    15      7       4.087125        277.756
2013    16      0       4.468929        278.762
2013    16      1       4.583353        278.2161
2013    16      2       3.929264        275.547
2013    16      3       3.788845        274.9361
2013    16      4       4.26481         278.3881
2013    16      5       4.361501        279.1829
2013    16      6       4.357071        279.0819
2013    16      7       4.652922        279.5125
2013    17      0       4.680824        278.3085
2013    17      1       4.133752        276.1748
2013    17      2       3.444329        271.9255
2013    17      3       3.420663        271.4389
2013    17      4       3.777349        275.214
2013    17      5       3.859355        276.8694
2013    17      6       4.093548        277.6335
2013    17      7       4.157606        277.3622
2013    18      0       3.664296        274.1327
2013    18      1       3.470884        272.0043
2013    18      2       3.423065        271.7344
2013    18      3       3.075604        267.7009
2013    18      4       3.07282         269.1249
2013    18      5       3.559429        274.992
2013    18      6       3.891771        276.9667
2013    18      7       3.870255        276.6783
2013    19      0       3.821657        275.9279
2013    19      1       3.649536        274.6543
2013    19      2       3.415524        272.2157
2013    19      3       3.576826        274.0652
2013    19      4       3.836498        277.0115
2013    19      5       3.551964        274.6559
2013    19      6       3.298361        272.4915
2013    19      7       3.257966        271.9156
2013    20      0       3.516866        274.258
2013    20      1       3.317713        272.3904
2013    20      2       2.671475        262.2377
2013    20      3       2.72478         263.3222
2013    20      4       3.08174         269.611
2013    20      5       3.562119        275.2414
2013    20      6       3.501232        274.2762
2013    20      7       2.802448        264.7675
2013    21      0       3.168429        271.1724
2013    21      1       2.753071        264.2547
2013    21      2       2.843609        265.8493
2013    21      3       2.915188        266.8796
2013    21      4       3.195652        271.1078
2013    21      5       3.482028        274.0265
2013    21      6       3.490889        273.6385
2013    21      7       3.191214        270.5472
2013    22      0       3.085347        269.1144
2013    22      1       3.093725        268.8253
2013    22      2       2.954623        266.2593
2013    22      3       2.627073        260.4918
2013    22      4       2.822491        264.9513
2013    22      5       3.01165         268.4838
2013    22      6       3.242789        269.9835
2013    22      7       3.189747        268.9448
2013    23      0       2.762991        263.2604
2013    23      1       2.229989        250.983
2013    23      2       1.824552        236.1259
2013    23      3       1.70678         230.2847
2013    23      4       1.588032        224.6408
2013    23      5       1.621333        226.7724
2013    23      6       1.731916        232.1734
2013    23      7       1.728325        231.9862
2013    24      0       1.711342        230.6122
2013    24      1       1.77641         233.2445
2013    24      2       1.709955        230.0271
2013    24      3       1.660179        227.5765
2013    24      4       1.55978         223.1029
2013    24      5       1.486522        219.0648
2013    24      6       1.286752        204.7902
2013    24      7       1.070696        185.722
2013    25      0       1.19627         196.4299
2013    25      1       1.416117        213.0502
2013    25      2       1.555813        221.959
2013    25      3       1.570406        222.7754
2013    25      4       1.584707        224.2104
2013    25      5       1.773239        233.8616
2013    25      6       2.096925        246.6604
2013    25      7       2.210714        250.083
2013    26      0       2.127132        246.9744
2013    26      1       2.081408        245.1935
2013    26      2       2.110265        246.2894
2013    26      3       2.207693        249.6011
2013    26      4       2.348537        254.9683
2013    26      5       2.78323         264.9559
2013    26      6       2.886798        266.0088
2013    26      7       2.866905        265.5598
2013    27      0       2.995701        267.1859
2013    27      1       2.981518        266.3488
2013    27      2       2.822456        263.515
2013    27      3       2.730704        262.1973
2013    27      4       2.815602        264.6343
2013    27      5       3.026761        268.6802
2013    27      6       3.310752        271.6117
2013    27      7       3.491056        272.9516
2013    28      0       3.323853        270.5146
2013    28      1       2.698421        261.2469
2013    28      2       1.998832        242.6683
2013    28      3       1.91295         239.2255
2013    28      4       1.845574        237.4028
2013    28      5       1.517089        220.4038
2013    28      6       1.047321        184.713
2013    28      7       0.7851676       155.7631
2014    1       0       4.157301        277.8554
2014    1       1       4.015986        276.9924
2014    1       2       3.956375        276.5155
2014    1       3       4.392954        278.1805
2014    1       4       5.214815        281.1673
2014    1       5       5.598605        281.5804
2014    1       6       5.475161        281.0751
2014    1       7       4.618743        279.1042
2014    2       0       4.340196        277.8475
2014    2       1       4.139156        277.1523
2014    2       2       3.760818        275.1588
2014    2       3       4.357664        278.0371
2014    2       4       5.024311        280.1741
2014    2       5       5.082182        280.5314
2014    2       6       4.856211        279.9462
2014    2       7       4.706803        279.3376
2014    3       0       4.802756        279.1803
2014    3       1       4.870022        279.4931
2014    3       2       4.946384        279.7107
2014    3       3       5.653211        281.3557
2014    3       4       6.145073        283.0307
2014    3       5       6.625477        283.6015
2014    3       6       6.906793        283.8201
2014    3       7       6.579116        283.7527
2014    4       0       6.17325         283.5216
2014    4       1       5.972689        283.1798
2014    4       2       5.860281        282.5837
2014    4       3       5.818416        281.9724
2014    4       4       5.731785        281.488
2014    4       5       5.441315        280.3735
2014    4       6       5.027633        279.4131
2014    4       7       4.63974         277.86
2014    5       0       4.003823        275.0498
2014    5       1       3.845978        273.9272
2014    5       2       3.596265        272.7323
2014    5       3       3.756741        274.2258
2014    5       4       3.874214        275.6483
2014    5       5       3.570938        273.9815
2014    5       6       3.119338        269.9117
2014    5       7       3.038218        269.1159
2014    6       0       2.578854        260.0722
2014    6       1       2.378756        255.8695
2014    6       2       2.512282        259.6573
2014    6       3       2.70598         263.2562
2014    6       4       2.925142        267.3833
2014    6       5       2.800023        265.5299
2014    6       6       2.50546         259.699
2014    6       7       2.011908        245.3158
2014    7       0       1.728447        232.8713
2014    7       1       2.814512        266.5305
2014    7       2       1.701508        230.5995
2014    7       3       1.696542        230.0453
2014    7       4       1.926974        241.2938
2014    7       5       2.116538        248.7998
2014    7       6       1.97442         243.3618
2014    7       7       1.856453        238.053
2014    8       0       1.841917        236.7913
2014    8       1       2.149728        249.3938
2014    8       2       1.457597        216.872
2014    8       3       1.262155        203.3867
2014    8       4       1.353023        210.218
2014    8       5       1.510844        220.6071
2014    8       6       1.972892        243.4739
2014    8       7       1.918025        240.2554
2014    9       0       1.945843        241.7028
2014    9       1       1.893097        239.774
2014    9       2       1.613009        226.2764
2014    9       3       1.767008        234.5128
2014    9       4       1.714351        232.5127
2014    9       5       1.800586        236.6461
2014    9       6       2.144183        249.4203
2014    9       7       2.593914        261.1218
2014    10      0       2.859652        265.7132
2014    10      1       2.70523         262.5753
2014    10      2       2.799556        263.8791
2014    10      3       4.028511        276.5709
2014    10      4       4.977404        281.0918
2014    10      5       5.473022        282.5111
2014    10      6       5.869736        282.7973
2014    10      7       5.507155        282.2633
2014    11      0       4.653808        280.0335
2014    11      1       3.920923        276.7023
2014    11      2       3.02508         268.3142
2014    11      3       2.961837        267.4452
2014    11      4       3.329127        272.685
2014    11      5       3.709909        276.4992
2014    11      6       3.836614        276.3456
2014    11      7       3.331164        271.2737
2014    12      0       2.825733        263.367
2014    12      1       2.619845        259.2735
2014    12      2       1.882667        236.8153
2014    12      3       1.999045        242.4181
2014    12      4       2.723537        262.6589
2014    12      5       3.575909        273.8414
2014    12      6       3.834845        275.3315
2014    12      7       3.104808        268.4069
2014    13      0       2.469939        256.785
2014    13      1       2.310479        252.2635
2014    13      2       2.23926         250.0375
2014    13      3       2.341437        252.7247
2014    13      4       2.862727        264.5021
2014    13      5       3.446129        272.4934
2014    13      6       3.649403        273.7345
2014    13      7       2.990299        266.7347
2014    14      0       2.728378        262.0189
2014    14      1       2.404785        254.6841
2014    14      2       2.213816        249.3732
2014    14      3       2.343671        253.2703
2014    14      4       2.82859         264.6708
2014    14      5       3.256435        271.1744
2014    14      6       3.117974        269.2835
2014    14      7       2.65933         261.9908
2014    15      0       2.632485        261.3957
2014    15      1       2.487252        258.0724
2014    15      2       2.365563        255.2028
2014    15      3       2.662142        261.9601
2014    15      4       3.242985        271.0504
2014    15      5       3.639705        275.1586
2014    15      6       3.597999        274.6641
2014    15      7       3.344402        272.18
2014    16      0       3.083311        268.9692
2014    16      1       2.519487        259.4325
2014    16      2       1.900201        240.0752
2014    16      3       2.118237        247.9075
2014    16      4       2.57685         260.6729
2014    16      5       3.127851        270.1084
2014    16      6       3.327237        271.8372
2014    16      7       2.921077        266.5017
2014    17      0       2.83578         264.7949
2014    17      1       2.6372          261.0764
2014    17      2       2.523659        258.5802
2014    17      3       3.00852         266.8732
2014    17      4       3.462828        272.8105
2014    17      5       3.719862        275.4372
2014    17      6       3.808252        275.8667
2014    17      7       3.461585        273.1684
2014    18      0       3.375905        271.7486
2014    18      1       3.32601         270.8836
2014    18      2       3.263556        270.239
2014    18      3       3.433065        271.8621
2014    18      4       4.204025        277.6879
2014    18      5       4.666706        279.4433
2014    18      6       4.619846        278.8888
2014    18      7       4.313199        277.5914
2014    19      0       4.248229        276.8233
2014    19      1       3.707238        274.0038
2014    19      2       3.096109        268.45
2014    19      3       3.105447        268.5876
2014    19      4       3.317521        271.2725
2014    19      5       3.041218        268.0365
2014    19      6       2.348723        254.5988
2014    19      7       1.823169        236.2572
2014    20      0       1.621758        225.837
2014    20      1       1.387673        211.2234
2014    20      2       1.119729        190.1108
2014    20      3       1.12463         190.504
2014    20      4       1.071198        185.9299
2014    20      5       1.016598        180.7895
2014    20      6       0.8805212       166.4866
2014    20      7       0.9631311       175.0329
2014    21      0       1.003939        178.589
2014    21      1       0.9172374       169.5242
2014    21      2       0.9513236       173.0837
2014    21      3       1.668905        227.8754
2014    21      4       1.565786        222.6626
2014    21      5       1.653195        227.9824
2014    21      6       1.635358        226.6527
2014    21      7       1.961607        241.2978
2014    22      0       2.238788        250.913
2014    22      1       2.15418         248.8284
2014    22      2       2.131712        247.9783
2014    22      3       3.129653        268.3769
2014    22      4       4.168987        277.3607
2014    22      5       4.392475        278.3294
2014    22      6       3.997519        276.0274
2014    22      7       4.069282        275.8183
2014    23      0       3.943319        274.2918
2014    23      1       3.577609        272.1196
2014    23      2       3.54078         272.3402
2014    23      3       3.719224        273.5854
2014    23      4       4.558386        278.485
2014    23      5       4.897971        279.6141
2014    23      6       4.656969        278.8138
2014    23      7       3.93703         276.0506
2014    24      0       3.911863        275.8076
2014    24      1       3.981942        275.5737
2014    24      2       3.445897        271.4376
2014    24      3       3.476257        272.1386
2014    24      4       4.266212        278.1226
2014    24      5       5.000673        280.3823
2014    24      6       5.141123        280.4591
2014    24      7       4.724862        279.4868
2014    25      0       4.106712        276.8385
2014    25      1       3.711918        274.2431
2014    25      2       3.558344        272.8565
2014    25      3       4.484636        277.535
2014    25      4       5.195678        279.8944
2014    25      5       5.323774        280.3225
2014    25      6       4.908435        279.0957
2014    25      7       4.314134        277.272
2014    26      0       4.082554        275.9839
2014    26      1       3.902022        274.6733
2014    26      2       3.654996        273.218
2014    26      3       4.158484        276.6393
2014    26      4       5.004977        280.0565
2014    26      5       5.492807        280.8352
2014    26      6       5.442717        280.6088
2014    26      7       5.287187        280.3377
2014    27      0       5.305546        280.0735
2014    27      1       4.844142        278.4101
2014    27      2       4.344747        276.4542
2014    27      3       4.511097        276.989
2014    27      4       5.559175        279.8558
2014    27      5       5.629854        280.1703
2014    27      6       5.20096         279.6532
2014    27      7       4.963485        279.4804
2014    28      0       5.223281        279.5832
2014    28      1       5.1391          279.192
2014    28      2       4.802694        278.0726
2014    28      3       5.22723         279.0689
2014    28      4       5.18572         279.2815
2014    28      5       4.381533        277.2553
2014    28      6       3.351803        271.0624
2014    28      7       2.677979        262.0329
2015    1       0       1.972721        242.7764
2015    1       1       1.813209        235.7239
2015    1       2       1.571763        223.2421
2015    1       3       1.431532        214.5609
2015    1       4       1.356987        210.325
2015    1       5       1.29287         205.7583
2015    1       6       1.128036        192.2181
2015    1       7       1.125983        191.6315
2015    2       0       1.276397        203.7247
2015    2       1       1.186555        196.1702
2015    2       2       0.9055732       168.8494
2015    2       3       0.6402728       135.2296
2015    2       4       0.5551835       122.3835
2015    2       5       0.5029966       113.6778
2015    2       6       0.3880787       93.52142
2015    2       7       0.2934428       74.94579
2015    3       0       0.2786877       71.81029
2015    3       1       0.3659707       89.04993
2015    3       2       0.4545283       104.9458
2015    3       3       0.4486316       104.1081
2015    3       4       0.410565        97.66428
2015    3       5       0.3966804       95.3932
2015    3       6       0.2915217       74.82026
2015    3       7       0.1907179       52.87205
2015    4       0       0.1614397       46.46478
2015    4       1       0.1483564       43.32618
2015    4       2       0.1542595       44.58486
2015    4       3       0.2520353       66.65899
2015    4       4       0.37406         91.27999
2015    4       5       0.5465367       121.3575
2015    4       6       0.5492346       121.995
2015    4       7       0.4354648       102.4844
2015    5       0       0.4584948       106.5092
2015    5       1       0.4661972       107.8803
2015    5       2       0.4301292       101.6281
2015    5       3       0.608206        131.0933
2015    5       4       0.6645147       139.3834
2015    5       5       0.8020873       157.8833
2015    5       6       0.6715092       140.791
2015    5       7       0.4029816       96.95917
2015    6       0       0.3269575       82.15939
2015    6       1       0.3152466       79.67144
2015    6       2       0.3398285       84.63308
2015    6       3       0.4463351       104.5617
2015    6       4       0.5419493       120.7886
2015    6       5       0.5824846       127.4061
2015    6       6       0.4749639       109.999
2015    6       7       0.3397396       84.88686
2015    7       0       0.3394686       84.70528
2015    7       1       0.3917061       94.64991
2015    7       2       0.4203905       99.82873
2015    7       3       0.5237027       117.7017
2015    7       4       0.7249165       147.5448
2015    7       5       0.8857889       167.4876
2015    7       6       0.8733866       166.0905
2015    7       7       0.8484024       162.8628
2015    8       0       0.8301355       160.5623
2015    8       1       0.7838549       154.7577
2015    8       2       0.8753721       165.677
2015    8       3       0.9090331       169.2088
2015    8       4       0.8880231       167.5497
2015    8       5       0.9068015       170.0031
2015    8       6       0.7988981       157.6362
2015    8       7       0.7703458       153.9156
2015    9       0       0.8602955       164.8201
2015    9       1       0.9965212       179.6677
2015    9       2       1.209927        199.0852
2015    9       3       1.2495          201.866
2015    9       4       1.309382        206.644
2015    9       5       1.425532        215.1068
2015    9       6       1.395225        213.2505
2015    9       7       1.410835        214.0833
2015    10      0       1.3852          212.2035
2015    10      1       1.335217        208.5181
2015    10      2       1.290227        205.1356
2015    10      3       1.275636        203.7656
2015    10      4       1.354172        210.2257
2015    10      5       1.540759        222.5152
2015    10      6       1.549732        222.7033
2015    10      7       1.518504        220.6052
2015    11      0       1.535973        221.6629
2015    11      1       1.686253        230.4144
2015    11      2       1.787963        235.4402
2015    11      3       2.009593        244.3413
2015    11      4       2.576699        261.4256
2015    11      5       3.130257        270.6316
2015    11      6       3.371021        272.8768
2015    11      7       3.378979        273.3938
2015    12      0       3.487336        273.9299
2015    12      1       3.272833        271.3511
2015    12      2       3.096576        268.8345
2015    12      3       3.148851        269.2976
2015    12      4       3.445671        273.2827
2015    12      5       3.155442        270.4285
2015    12      6       2.41411         256.2468
2015    12      7       2.258635        251.5298
2015    13      0       2.061898        244.7118
2015    13      1       1.736101        230.8544
2015    13      2       1.604342        224.4466
2015    13      3       1.510423        219.6426
2015    13      4       1.453651        217.0664
2015    13      5       1.436082        216.8012
2015    13      6       1.014324        181.9466
2015    13      7       0.9336045       173.1031
2015    14      0       0.9126116       170.1679
2015    14      1       0.8087232       157.9797
2015    14      2       0.7136405       146.0071
2015    14      3       0.6547819       138.2965
2015    14      4       0.7419629       150.2504
2015    14      5       0.785148        155.8226
2015    14      6       0.7186222       147.0984
2015    14      7       0.6328591       134.9586
2015    15      0       0.6656165       139.2754
2015    15      1       0.6499913       136.9363
2015    15      2       0.5880579       127.8067
2015    15      3       0.5841374       127.3658
2015    15      4       0.6820184       141.8497
2015    15      5       0.8859701       167.3212
2015    15      6       0.9411292       173.0376
2015    15      7       0.935311        171.9539
2015    16      0       0.9654049       174.722
2015    16      1       0.9620154       174.1178
2015    16      2       0.9444718       171.9501
2015    16      3       1.003927        178.2195
2015    16      4       1.233004        199.6851
2015    16      5       1.601189        224.4277
2015    16      6       1.88357         237.5523
2015    16      7       1.84224         234.9192
2015    17      0       1.784452        231.3111
2015    17      1       1.738029        228.6331
2015    17      2       1.690858        227.0499
2015    17      3       1.725411        229.9284
2015    17      4       1.828092        236.1452
2015    17      5       2.048929        245.5807
2015    17      6       2.251218        251.4951
2015    17      7       2.560288        257.7648
2015    18      0       2.547131        256.924
2015    18      1       2.04942         243.1491
2015    18      2       2.086453        244.213
2015    18      3       1.983034        241.0114
2015    18      4       1.863531        237.4969
2015    18      5       1.688277        229.5773
2015    18      6       1.365571        210.265
2015    18      7       1.195289        196.7513
2015    19      0       1.360946        208.7425
2015    19      1       1.403885        211.132
2015    19      2       1.374422        209.5789
2015    19      3       1.499009        218.2771
2015    19      4       1.572356        223.2182
2015    19      5       1.806673        235.5628
2015    19      6       1.935358        240.6132
2015    19      7       2.009461        242.8994
2015    20      0       2.151534        247.2604
2015    20      1       2.39093         253.8008
2015    20      2       2.782392        262.1369
2015    20      3       3.359839        269.932
2015    20      4       3.976619        275.6217
2015    20      5       4.055378        276.6219
2015    20      6       3.686202        274.7384
2015    20      7       3.315152        271.3356
2015    21      0       3.661509        273.9759
2015    21      1       4.360697        277.5157
2015    21      2       4.124894        276.2823
2015    21      3       3.691473        274.0147
2015    21      4       3.534749        273.3762
2015    21      5       3.225325        271.0943
2015    21      6       2.720971        263.7101
2015    21      7       2.449596        257.5284
2015    22      0       2.478751        257.7662
2015    22      1       2.426724        255.9782
2015    22      2       2.416181        255.5196
2015    22      3       2.364837        254.3916
2015    22      4       3.003764        268.7095
2015    22      5       3.570794        275.3928
2015    22      6       3.567767        274.546
2015    22      7       3.849275        275.755
2015    23      0       4.286685        277.0465
2015    23      1       4.335256        277.2079
2015    23      2       3.885264        275.0839
2015    23      3       3.683216        273.1251
2015    23      4       3.763837        274.8642
2015    23      5       3.700545        275.4129
2015    23      6       3.591336        274.5091
2015    23      7       3.735623        275.6891
2015    24      0       3.341728        271.9093
2015    24      1       2.987272        266.9043
2015    24      2       2.56469         259.2651
2015    24      3       2.380973        254.7628
2015    24      4       3.006974        268.4001
2015    24      5       2.658563        262.0984
2015    24      6       2.044641        245.0991
2015    24      7       1.629247        226.0406
2015    25      0       1.194841        195.4094
2015    25      1       0.8170229       156.6652
2015    25      2       0.7730829       151.2767
2015    25      3       1.111619        189.2357
2015    25      4       1.455235        216.0251
2015    25      5       1.423329        214.1019
2015    25      6       1.212832        198.7555
2015    25      7       1.088477        187.749
2015    26      0       0.9730823       176.4137
2015    26      1       0.9119364       169.8532
2015    26      2       0.8155109       158.72
2015    26      3       0.971625        177.1954
2015    26      4       0.6374436       135.3472
2015    26      5       0.5660586       124.7259
2015    26      6       0.3770971       92.29163
2015    26      7       0.2596331       68.41664
2015    27      0       0.299746        76.36947
2015    27      1       0.4093561       97.13797
2015    27      2       0.3730822       90.55391
2015    27      3       0.4237755       100.5255
2015    27      4       0.5202971       116.9309
2015    27      5       0.5096674       115.1669
2015    27      6       0.4199016       99.75846
2015    27      7       0.3851703       93.22601
2015    28      0       0.4735235       108.6463
2015    28      1       0.6178712       131.3307
2015    28      2       0.7019924       143.4173
2015    28      3       0.8743342       165.3281
2015    28      4       0.9087169       169.2049
2015    28      5       0.9785068       176.9829
2015    28      6       0.9919541       177.8969
2015    28      7       1.225764        198.0288
2016    1       0       2.492112        258.9688
2016    1       1       1.917066        240.9083
2016    1       2       1.540541        222.156
2016    1       3       1.968312        242.7087
2016    1       4       2.393636        257.0533
2016    1       5       2.765602        265.3207
2016    1       6       3.096805        270.3145
2016    1       7       3.251161        271.9761
2016    2       0       3.114028        269.9067
2016    2       1       3.023182        268.1957
2016    2       2       2.832564        265.4603
2016    2       3       2.995919        267.8572
2016    2       4       3.463944        274.3866
2016    2       5       4.00357         278.835
2016    2       6       4.165292        279.4665
2016    2       7       4.365684        279.7456
2016    3       0       4.111076        278.2472
2016    3       1       3.549205        274.9062
2016    3       2       3.528727        274.7281
2016    3       3       3.69107         275.6862
2016    3       4       4.061146        278.6577
2016    3       5       4.318996        280.0239
2016    3       6       4.247939        279.5699
2016    3       7       3.804139        277.5402
2016    4       0       3.991069        277.8079
2016    4       1       4.279431        279.1996
2016    4       2       3.901736        277.1223
2016    4       3       3.242916        270.9332
2016    4       4       3.397512        273.3829
2016    4       5       3.518908        275.6979
2016    4       6       2.774118        265.793
2016    4       7       2.612534        262.6113
2016    5       0       2.688419        263.3406
2016    5       1       2.644681        261.8484
2016    5       2       2.532921        259.5758
2016    5       3       2.360597        255.2981
2016    5       4       2.388645        257.3179
2016    5       5       2.635807        263.1778
2016    5       6       2.785363        265.7043
2016    5       7       2.850204        266.4844
2016    6       0       2.641345        262.2809
2016    6       1       2.416403        256.9044
2016    6       2       2.550364        259.4724
2016    6       3       2.544337        259.3276
2016    6       4       2.653455        262.9243
2016    6       5       2.833177        266.3055
2016    6       6       2.849861        266.5079
2016    6       7       3.061393        269.2866
2016    7       0       2.984617        267.3149
2016    7       1       2.906776        265.5175
2016    7       2       2.816024        263.6936
2016    7       3       2.766585        262.7472
2016    7       4       2.74963         263.7105
2016    7       5       2.687586        263.2355
2016    7       6       2.379657        256.3407
2016    7       7       2.148235        249.5843
2016    8       0       2.077015        246.8702
2016    8       1       1.952219        242.07
2016    8       2       1.797727        235.7062
2016    8       3       1.659748        228.9227
2016    8       4       1.841469        238.4075
2016    8       5       2.063359        247.5346
2016    8       6       2.076532        247.8155
2016    8       7       2.110556        248.7134
2016    9       0       2.005062        244.4683
2016    9       1       1.903941        240.3606
2016    9       2       1.801216        235.8813
2016    9       3       1.775913        234.6998
2016    9       4       1.812719        236.8641
2016    9       5       1.88644         240.1931
2016    9       6       1.860842        238.5397
2016    9       7       1.882703        238.6395
2016    10      0       1.875799        237.3822
2016    10      1       1.72838         230.45
2016    10      2       1.539764        220.6318
2016    10      3       1.422683        213.301
2016    10      4       1.473956        217.6615
2016    10      5       1.632581        227.5265
2016    10      6       1.713447        232.2804
2016    10      7       1.622732        226.9077
2016    11      0       1.668227        229.1432
2016    11      1       1.626924        226.7922
2016    11      2       1.534575        221.5367
2016    11      3       1.47385         217.6518
2016    11      4       1.51467         220.8853
2016    11      5       1.591306        225.4484
2016    11      6       1.555149        223.2573
2016    11      7       1.600191        225.5343
2016    12      0       1.723939        231.7612
2016    12      1       1.890524        239.2169
2016    12      2       1.96652         242.6362
2016    12      3       1.870951        238.8196
2016    12      4       2.035404        246.5413
2016    12      5       2.065888        247.5728
2016    12      6       1.989655        244.7349
2016    12      7       2.039772        246.224
2016    13      0       2.163465        249.8235
2016    13      1       2.151314        248.6138
2016    13      2       2.067706        245.1594
2016    13      3       1.90106         238.9574
2016    13      4       1.912445        240.6736
2016    13      5       1.907464        240.9717
2016    13      6       1.790264        235.8979
2016    13      7       1.779254        234.8251
2016    14      0       1.985291        242.6193
2016    14      1       1.910774        238.7598
2016    14      2       1.706743        229.5982
2016    14      3       1.801614        234.7558
2016    14      4       1.890313        240.1019
2016    14      5       2.074412        247.5468
2016    14      6       2.305185        254.5342
2016    14      7       2.724196        263.8985
2016    15      0       2.797637        263.8128
2016    15      1       2.269904        251.6274
2016    15      2       1.759522        232.7322
2016    15      3       1.700303        230.0488
2016    15      4       1.907127        240.5054
2016    15      5       1.975237        243.0918
2016    15      6       1.972652        242.026
2016    15      7       2.047971        244.1712
2016    16      0       2.023611        242.8497
2016    16      1       2.073121        244.347
2016    16      2       2.23053         249.287
2016    16      3       2.326245        252.0038
2016    16      4       2.489792        256.8567
2016    16      5       3.004571        267.5353
2016    16      6       3.641453        274.0888
2016    16      7       3.865509        275.4744
2016    17      0       3.848944        275.1844
2016    17      1       3.894547        275.1769
2016    17      2       4.083484        276.2153
2016    17      3       4.339189        277.6491
2016    17      4       4.518547        278.7757
2016    17      5       4.113594        277.4512
2016    17      6       3.709797        275.3461
2016    17      7       3.458532        273.4164
2016    18      0       3.088216        268.8179
2016    18      1       2.872926        265.0335
2016    18      2       3.160106        269.1276
2016    18      3       3.672596        274.0948
2016    18      4       4.736223        280.1143
2016    18      5       4.933969        281.0019
2016    18      6       4.614244        280.2338
2016    18      7       4.649805        280.5372
2016    19      0       4.861509        280.7171
2016    19      1       4.726656        280.0103
2016    19      2       4.525876        279.1588
2016    19      3       4.725898        279.5788
2016    19      4       5.272565        281.3255
2016    19      5       4.731558        280.2223
2016    19      6       3.666309        275.6955
2016    19      7       3.662326        276.0351
2016    20      0       4.182367        278.5676
2016    20      1       4.42888         279.1108
2016    20      2       4.682708        280.0017
2016    20      3       4.493067        279.0093
2016    20      4       4.457124        279.9364
2016    20      5       4.751014        281.5586
2016    20      6       4.445408        280.807
2016    20      7       4.816367        281.9162
2016    21      0       4.847101        280.5698
2016    21      1       4.757103        280.1275
2016    21      2       4.108604        278.1671
2016    21      3       3.580187        274.8647
2016    21      4       3.343733        273.7684
2016    21      5       3.314247        273.8306
2016    21      6       3.309554        273.4064
2016    21      7       3.450146        274.4969
2016    22      0       3.524407        274.4695
2016    22      1       3.396654        272.8617
2016    22      2       3.65552         274.9653
2016    22      3       3.82257         275.4242
2016    22      4       4.165896        278.0767
2016    22      5       4.495547        280.1233
2016    22      6       4.789598        280.8607
2016    22      7       4.878885        280.8666
2016    23      0       4.821306        281.4737
2016    23      1       5.395845        281.9345
2016    23      2       4.443221        280.6446
2016    23      3       4.811761        281.3706
2016    23      4       4.79992         281.8709
2016    23      5       4.669277        281.7078
2016    23      6       4.521736        280.8815
2016    23      7       4.476298        280.8778
2016    24      0       4.390912        280.3769
2016    24      1       4.247375        279.3692
2016    24      2       4.255645        279.1077
2016    24      3       4.489295        279.7379
2016    24      4       5.035135        282.0145
2016    24      5       5.242535        282.4942
2016    24      6       5.108335        282.0716
2016    24      7       4.483385        280.5614
2016    25      0       3.931259        277.6379
2016    25      1       3.427306        273.6778
2016    25      2       3.041543        269.7565
2016    25      3       3.21412         271.9305
2016    25      4       4.011938        279.0826
2016    25      5       4.426982        280.8397
2016    25      6       3.967917        278.8315
2016    25      7       3.744449        277.9943
2016    26      0       3.866911        277.9874
2016    26      1       3.398739        273.9005
2016    26      2       2.675065        263.8183
2016    26      3       1.985225        244.7297
2016    26      4       1.556839        224.6603
2016    26      5       1.297449        206.8292
2016    26      6       1.012014        181.2725
2016    26      7       0.90575         169.8794
2016    27      0       0.8800088       167.2103
2016    27      1       0.8809339       167.3958
2016    27      2       0.8227754       160.7094
2016    27      3       0.969997        177.4131
2016    27      4       1.227912        201.6864
2016    27      5       1.547867        223.9163
2016    27      6       1.647064        228.9713
2016    27      7       1.637804        228.063
2016    28      0       1.692068        230.809
2016    28      1       1.708601        231.9928
2016    28      2       1.837901        238.0804
2016    28      3       2.063116        246.7492
2016    28      4       2.295228        254.9765
2016    28      5       2.626602        263.0637
2016    28      6       2.614483        262.1401
2016    28      7       2.413229        257.3022
2016    29      0       2.355207        255.3729
2016    29      1       2.093652        247.2609
2016    29      2       1.719401        232.4973
2016    29      3       1.811351        237.1678
2016    29      4       2.262235        254.1916
2016    29      5       2.703393        264.4998
2016    29      6       2.853859        266.3883
2016    29      7       2.672762        262.6835
2017    1       0       1.820256        236.736
2017    1       1       1.753749        233.8054
2017    1       2       1.398824        213.8732
2017    1       3       1.680349        230.8206
2017    1       4       2.836673        266.9047
2017    1       5       3.745999        277.7089
2017    1       6       4.253602        280.2713
2017    1       7       4.379457        280.3561
2017    2       0       3.862113        277.6548
2017    2       1       3.61172         275.6419
2017    2       2       3.131623        270.736
2017    2       3       3.231703        271.6922
2017    2       4       3.665783        276.3834
2017    2       5       4.0883          279.2233
2017    2       6       4.338102        279.6995
2017    2       7       3.623605        275.6395
2017    3       0       3.296305        272.4835
2017    3       1       3.386961        272.7531
2017    3       2       3.736002        274.8414
2017    3       3       4.298181        277.7168
2017    3       4       4.663702        279.5657
2017    3       5       4.625593        279.5312
2017    3       6       3.88472         276.3026
2017    3       7       3.112915        269.5818
2017    4       0       2.653002        261.924
2017    4       1       2.428619        256.5188
2017    4       2       2.152147        249.1687
2017    4       3       2.055145        246.4142
2017    4       4       2.076667        248.385
2017    4       5       2.004265        245.7192
2017    4       6       1.717977        232.7904
2017    4       7       1.794325        235.5667
2017    5       0       1.888296        238.9975
2017    5       1       1.703131        231.7328
2017    5       2       1.851031        239.4212
2017    5       3       1.749361        234.4284
2017    5       4       2.042647        247.0739
2017    5       5       2.325265        256.1787
2017    5       6       2.653439        263.3771
2017    5       7       2.765491        264.9933
2017    6       0       2.62215         262.0787
2017    6       1       2.14539         250.1919
2017    6       2       1.886118        240.5286
2017    6       3       2.252704        253.2629
2017    6       4       2.740707        265.5169
2017    6       5       3.198037        272.6191
2017    6       6       3.354199        274.0527
2017    6       7       3.692367        277.494
2017    7       0       2.839875        266.8771
2017    7       1       2.572038        261.7366
2017    7       2       2.284118        254.5621
2017    7       3       2.46665         259.2129
2017    7       4       2.834369        267.4223
2017    7       5       3.291653        273.732
2017    7       6       3.703962        277.5877
2017    7       7       3.283201        273.1669
2017    8       0       3.199667        271.9657
2017    8       1       3.039962        269.7782
2017    8       2       2.935019        267.8572
2017    8       3       3.827613        276.9233
2017    8       4       4.428511        280.3852
2017    8       5       4.622772        280.9885
2017    8       6       4.445573        280.2
2017    8       7       4.204739        279.3586
2017    9       0       4.322918        279.8189
2017    9       1       4.538896        280.4002
2017    9       2       4.503815        280.3939
2017    9       3       4.564138        280.7552
2017    9       4       4.641111        281.8563
2017    9       5       5.045281        283.165
2017    9       6       5.424265        283.4696
2017    9       7       5.118695        282.7029
2017    10      0       5.492806        282.6451
2017    10      1       5.060832        281.8233
2017    10      2       4.91528         281.3248
2017    10      3       5.223271        281.4385
2017    10      4       5.628062        282.2844
2017    10      5       5.680596        282.3731
2017    10      6       5.527492        282.1418
2017    10      7       5.500255        282.1372
2017    11      0       5.314494        281.5993
2017    11      1       4.909708        280.6051
2017    11      2       4.495422        279.4816
2017    11      3       4.839943        280.4287
2017    11      4       5.468699        282.1732
2017    11      5       5.671246        282.2783
2017    11      6       5.347246        281.5473
2017    11      7       4.429586        279.3363
2017    12      0       3.825419        276.0974
2017    12      1       3.426493        272.5641
2017    12      2       3.457992        272.6816
2017    12      3       3.669653        274.7135
2017    12      4       4.076462        277.9989
2017    12      5       4.086565        278.2855
2017    12      6       3.773263        276.5226
2017    12      7       3.557157        275.2646
2017    13      0       3.799021        276.2822
2017    13      1       3.456801        273.4251
2017    13      2       3.098963        269.3079
2017    13      3       3.024511        267.9987
2017    13      4       2.973916        268.3741
2017    13      5       2.843485        266.6508
2017    13      6       2.817912        265.2729
2017    13      7       3.091358        268.9002
2017    14      0       3.309792        271.0115
2017    14      1       3.439145        272.3151
2017    14      2       3.742353        275.1825
2017    14      3       3.310535        270.9937
2017    14      4       3.601099        275.2643
2017    14      5       3.516539        274.4675
2017    14      6       3.4968          274.0213
2017    14      7       3.65573         276.1177
2017    15      0       3.555052        274.4577
2017    15      1       3.472201        273.5344
2017    15      2       3.548933        274.196
2017    15      3       3.104927        268.4133
2017    15      4       3.37817         272.9404
2017    15      5       3.530564        274.4654
2017    15      6       3.266568        271.3549
2017    15      7       3.276877        271.4632
2017    16      0       3.814212        275.7955
2017    16      1       3.980579        276.8369
2017    16      2       4.450357        279.5046
2017    16      3       5.641384        281.1746
2017    16      4       4.724104        279.3995
2017    16      5       4.361164        278.8564
2017    16      6       3.9916          277.6171
2017    16      7       3.876284        277.49
2017    17      0       3.954225        277.9363
2017    17      1       4.191704        278.9836
2017    17      2       3.926567        277.3794
2017    17      3       4.038782        277.8801
2017    17      4       4.576176        280.785
2017    17      5       4.948121        281.7482
2017    17      6       4.784257        281.3297
2017    17      7       4.195129        279.3057
2017    18      0       3.7079          276.1239
2017    18      1       3.917453        277.1259
2017    18      2       4.170324        278.5426
2017    18      3       4.635332        280.3898
2017    18      4       5.339841        282.6005
2017    18      5       5.66599         283.1634
2017    18      6       5.430612        282.585
2017    18      7       4.534141        280.1806
2017    19      0       4.235394        278.5868
2017    19      1       4.315586        279.1063
2017    19      2       4.312876        278.8112
2017    19      3       4.661462        279.1179
2017    19      4       5.201786        280.6302
2017    19      5       5.613016        281.1797
2017    19      6       5.581507        281.0007
2017    19      7       4.976043        280.0998
2017    20      0       4.587808        279.062
2017    20      1       4.44614         278.1284
2017    20      2       4.235409        277.3135
2017    20      3       4.659512        278.8524
2017    20      4       5.271788        280.9951
2017    20      5       5.75522         281.962
2017    20      6       5.989567        281.8672
2017    20      7       5.642776        281.5407
2017    21      0       4.759883        279.7766
2017    21      1       3.761281        275.6154
2017    21      2       3.016858        268.5591
2017    21      3       3.064844        269.1116
2017    21      4       3.177516        270.5947
2017    21      5       3.015556        268.6746
2017    21      6       2.59171         261.2575
2017    21      7       2.175991        250.2025
2017    22      0       1.96111         242.3548
2017    22      1       1.846384        237.6603
2017    22      2       1.817386        236.6026
2017    22      3       1.895196        239.5159
2017    22      4       2.151115        249.1253
2017    22      5       2.410963        256.5689
2017    22      6       2.509606        258.6716
2017    22      7       2.222373        250.4729
2017    23      0       1.995701        242.2634
2017    23      1       1.960588        240.8254
2017    23      2       1.952876        240.4966
2017    23      3       1.916913        239.3112
2017    23      4       2.018242        244.0043
2017    23      5       2.325572        253.9407
2017    23      6       2.464031        257.0538
2017    23      7       2.275867        251.8061
2017    24      0       2.322162        253.002
2017    24      1       1.943152        240.0382
2017    24      2       1.764231        232.6409
2017    24      3       1.731867        231.2535
2017    24      4       1.934735        240.848
2017    24      5       2.313279        253.395
2017    24      6       2.579515        259.4664
2017    24      7       2.561463        259.044
2017    25      0       2.307856        252.4892
2017    25      1       2.059048        244.4855
2017    25      2       1.924057        239.5212
2017    25      3       2.011452        242.8725
2017    25      4       2.240189        251.296
2017    25      5       2.440973        257.1595
2017    25      6       2.502838        258.054
2017    25      7       2.384406        254.9915
2017    26      0       2.002592        243.1928
2017    26      1       1.691114        229.5707
2017    26      2       1.638284        226.4924
2017    26      3       2.747452        262.2441
2017    26      4       3.455159        272.6599
2017    26      5       3.895776        276.5888
2017    26      6       3.758772        275.6461
2017    26      7       3.527328        273.4195
2017    27      0       2.982385        267.4293
2017    27      1       2.986163        267.5612
2017    27      2       2.872491        265.5358
2017    27      3       3.024498        267.9938
2017    27      4       3.210877        271.2788
2017    27      5       3.585955        275.5278
2017    27      6       3.821929        276.9013
2017    27      7       4.031292        277.6633
2017    28      0       4.115366        277.7393
2017    28      1       3.960678        276.7793
2017    28      2       3.645405        274.9057
2017    28      3       3.54163         274.5613
2017    28      4       3.875991        277.9599
2017    28      5       4.495043        281.0524
2017    28      6       4.959571        282.0149
2017    28      7       4.743447        281.1861
2018    1       0       1.937893        242.0302
2018    1       1       1.927522        241.3136
2018    1       2       1.900097        240.0668
2018    1       3       1.975023        243.0538
2018    1       4       2.231042        252.4738
2018    1       5       2.603757        262.4718
2018    1       6       2.629281        263.2311
2018    1       7       2.670404        263.4906
2018    2       0       2.607187        261.872
2018    2       1       2.570252        260.8468
2018    2       2       2.14685         249.5506
2018    2       3       2.107488        248.3854
2018    2       4       2.164414        251.1121
2018    2       5       2.387822        257.3097
2018    2       6       2.182462        250.3637
2018    2       7       2.105064        246.9512
2018    3       0       2.174182        248.103
2018    3       1       2.13534         245.9376
2018    3       2       2.486875        257.3807
2018    3       3       3.041475        268.2811
2018    3       4       3.769226        276.7103
2018    3       5       3.712916        276.5127
2018    3       6       3.563105        275.5595
2018    3       7       3.391879        273.1669
2018    4       0       3.444937        273.6357
2018    4       1       3.273161        272.2278
2018    4       2       3.496008        274.486
2018    4       3       3.899219        277.52
2018    4       4       4.548671        281.5627
2018    4       5       5.183028        283.2822
2018    4       6       4.912595        282.4136
2018    4       7       4.604934        281.4309
2018    5       0       4.830985        281.5559
2018    5       1       4.601908        280.6751
2018    5       2       3.765857        276.7766
2018    5       3       3.502251        274.039
2018    5       4       3.405569        273.7
2018    5       5       3.659062        276.6586
2018    5       6       3.899921        278.0832
2018    5       7       3.809708        277.1872
2018    6       0       4.144849        278.3118
2018    6       1       4.019371        277.2597
2018    6       2       3.804813        275.8475
2018    6       3       3.787345        276.1966
2018    6       4       4.410097        279.9797
2018    6       5       4.447225        280.2185
2018    6       6       3.910211        278.0655
2018    6       7       3.624175        276.1376
2018    7       0       3.601643        275.8944
2018    7       1       3.313534        273.1253
2018    7       2       2.989823        268.7557
2018    7       3       2.919953        267.7335
2018    7       4       3.265945        272.9251
2018    7       5       3.403628        274.547
2018    7       6       3.443656        274.9506
2018    7       7       3.605428        275.9907
2018    8       0       3.599037        275.3865
2018    8       1       3.358298        272.9192
2018    8       2       2.99704         268.4958
2018    8       3       3.21192         270.9684
2018    8       4       3.86393         277.0033
2018    8       5       4.192452        278.8755
2018    8       6       4.252006        278.8444
2018    8       7       4.428848        279.0785
2018    9       0       4.038507        276.594
2018    9       1       3.45864         272.3245
2018    9       2       3.343998        271.0121
2018    9       3       3.375796        271.4593
2018    9       4       3.780876        275.3573
2018    9       5       3.671075        274.8223
2018    9       6       3.446757        273.009
2018    9       7       3.305044        271.526
2018    10      0       3.251816        270.5213
2018    10      1       3.375721        271.2446
2018    10      2       3.488619        271.7682
2018    10      3       3.913637        274.6086
2018    10      4       4.720172        278.3442
2018    10      5       4.796379        278.3788
2018    10      6       4.421922        276.9963
2018    10      7       4.099274        275.3115
2018    11      0       3.944131        274.6042
2018    11      1       3.945948        274.7366
2018    11      2       3.908036        274.8188
2018    11      3       3.889854        274.9309
2018    11      4       4.4135          277.782
2018    11      5       4.468939        278.1416
2018    11      6       4.307029        277.4498
2018    11      7       3.834256        274.9685
2018    12      0       3.438022        271.9616
2018    12      1       3.449553        271.9421
2018    12      2       3.118915        268.406
2018    12      3       3.055265        267.6395
2018    12      4       3.334192        271.4042
2018    12      5       3.396924        272.5486
2018    12      6       3.15313         270.178
2018    12      7       3.060672        268.6669
2018    13      0       3.0319          267.7935
2018    13      1       2.679647        262.0508
2018    13      2       2.429878        256.3734
2018    13      3       2.489831        257.6588
2018    13      4       2.938563        266.6235
2018    13      5       3.302122        271.386
2018    13      6       3.392085        272.7747
2018    13      7       3.098255        268.8059
2018    14      0       3.209995        269.9215
2018    14      1       2.955241        266.77
2018    14      2       2.935357        266.5701
2018    14      3       3.173811        269.931
2018    14      4       3.746168        275.8759
2018    14      5       3.622661        275.4339
2018    14      6       2.898232        267.3035
2018    14      7       2.584097        261.0672
2018    15      0       2.473465        258.1849
2018    15      1       2.234516        252.1292
2018    15      2       1.741946        233.304
2018    15      3       1.315839        206.9856
2018    15      4       1.183047        196.4764
2018    15      5       1.004598        179.7493
2018    15      6       0.8120068       157.7986
2018    15      7       0.6147201       131.0525
2018    16      0       0.4552779       105.6403
2018    16      1       0.357413        87.78914
2018    16      2       0.3445684       85.38104
2018    16      3       0.423839        100.3057
2018    16      4       0.5084046       115.1798
2018    16      5       0.5202409       117.2883
2018    16      6       0.420231        100.0714
2018    16      7       0.3410635       85.02354
2018    17      0       0.3401155       84.47364
2018    17      1       0.3454242       85.19115
2018    17      2       0.4988308       113.1871
2018    17      3       0.7973382       156.5816
2018    17      4       0.9123891       170.3106
2018    17      5       0.9168433       170.9345
2018    17      6       0.6630553       138.8001
2018    17      7       0.4779372       109.4001
2018    18      0       0.5580863       122.2396
2018    18      1       0.8456564       161.5157
2018    18      2       0.9336986       172.22
2018    18      3       0.838089        161.4277
2018    18      4       0.857233        163.5091
2018    18      5       0.8056587       157.5061
2018    18      6       0.671886        140.1286
2018    18      7       0.5977151       129.4069
2018    19      0       0.6590013       138.3038
2018    19      1       0.9039528       168.8768
2018    19      2       1.06502         184.9978
2018    19      3       1.05208         183.8675
2018    19      4       1.085779        187.6336
2018    19      5       1.106991        190.0883
2018    19      6       1.022526        182.2642
2018    19      7       1.051885        184.529
2018    20      0       1.225973        199.0928
2018    20      1       1.253569        201.1887
2018    20      2       1.237089        200.0622
2018    20      3       1.335037        207.3383
2018    20      4       1.503953        219.0241
2018    20      5       1.686653        228.7445
2018    20      6       1.737961        230.1418
2018    20      7       1.724976        228.7442
2018    21      0       1.937892        239.0053
2018    21      1       1.887904        237.4312
2018    21      2       1.930892        239.7966
2018    21      3       2.050766        244.7609
2018    21      4       2.296447        253.7483
2018    21      5       2.554034        260.7385
2018    21      6       2.788257        265.0629
2018    21      7       2.888423        266.5134
2018    22      0       2.807598        265.0707
2018    22      1       2.804415        265.0563
2018    22      2       2.583723        260.7423
2018    22      3       2.519102        259.7435
2018    22      4       2.776978        265.6569
2018    22      5       3.067841        270.543
2018    22      6       3.12875         270.9163
2018    22      7       2.947111        267.7299
2018    23      0       2.693818        262.8488
2018    23      1       2.470832        257.7241
2018    23      2       2.283959        253.0676
2018    23      3       2.174233        250.1333
2018    23      4       2.205763        251.7331
2018    23      5       2.492706        260.3935
2018    23      6       1.96032         242.9108
2018    23      7       1.89921         239.5465
2018    24      0       1.95263         240.5238
2018    24      1       1.801016        233.8935
2018    24      2       1.667408        227.8933
2018    24      3       1.612134        225.3535
2018    24      4       1.588488        224.4663
2018    24      5       1.492035        218.8729
2018    24      6       1.275946        204.3854
2018    24      7       1.152643        194.0709
2018    25      0       1.227617        200.0684
2018    25      1       1.281688        203.6827
2018    25      2       1.265344        202.1165
2018    25      3       1.228439        199.0159
2018    25      4       1.251549        201.2381
2018    25      5       1.258344        202.2268
2018    25      6       1.446196        215.7933
2018    25      7       1.73933         232.1438
2018    26      0       1.749401        232.4365
2018    26      1       1.721968        231.1191
2018    26      2       1.716615        231.241
2018    26      3       1.748334        233.1609
2018    26      4       1.862596        238.9624
2018    26      5       2.076342        247.1077
2018    26      6       2.721733        264.1965
2018    26      7       3.007919        268.3361
2018    27      0       2.996176        267.2521
2018    27      1       2.7501          262.5904
2018    27      2       2.252118        251.3424
2018    27      3       2.06912         246.3395
2018    27      4       2.090919        247.9759
2018    27      5       2.368713        255.9929
2018    27      6       2.784918        264.238
2018    27      7       3.171062        269.1097
2018    28      0       3.345424        270.4312
2018    28      1       3.251809        269.1942
2018    28      2       2.811681        263.5587
2018    28      3       2.604311        259.9731
2018    28      4       2.943171        266.277
2018    28      5       3.197527        269.7306
2018    28      6       3.013102        266.4504
2018    28      7       2.931005        264.4356
