####################################################################################################
# Month: 01Jan                                                                                     #
# Station: PER                                                                                     #
# Frequency: 230 GHz                                                                               #
# Columns are: year    day     segment         tau     Tb (K)                                      #
####################################################################################################
2009    1       0       0.4174384       96.23049
2009    1       1       0.47024         105.2967
2009    1       2       0.372478        88.33865
2009    1       3       0.3020691       74.87879
2009    1       4       0.1664804       45.63762
2009    1       5       0.05553334      18.86409
2009    1       6       0.05413875      18.44038
2009    1       7       0.07980526      24.64601
2009    2       0       0.1178124       33.82136
2009    2       1       0.2128219       56.02989
2009    2       2       0.1803193       49.49184
2009    2       3       0.1759121       48.62466
2009    2       4       0.1810224       49.66631
2009    2       5       0.1166709       34.07403
2009    2       6       0.08494248      26.2288
2009    2       7       0.0964654       29.01199
2009    3       0       0.104686        31.09313
2009    3       1       0.2241582       58.71931
2009    3       2       0.2882235       72.16302
2009    3       3       0.2920006       72.77716
2009    3       4       0.3321191       80.09528
2009    3       5       0.3930271       91.41844
2009    3       6       0.4304524       98.0264
2009    3       7       0.4237488       95.90382
2009    4       0       0.4088983       93.39908
2009    4       1       0.5550511       119.2321
2009    4       2       0.5016533       110.6834
2009    4       3       0.3564641       84.33807
2009    4       4       0.3152785       75.5671
2009    4       5       0.2583581       64.28308
2009    4       6       0.233253        59.47314
2009    4       7       0.2299565       59.59497
2009    5       0       0.2444323       63.43348
2009    5       1       0.3339598       81.41805
2009    5       2       0.3547004       85.32373
2009    5       3       0.4045796       94.21526
2009    5       4       0.4614149       104.0055
2009    5       5       0.5002315       110.212
2009    5       6       0.4655765       104.7762
2009    5       7       0.3835106       90.65584
2009    6       0       0.3620766       86.89152
2009    6       1       0.3406385       83.11776
2009    6       2       0.3142044       78.31402
2009    6       3       0.3382184       83.13308
2009    6       4       0.3286789       81.10676
2009    6       5       0.3303984       81.41439
2009    6       6       0.3954054       93.76909
2009    6       7       0.5455664       119.1486
2009    7       0       0.5897728       125.2261
2009    7       1       0.559237        120.9762
2009    7       2       0.7027402       141.9602
2009    7       3       0.6420287       133.7019
2009    7       4       0.461861        105.3595
2009    7       5       0.3228698       79.4052
2009    7       6       0.08684042      26.44603
2009    7       7       0.04821935      17.09583
2009    8       0       0.09886357      30.01392
2009    8       1       0.1757512       48.24387
2009    8       2       0.1717565       47.38174
2009    8       3       0.2000676       53.8304
2009    8       4       0.2392128       62.18399
2009    8       5       0.2223846       58.45549
2009    8       6       0.1912707       51.54059
2009    8       7       0.09738104      29.49307
2009    9       0       0.2314664       60.20893
2009    9       1       0.273502        69.10822
2009    9       2       0.3065808       75.69173
2009    9       3       0.3736515       88.14018
2009    9       4       0.3586519       85.36873
2009    9       5       0.3792373       88.16021
2009    9       6       0.448478        99.33434
2009    9       7       0.4031768       92.92045
2009    10      0       0.459615        103.212
2009    10      1       0.6508506       132.5514
2009    10      2       0.6633815       134.2762
2009    10      3       0.6990817       139.0321
2009    10      4       0.7119571       141.1689
2009    10      5       0.950136        169.7188
2009    10      6       0.8939307       164.1019
2009    10      7       0.5987116       125.7758
2009    11      0       0.641411        131.4762
2009    11      1       1.024178        175.238
2009    11      2       0.8433255       156.6482
2009    11      3       0.6539953       134.0787
2009    11      4       0.5391835       117.1564
2009    11      5       0.4016825       93.78784
2009    11      6       0.3150967       77.15966
2009    11      7       0.2265852       59.05158
2009    12      0       0.3472382       83.64401
2009    12      1       0.3806304       90.16716
2009    12      2       0.3745995       89.64716
2009    12      3       0.3902658       92.81233
2009    12      4       0.363202        88.12812
2009    12      5       0.3617896       87.677
2009    12      6       0.3129261       78.02547
2009    12      7       0.2564735       66.47118
2009    13      0       0.2077441       56.03853
2009    13      1       0.3724313       90.37206
2009    13      2       0.3755797       91.33885
2009    13      3       0.3619704       88.95266
2009    13      4       0.3684672       90.38174
2009    13      5       0.3890043       94.27371
2009    13      6       0.4088468       97.5767
2009    13      7       0.4071892       97.10143
2009    14      0       0.3940196       94.59634
2009    14      1       0.4861068       111.0885
2009    14      2       0.5208275       116.6669
2009    14      3       0.5133035       115.105
2009    14      4       0.6254196       132.4168
2009    14      5       0.8881908       166.838
2009    14      6       0.5262548       116.611
2009    14      7       0.507565        112.9083
2009    15      0       0.5750516       123.5946
2009    15      1       0.6685704       136.8807
2009    15      2       0.9452153       167.9275
2009    15      3       0.2064976       54.0611
2009    15      4       0.08497938      26.51162
2009    15      5       0.06253859      20.9481
2009    15      6       0.1037342       31.25244
2009    15      7       0.149778        41.90122
2009    16      0       0.2245479       57.97794
2009    16      1       0.2968622       72.89178
2009    16      2       0.3725944       87.4462
2009    16      3       0.4028072       92.07085
2009    16      4       0.3432454       81.54858
2009    16      5       0.1516037       41.99474
2009    16      6       0.09242038      28.20968
2009    16      7       0.09993346      29.77447
2009    17      0       0.126839        36.03057
2009    17      1       0.2396555       61.37633
2009    17      2       0.2775497       69.28985
2009    17      3       0.2773125       69.78111
2009    17      4       0.3233555       79.3751
2009    17      5       0.3331352       81.12319
2009    17      6       0.4414131       101.6757
2009    17      7       0.1956971       52.59666
2009    18      0       0.1759074       48.24144
2009    18      1       0.231661        60.60223
2009    18      2       0.2975549       74.25488
2009    18      3       0.353709        85.11836
2009    18      4       0.3458464       83.75769
2009    18      5       0.2987785       74.66748
2009    18      6       0.1871849       50.6418
2009    18      7       0.1668699       45.80114
2009    19      0       0.2998791       74.42174
2009    19      1       0.3846456       90.62961
2009    19      2       0.4038727       94.384
2009    19      3       0.4199378       97.48716
2009    19      4       0.4604845       104.7905
2009    19      5       0.5450438       119.1932
2009    19      6       0.5786828       124.4532
2009    19      7       0.652449        134.7755
2009    20      0       0.8070668       155.4039
2009    20      1       1.125009        188.8927
2009    20      2       1.403994        210.5434
2009    20      3       1.030557        179.7118
2009    20      4       1.040593        180.3182
2009    20      5       0.9515992       171.1888
2009    20      6       0.6369797       132.5397
2009    20      7       0.5341426       116.8729
2009    21      0       0.5430753       117.7781
2009    21      1       0.6841637       138.6421
2009    21      2       0.6937078       140.2934
2009    21      3       0.7266647       144.6241
2009    21      4       0.7629931       149.0673
2009    21      5       0.7528076       148.2949
2009    21      6       0.8485429       160.7205
2009    21      7       0.8330547       159.2018
2009    22      0       1.243279        199.2711
2009    22      1       1.827549        233.6044
2009    22      2       1.591471        221.3315
2009    22      3       1.690064        228.1684
2009    22      4       0.6866898       139.0675
2009    22      5       0.4553908       104.61
2009    22      6       0.5374076       118.4334
2009    22      7       0.5234822       116.081
2009    23      0       0.5477729       120.0374
2009    23      1       0.6835376       140.1749
2009    23      2       0.8622781       162.8253
2009    23      3       0.919101        168.9225
2009    23      4       0.8335508       159.5606
2009    23      5       1.151476        190.9662
2009    23      6       0.8356099       158.3496
2009    23      7       0.5829621       124.8974
2009    24      0       0.1984621       53.81048
2009    24      1       0.2037034       54.19121
2009    24      2       0.2002139       52.78539
2009    24      3       0.1450354       40.69817
2009    24      4       0.1773639       47.95261
2009    24      5       0.1817091       48.65652
2009    24      6       0.233348        59.85303
2009    24      7       0.2833728       70.65288
2009    25      0       0.251663        64.48224
2009    25      1       0.2967451       74.65853
2009    25      2       0.2936458       74.57897
2009    25      3       0.3081999       77.67719
2009    25      4       0.302608        76.45182
2009    25      5       0.271745        69.97035
2009    25      6       0.265043        68.62685
2009    25      7       0.2642649       68.5069
2009    26      0       0.260084        67.6425
2009    26      1       0.2941276       74.85988
2009    26      2       0.2932174       74.73278
2009    26      3       0.3289554       81.83641
2009    26      4       0.2786622       71.8966
2009    26      5       0.2299556       61.50033
2009    26      6       0.2154827       58.28195
2009    26      7       0.2331426       62.22048
2009    27      0       0.2762797       71.52538
2009    27      1       0.4281756       101.0716
2009    27      2       0.4486056       104.9736
2009    27      3       0.4334668       102.4656
2009    27      4       0.4440549       104.3306
2009    27      5       0.4743794       109.4366
2009    27      6       0.5026798       113.9634
2009    27      7       0.5231559       117.4501
2009    28      0       0.5418324       120.4149
2009    28      1       0.5927248       128.5553
2009    28      2       0.5777599       126.5439
2009    28      3       0.5829328       127.3823
2009    28      4       0.6202144       132.7212
2009    28      5       0.6312697       134.2243
2009    28      6       0.5419551       120.5961
2009    28      7       0.4866264       111.4546
2009    29      0       0.5015456       114.1668
2009    29      1       0.5186385       117.3185
2009    29      2       0.6092067       131.3411
2009    29      3       0.6795868       141.3482
2009    29      4       0.677649        141.2014
2009    29      5       0.5747668       126.5127
2009    29      6       0.5784384       127.1585
2009    29      7       0.5667827       125.2507
2009    30      0       0.4512993       105.9704
2009    30      1       0.4602967       107.4554
2009    30      2       0.5696687       125.1643
2009    30      3       0.6674277       139.1477
2009    30      4       0.6072652       130.5035
2009    30      5       0.5420333       120.4837
2009    30      6       0.5199855       117.0935
2009    30      7       0.5038741       114.5364
2009    31      0       0.4906912       112.0883
2009    31      1       0.5129173       115.9493
2009    31      2       0.5667784       124.6089
2009    31      3       0.8447591       161.2106
2009    31      4       0.9277985       170.2813
2009    31      5       0.776156        152.3627
2009    31      6       0.693802        141.3816
2009    31      7       0.5956678       127.2124
2010    1       0       1.037002        181.3029
2010    1       1       1.396278        210.0928
2010    1       2       1.497374        216.7021
2010    1       3       0.8519181       161.29
2010    1       4       0.6261677       131.8571
2010    1       5       0.7417928       147.6765
2010    1       6       0.8506688       160.6449
2010    1       7       1.235253        196.0026
2010    2       0       1.355287        203.7869
2010    2       1       1.611709        223.2731
2010    2       2       0.8848847       165.3327
2010    2       3       0.5701171       123.5329
2010    2       4       0.4634608       105.9265
2010    2       5       0.1413646       40.64354
2010    2       6       0.1422858       40.11077
2010    2       7       0.2155747       56.1994
2010    3       0       0.2940025       72.9159
2010    3       1       0.388741        91.76466
2010    3       2       0.4032477       94.71507
2010    3       3       0.3952257       93.49223
2010    3       4       0.4293297       99.80009
2010    3       5       0.3477447       84.59729
2010    3       6       0.2708321       69.22777
2010    3       7       0.2152555       57.41106
2010    4       0       0.2133123       56.98855
2010    4       1       0.4763551       108.0627
2010    4       2       0.5153295       114.8261
2010    4       3       0.4980268       111.9992
2010    4       4       0.4129816       97.28691
2010    4       5       0.4235395       99.23394
2010    4       6       0.4968163       111.9733
2010    4       7       0.5855874       126.2283
2010    5       0       0.6992454       142.1992
2010    5       1       0.7888978       153.6513
2010    5       2       0.4367959       101.8168
2010    5       3       0.3138391       78.66484
2010    5       4       0.3105113       77.6178
2010    5       5       0.313781        78.25118
2010    5       6       0.3269009       80.85926
2010    5       7       0.3498896       84.98446
2010    6       0       0.3322532       81.49765
2010    6       1       0.3212247       79.35188
2010    6       2       0.2988825       74.07321
2010    6       3       0.3723623       86.8265
2010    6       4       0.3341577       79.95223
2010    6       5       0.2795433       69.58283
2010    6       6       0.2048393       54.12814
2010    6       7       0.1719417       46.98057
2010    7       0       0.1899279       51.37417
2010    7       1       0.3319749       81.77516
2010    7       2       0.3481213       85.30022
2010    7       3       0.3762282       90.76681
2010    7       4       0.3722585       89.82413
2010    7       5       0.355762        86.25406
2010    7       6       0.3566259       86.04719
2010    7       7       0.3621261       87.05168
2010    8       0       0.34725         84.14015
2010    8       1       0.565016        122.5549
2010    8       2       0.5829206       125.6568
2010    8       3       0.5931278       127.2541
2010    8       4       0.6463063       134.7307
2010    8       5       0.7016394       142.4518
2010    8       6       0.7708507       151.5426
2010    8       7       0.7646018       150.7605
2010    9       0       0.8232806       158.2041
2010    9       1       1.007807        178.6431
2010    9       2       0.9418005       171.7962
2010    9       3       0.7833304       153.6703
2010    9       4       0.7247649       145.925
2010    9       5       0.6674118       137.6675
2010    9       6       0.5155807       114.4473
2010    9       7       0.4802826       108.0197
2010    10      0       0.4610752       104.8228
2010    10      1       0.5158626       115.4525
2010    10      2       0.4964283       112.6954
2010    10      3       0.5435256       120.5342
2010    10      4       0.5000526       113.6415
2010    10      5       0.4475237       104.5604
2010    10      6       0.4442547       103.5854
2010    10      7       0.4380542       102.2064
2010    11      0       0.6304756       134.029
2010    11      1       0.4963913       112.5563
2010    11      2       0.6068385       130.6068
2010    11      3       0.6098947       130.7799
2010    11      4       0.7434278       148.4755
2010    11      5       1.206313        197.8472
2010    11      6       1.042027        182.251
2010    11      7       1.041367        181.8758
2010    12      0       1.033834        180.8926
2010    12      1       0.7928199       154.6344
2010    12      2       0.8508268       161.6483
2010    12      3       1.588824        223.3102
2010    12      4       1.434552        212.7413
2010    12      5       1.401792        210.6656
2010    12      6       1.304009        203.822
2010    12      7       1.184628        193.5023
2010    13      0       1.203281        194.472
2010    13      1       1.532262        217.3294
2010    13      2       1.128292        187.9857
2010    13      3       0.8701633       161.9219
2010    13      4       0.53168         116.3349
2010    13      5       0.6474586       134.035
2010    13      6       0.5936888       126.1835
2010    13      7       0.2014074       54.62655
2010    14      0       0.5673034       122.4506
2010    14      1       0.4690727       106.6408
2010    14      2       0.4910812       110.258
2010    14      3       0.4846649       109.6059
2010    14      4       0.5118788       114.439
2010    14      5       0.5069579       113.6055
2010    14      6       0.4767885       108.3906
2010    14      7       0.4194085       98.27841
2010    15      0       0.347702        84.78578
2010    15      1       0.5100248       113.9829
2010    15      2       0.5398961       119.0321
2010    15      3       0.6122834       130.103
2010    15      4       0.6817458       140.0389
2010    15      5       0.8004043       155.3723
2010    15      6       0.8381802       159.4938
2010    15      7       0.7419726       147.9004
2010    16      0       1.139535        188.6467
2010    16      1       1.066106        182.6527
2010    16      2       0.5513115       119.7438
2010    16      3       0.4723513       106.199
2010    16      4       0.5484898       119.1786
2010    16      5       0.6817302       138.0217
2010    16      6       0.3495799       82.42904
2010    16      7       0.3677386       85.51444
2010    17      0       0.4645873       103.0583
2010    17      1       0.2626625       66.08538
2010    17      2       0.2854124       70.75727
2010    17      3       0.3981334       91.78777
2010    17      4       0.410511        93.67923
2010    17      5       0.310694        75.15958
2010    17      6       0.3615087       84.05645
2010    17      7       0.4939533       104.9129
2010    18      0       0.7647412       142.6824
2010    18      1       0.7632335       142.3159
2010    18      2       0.5941423       121.1962
2010    18      3       0.6426648       127.9657
2010    18      4       0.8124413       149.5893
2010    18      5       0.4968242       106.8822
2010    18      6       0.2103025       54.63949
2010    18      7       0.1472421       40.93208
2010    19      0       0.156129        42.80979
2010    19      1       0.3498728       83.62834
2010    19      2       0.3968751       93.29538
2010    19      3       0.3733903       89.20369
2010    19      4       0.2906374       71.67349
2010    19      5       0.3788596       88.42869
2010    19      6       0.4662197       104.9379
2010    19      7       0.4681289       105.4599
2010    20      0       0.6141349       128.4754
2010    20      1       0.6586201       134.7214
2010    20      2       0.7042568       141.6495
2010    20      3       0.7408112       146.6464
2010    20      4       0.6771109       138.1493
2010    20      5       0.6623454       135.9761
2010    20      6       0.7047473       141.6194
2010    20      7       0.6609628       135.5858
2010    21      0       0.6960912       140.3761
2010    21      1       0.7528854       148.2653
2010    21      2       0.8238181       156.8734
2010    21      3       1.106157        185.256
2010    21      4       1.037374        179.4986
2010    21      5       0.7757425       151.4271
2010    21      6       0.7000857       141.6585
2010    21      7       0.6074215       128.4774
2010    22      0       0.6476683       133.7848
2010    22      1       0.7233271       144.5433
2010    22      2       0.7420568       146.7828
2010    22      3       0.7730004       150.4416
2010    22      4       0.7751208       150.1516
2010    22      5       0.556141        118.6124
2010    22      6       0.4922283       109.2841
2010    22      7       0.6101184       128.714
2010    23      0       0.6976869       142.1355
2010    23      1       0.5692783       123.9714
2010    23      2       0.3684783       89.59285
2010    23      3       0.3425508       84.22841
2010    23      4       0.3177104       79.24474
2010    23      5       0.2809771       71.5164
2010    23      6       0.1964116       52.91615
2010    23      7       0.1983779       53.00522
2010    24      0       0.2076027       55.49786
2010    24      1       0.3225531       79.98952
2010    24      2       0.331484        81.93482
2010    24      3       0.3335427       82.21619
2010    24      4       0.3385547       83.04706
2010    24      5       0.2933779       74.11469
2010    24      6       0.2396986       62.50621
2010    24      7       0.2090893       55.47066
2010    25      0       0.2720586       68.62939
2010    25      1       0.3677582       87.49025
2010    25      2       0.4179152       96.42955
2010    25      3       0.4052312       94.50957
2010    25      4       0.445483        101.5826
2010    25      5       0.4851725       108.1434
2010    25      6       0.4627206       104.7166
2010    25      7       0.3925365       92.13903
2010    26      0       0.4821224       107.2753
2010    26      1       0.7180944       140.9631
2010    26      2       0.7517403       146.4465
2010    26      3       0.8058624       153.4421
2010    26      4       0.698842        140.2606
2010    26      5       0.6195311       129.3063
2010    26      6       0.628618        130.3532
2010    26      7       0.614066        128.41
2010    27      0       0.6866931       138.5604
2010    27      1       0.7569777       148.2413
2010    27      2       0.7516614       147.8104
2010    27      3       0.6029128       127.743
2010    27      4       0.5258579       116.2273
2010    27      5       0.4605624       105.9277
2010    27      6       0.377203        90.69943
2010    27      7       0.1856979       50.92595
2010    28      0       0.2421549       63.11095
2010    28      1       0.4027471       94.84359
2010    28      2       0.2844893       71.60838
2010    28      3       0.2184077       57.72563
2010    28      4       0.2429448       63.03644
2010    28      5       0.3117467       77.17241
2010    28      6       0.3129292       77.7576
2010    28      7       0.2590594       66.78369
2010    29      0       0.2592624       66.82349
2010    29      1       0.3085473       77.01978
2010    29      2       0.3856565       91.82119
2010    29      3       0.4568654       104.7845
2010    29      4       0.5232652       116.528
2010    29      5       0.3785836       91.40879
2010    29      6       0.3224711       80.4251
2010    29      7       0.3069568       77.17045
2010    30      0       0.3761768       90.58811
2010    30      1       0.4783162       108.8769
2010    30      2       0.5829843       125.5999
2010    30      3       0.5905132       127.0591
2010    30      4       0.4772534       109.3185
2010    30      5       0.4187587       98.83436
2010    30      6       0.4036403       96.11791
2010    30      7       0.4173206       98.59416
2010    31      0       0.4481026       103.7876
2010    31      1       0.4537923       104.8282
2010    31      2       0.5754411       124.2179
2010    31      3       0.5925434       126.7431
2010    31      4       0.6075266       128.9558
2010    31      5       0.6679488       137.6346
2010    31      6       0.7119147       143.7001
2010    31      7       0.7489165       148.597
2011    1       0       0.9241793       168.1634
2011    1       1       1.09417         185.3319
2011    1       2       0.9217224       168.365
2011    1       3       1.175867        193.5259
2011    1       4       1.231577        198.3174
2011    1       5       1.530115        218.8167
2011    1       6       1.495833        216.2516
2011    1       7       1.314163        203.4455
2011    2       0       0.7655804       150.5496
2011    2       1       0.4212913       98.5932
2011    2       2       0.3464868       83.96286
2011    2       3       0.2570225       65.60531
2011    2       4       0.1751011       47.91546
2011    2       5       0.1509789       42.37887
2011    2       6       0.163631        44.98666
2011    2       7       0.1804149       48.31698
2011    3       0       0.1679685       45.8931
2011    3       1       0.3154715       77.52905
2011    3       2       0.4170007       96.97803
2011    3       3       0.4314066       99.48471
2011    3       4       0.3317337       81.0856
2011    3       5       0.2990157       74.50013
2011    3       6       0.2368056       61.5977
2011    3       7       0.1648709       45.58313
2011    4       0       0.2547723       65.15254
2011    4       1       0.5530326       119.4729
2011    4       2       0.7017695       141.2326
2011    4       3       0.4366665       100.2529
2011    4       4       0.4660224       105.1052
2011    4       5       0.5028326       111.4254
2011    4       6       0.4927409       109.5402
2011    4       7       0.52632         114.3759
2011    5       0       0.439884        99.86912
2011    5       1       0.6800542       137.1826
2011    5       2       0.8284784       155.5684
2011    5       3       0.8628773       159.3126
2011    5       4       0.7318813       143.9696
2011    5       5       0.6175465       128.7703
2011    5       6       0.4952535       110.4205
2011    5       7       0.4313034       100.0866
2011    6       0       0.6305785       132.1356
2011    6       1       0.6998581       142.1823
2011    6       2       0.5783352       124.773
2011    6       3       0.4980821       112.3982
2011    6       4       0.4839591       109.9612
2011    6       5       0.2123054       57.25979
2011    6       6       0.1668813       46.70794
2011    6       7       0.1911298       52.0365
2011    7       0       0.304851        76.49003
2011    7       1       0.4778663       108.9028
2011    7       2       0.5356207       118.6033
2011    7       3       0.4682677       107.2893
2011    7       4       0.4452557       103.321
2011    7       5       0.652146        136.0187
2011    7       6       0.777601        152.6066
2011    7       7       0.9109637       167.9375
2011    8       0       0.9457943       171.5754
2011    8       1       1.305658        204.0316
2011    8       2       1.094306        186.623
2011    8       3       0.9249308       170.0627
2011    8       4       0.8176574       157.8538
2011    8       5       0.7218666       145.521
2011    8       6       0.7939041       154.2559
2011    8       7       0.9388438       170.4733
2011    9       0       0.9069803       167.3693
2011    9       1       1.026983        180.4108
2011    9       2       1.676954        226.5143
2011    9       3       1.579263        219.593
2011    9       4       1.362783        205.0094
2011    9       5       1.601795        220.7485
2011    9       6       1.125584        187.2915
2011    9       7       0.7699347       149.6811
2011    10      0       1.042362        181.0586
2011    10      1       1.303531        203.3351
2011    10      2       1.170659        191.7789
2011    10      3       0.7402134       144.9543
2011    10      4       0.7398726       144.9032
2011    10      5       0.9704564       171.6687
2011    10      6       1.162707        189.3087
2011    10      7       1.478191        213.0995
2011    11      0       1.800013        231.2591
2011    11      1       2.053631        242.5007
2011    11      2       1.928186        237.613
2011    11      3       1.674986        226.3489
2011    11      4       1.687744        226.8003
2011    11      5       1.568915        220.2111
2011    11      6       1.641633        223.534
2011    11      7       1.711368        227.9306
2011    12      0       1.303506        203.7134
2011    12      1       2.06097         244.4933
2011    12      2       1.980347        240.1468
2011    12      3       1.751082        229.528
2011    12      4       1.936452        238.2557
2011    12      5       1.885959        236.2893
2011    12      6       2.325545        252.565
2011    12      7       2.084431        245.7062
2011    13      0       1.569963        222.0718
2011    13      1       2.302698        252.3613
2011    13      2       1.978925        241.1223
2011    13      3       2.000038        241.6635
2011    13      4       2.107395        245.8053
2011    13      5       1.944326        240.405
2011    13      6       1.768618        232.7539
2011    13      7       1.708352        230.1935
2011    14      0       1.856114        237.6354
2011    14      1       2.333545        255.6203
2011    14      2       2.231846        252.96
2011    14      3       2.649333        262.2197
2011    14      4       1.2891          206.7025
2011    14      5       0.3962225       96.12672
2011    14      6       0.1074457       33.08472
2011    14      7       0.08710981      27.96299
2011    15      0       0.09536919      30.06716
2011    15      1       0.1762262       49.86634
2011    15      2       0.1948849       54.23019
2011    15      3       0.2482432       66.20682
2011    15      4       0.4699716       109.2296
2011    15      5       0.5123481       116.1806
2011    15      6       0.451817        105.2927
2011    15      7       0.5030202       113.286
2011    16      0       0.5502164       120.6964
2011    16      1       0.5698345       124.4438
2011    16      2       0.5076992       114.8629
2011    16      3       0.4990743       113.2481
2011    16      4       0.490906        111.7646
2011    16      5       0.6372189       134.7659
2011    16      6       0.655347        137.4164
2011    16      7       0.3219927       80.5303
2011    17      0       0.1668241       46.537
2011    17      1       0.139494        40.18574
2011    17      2       0.1481135       42.33946
2011    17      3       0.1938111       53.12891
2011    17      4       0.2759029       70.79081
2011    17      5       0.2697105       69.29133
2011    17      6       0.2273318       60.13502
2011    17      7       0.178575        49.02712
2011    18      0       0.1963063       53.25146
2011    18      1       0.4002609       94.90892
2011    18      2       0.473916        107.9557
2011    18      3       0.4496491       103.6023
2011    18      4       0.4377104       101.479
2011    18      5       0.332578        81.58859
2011    18      6       0.2745522       69.74233
2011    18      7       0.2233692       58.51397
2011    19      0       0.1985394       53.44673
2011    19      1       0.4104834       96.31678
2011    19      2       0.4777255       108.1739
2011    19      3       0.4520153       103.8381
2011    19      4       0.4507968       103.7442
2011    19      5       0.34654         84.65488
2011    19      6       0.3010502       75.50963
2011    19      7       0.3484317       84.78248
2011    20      0       0.5103881       113.6461
2011    20      1       0.7546099       149.4897
2011    20      2       0.7404509       147.9157
2011    20      3       0.6278355       132.3359
2011    20      4       0.4634933       106.1961
2011    20      5       0.4759683       108.5228
2011    20      6       0.5024709       112.9683
2011    20      7       0.5130065       114.3892
2011    21      0       0.5449684       119.3355
2011    21      1       0.7388701       146.7722
2011    21      2       0.8938955       164.5688
2011    21      3       0.891453        164.6427
2011    21      4       0.6565782       135.5745
2011    21      5       0.5838081       125.1217
2011    21      6       0.6938861       140.668
2011    21      7       0.9289037       168.8378
2011    22      0       0.9877949       173.8975
2011    22      1       1.050554        178.9959
2011    22      2       1.122703        186.1662
2011    22      3       1.426916        210.9652
2011    22      4       1.421059        210.8993
2011    22      5       1.006845        177.134
2011    22      6       1.21163         195.1035
2011    22      7       0.8506068       159.1121
2011    23      0       0.8606723       160.0581
2011    23      1       0.9721394       173.2072
2011    23      2       0.847491        160.5114
2011    23      3       0.7264528       145.8878
2011    23      4       0.6688255       137.8097
2011    23      5       0.6112993       129.8743
2011    23      6       0.827456        157.7165
2011    23      7       1.220102        195.0915
2011    24      0       1.167118        190.2076
2011    24      1       0.9464308       170.5073
2011    24      2       0.5384728       118.7761
2011    24      3       0.5382855       119.0212
2011    24      4       0.5698813       124.2863
2011    24      5       0.6067993       127.7903
2011    24      6       0.4733147       104.9777
2011    24      7       0.5604613       120.0145
2011    25      0       0.9768434       175.5709
2011    25      1       0.9959563       177.5186
2011    25      2       0.8344473       159.9931
2011    25      3       0.8049877       157.2185
2011    25      4       0.9151511       169.6824
2011    25      5       1.147947        191.7515
2011    25      6       1.266098        201.581
2011    25      7       1.096224        187.5877
2011    26      0       0.8430714       161.6876
2011    26      1       0.8397592       161.7236
2011    26      2       0.7452193       150.4902
2011    26      3       0.4557516       104.5174
2011    26      4       0.2037029       53.99092
2011    26      5       0.1839116       49.18663
2011    26      6       0.4854701       106.3254
2011    26      7       1.042066        180.8241
2011    27      0       0.9346715       170.6391
2011    27      1       0.3783256       88.55719
2011    27      2       0.2310495       59.53079
2011    27      3       0.1381739       39.36529
2011    27      4       0.1428995       41.0875
2011    27      5       0.08246349      25.98595
2011    27      6       0.07765424      24.13157
2011    27      7       0.1006181       29.92164
2011    28      0       0.1282944       36.9649
2011    28      1       0.2002468       53.79243
2011    28      2       0.2453074       63.82375
2011    28      3       0.2419179       63.2584
2011    28      4       0.2346127       61.66397
2011    28      5       0.1897125       51.47548
2011    28      6       0.1812755       49.51092
2011    28      7       0.1861307       50.56363
2011    29      0       0.1595898       44.72167
2011    29      1       0.2830819       72.01017
2011    29      2       0.3852483       92.1368
2011    29      3       0.3562417       87.26189
2011    29      4       0.4318685       99.55886
2011    29      5       0.4135226       95.01934
2011    29      6       0.5847253       125.4992
2011    29      7       0.7340231       148.0536
2011    30      0       0.8837313       166.4375
2011    30      1       0.9869001       177.3819
2011    30      2       1.179391        195.7684
2011    30      3       0.9987366       178.8981
2011    30      4       0.9915479       178.5284
2011    30      5       1.033297        182.5528
2011    30      6       1.089579        187.8076
2011    30      7       1.087248        187.8227
2011    31      0       1.040347        183.6022
2011    31      1       0.9791903       177.5214
2011    31      2       0.9213538       171.3275
2011    31      3       0.8685227       165.286
2011    31      4       0.8526901       163.3294
2011    31      5       0.7623439       152.205
2011    31      6       0.7211154       146.8793
2011    31      7       0.610957        131.6529
2012    1       0       0.4807517       108.5451
2012    1       1       0.5707349       122.9742
2012    1       2       0.7477772       147.6686
2012    1       3       0.7493412       147.7962
2012    1       4       0.7386481       146.2914
2012    1       5       0.6898636       139.8836
2012    1       6       0.6859773       139.2849
2012    1       7       0.691733        140.0892
2012    2       0       0.7176435       143.6527
2012    2       1       0.8945377       165.6283
2012    2       2       0.9439836       171.0573
2012    2       3       0.9375008       170.1712
2012    2       4       1.013584        178.0448
2012    2       5       1.121328        188.1986
2012    2       6       1.099812        186.5552
2012    2       7       1.03103         180.4475
2012    3       0       1.069073        184.0751
2012    3       1       1.079158        184.9506
2012    3       2       1.028549        180.104
2012    3       3       0.8555825       161.6467
2012    3       4       0.8544577       161.342
2012    3       5       0.9057055       166.4723
2012    3       6       0.7497003       147.3054
2012    3       7       0.8550284       159.4949
2012    4       0       0.9488728       169.1193
2012    4       1       1.141475        187.3969
2012    4       2       0.7471696       147.6434
2012    4       3       0.5407239       118.8484
2012    4       4       0.2783469       71.37567
2012    4       5       0.3471898       85.11492
2012    4       6       0.4619905       105.9291
2012    4       7       0.4630195       105.8621
2012    5       0       0.3023914       75.35524
2012    5       1       0.2563848       65.4518
2012    5       2       0.1534434       42.9535
2012    5       3       0.1574899       43.00954
2012    5       4       0.2333187       59.11642
2012    5       5       0.1877786       50.16287
2012    5       6       0.08910521      27.70853
2012    5       7       0.06298171      21.11006
2012    6       0       0.08051128      25.50176
2012    6       1       0.1973601       53.68333
2012    6       2       0.2521871       65.18955
2012    6       3       0.2820452       71.40668
2012    6       4       0.2682583       68.34015
2012    6       5       0.1693164       46.0482
2012    6       6       0.2235276       57.35131
2012    6       7       0.4467289       99.26432
2012    7       0       0.5841545       122.0184
2012    7       1       0.835196        155.8119
2012    7       2       1.270335        198.0154
2012    7       3       1.50339         215.1204
2012    7       4       1.071569        180.5264
2012    7       5       1.106824        184.2954
2012    7       6       1.303711        200.8579
2012    7       7       1.20516         194.0661
2012    8       0       1.441105        212.2799
2012    8       1       1.636293        223.6296
2012    8       2       1.819467        232.4874
2012    8       3       0.6737899       138.6618
2012    8       4       0.3610286       88.6662
2012    8       5       0.4635751       106.9655
2012    8       6       0.262334        68.40934
2012    8       7       0.04827176      17.34949
2012    9       0       0.08737905      27.47902
2012    9       1       0.2197934       58.66251
2012    9       2       0.2540843       66.0153
2012    9       3       0.2800951       71.43185
2012    9       4       0.2845861       71.6677
2012    9       5       0.2571807       65.3666
2012    9       6       0.2456191       62.93163
2012    9       7       0.2718057       68.30465
2012    10      0       0.3808077       89.89197
2012    10      1       0.7664405       149.6185
2012    10      2       0.6793073       138.2533
2012    10      3       0.7874619       152.11
2012    10      4       0.3962057       91.51333
2012    10      5       0.3458861       81.89853
2012    10      6       0.274915        68.01037
2012    10      7       0.6592094       131.4884
2012    11      0       0.7566165       143.6574
2012    11      1       0.4859865       104.2054
2012    11      2       0.4612026       100.4773
2012    11      3       0.344466        81.2953
2012    11      4       0.3411013       81.31135
2012    11      5       0.215074        55.42272
2012    11      6       0.2200446       56.68775
2012    11      7       0.323423        78.09081
2012    12      0       0.3991463       92.36658
2012    12      1       0.4310008       98.7273
2012    12      2       0.4854688       107.5669
2012    12      3       0.5171574       113.3064
2012    12      4       0.4025322       93.23811
2012    12      5       0.3394901       81.78919
2012    12      6       0.3056022       75.36565
2012    12      7       0.2477328       63.41251
2012    13      0       0.3267042       78.54591
2012    13      1       0.4905367       107.6993
2012    13      2       0.4231535       97.31075
2012    13      3       0.3491981       84.31642
2012    13      4       0.3755311       89.12458
2012    13      5       0.354593        85.02534
2012    13      6       0.3078344       75.88706
2012    13      7       0.2807622       70.35915
2012    14      0       0.374975        88.2986
2012    14      1       0.4276824       97.88843
2012    14      2       0.5474111       117.2771
2012    14      3       0.5888017       123.6419
2012    14      4       0.4557781       103.0521
2012    14      5       0.4471926       101.5155
2012    14      6       0.477535        106.4329
2012    14      7       0.5259262       114.0488
2012    15      0       0.771545        147.7447
2012    15      1       1.040833        177.8298
2012    15      2       0.8519273       158.3428
2012    15      3       0.6846251       138.0452
2012    15      4       0.4749938       106.611
2012    15      5       0.3925976       92.12363
2012    15      6       0.3810809       89.93571
2012    15      7       0.3826477       90.23458
2012    16      0       0.3958831       92.79204
2012    16      1       0.5943837       125.8119
2012    16      2       0.9125199       166.0875
2012    16      3       0.8683333       161.2784
2012    16      4       0.6501671       133.8232
2012    16      5       0.5589613       120.3905
2012    16      6       0.4811949       108.0241
2012    16      7       0.3554267       85.56951
2012    17      0       0.2982528       74.2887
2012    17      1       0.4077497       95.32623
2012    17      2       0.4212143       97.86207
2012    17      3       0.4073241       95.41938
2012    17      4       0.3974094       93.4202
2012    17      5       0.3344716       81.62291
2012    17      6       0.3711637       88.39667
2012    17      7       0.5586319       120.4157
2012    18      0       0.6944224       138.5058
2012    18      1       0.8225902       155.0891
2012    18      2       0.6348428       131.4631
2012    18      3       0.5702261       122.2848
2012    18      4       0.6956737       140.6015
2012    18      5       0.5327385       117.0663
2012    18      6       0.7043022       142.2571
2012    18      7       0.6511126       135.2873
2012    19      0       0.6544325       135.5434
2012    19      1       0.7403752       147.1485
2012    19      2       0.749086        148.6304
2012    19      3       0.7043937       142.6261
2012    19      4       0.5654206       122.8874
2012    19      5       0.5330832       118.0657
2012    19      6       0.5697766       123.3449
2012    19      7       0.5848162       125.4134
2012    20      0       0.664155        136.4519
2012    20      1       1.017024        177.8069
2012    20      2       0.9396782       169.8844
2012    20      3       0.8522706       160.3998
2012    20      4       0.7714977       150.9069
2012    20      5       0.7601363       150.1215
2012    20      6       0.803202        154.833
2012    20      7       0.9175654       167.1388
2012    21      0       1.234857        195.7717
2012    21      1       1.250987        196.5621
2012    21      2       1.156636        189.2769
2012    21      3       0.9596318       171.2435
2012    21      4       0.6249384       130.2613
2012    21      5       0.4009313       93.98123
2012    21      6       0.2538873       65.31034
2012    21      7       0.1835126       50.07581
2012    22      0       0.1925253       52.08507
2012    22      1       0.385374        91.61428
2012    22      2       0.393179        93.24691
2012    22      3       0.2259046       59.83324
2012    22      4       0.123219        36.09354
2012    22      5       0.09306058      28.58317
2012    22      6       0.1037056       31.1943
2012    22      7       0.1290718       37.32856
2012    23      0       0.1644699       45.6189
2012    23      1       0.355935        86.06577
2012    23      2       0.4154762       97.18008
2012    23      3       0.4391716       101.4125
2012    23      4       0.3580707       86.60187
2012    23      5       0.3414008       83.21755
2012    23      6       0.3565521       85.87302
2012    23      7       0.3504411       84.71823
2012    24      0       0.4190056       97.41086
2012    24      1       0.5326763       116.7554
2012    24      2       0.7730904       150.5644
2012    24      3       0.8945683       164.8323
2012    24      4       0.8547968       160.3828
2012    24      5       0.7946454       153.0453
2012    24      6       0.714846        142.8865
2012    24      7       0.5945456       126.192
2012    25      0       0.5670892       121.7667
2012    25      1       0.6145594       128.7455
2012    25      2       0.6681645       136.3721
2012    25      3       0.6343457       131.9654
2012    25      4       0.6249517       130.6657
2012    25      5       0.4639577       105.4414
2012    25      6       0.4428381       101.6224
2012    25      7       0.4133817       96.30015
2012    26      0       0.456869        104.3426
2012    26      1       0.4794475       108.8123
2012    26      2       0.6215331       130.7848
2012    26      3       0.6818938       139.1522
2012    26      4       0.5960592       127.3856
2012    26      5       0.5664131       122.76
2012    26      6       0.5837829       125.1924
2012    26      7       0.5573213       121.1472
2012    27      0       0.5731189       123.34
2012    27      1       0.5942388       126.7701
2012    27      2       0.7876534       152.9984
2012    27      3       0.7440441       147.7097
2012    27      4       0.6476811       134.6497
2012    27      5       0.6354496       132.1861
2012    27      6       0.6521576       134.5142
2012    27      7       0.7092136       142.4696
2012    28      0       0.7442532       147.0333
2012    28      1       0.91421         167.1621
2012    28      2       1.292143        201.1825
2012    28      3       1.340002        204.9471
2012    28      4       1.004084        176.4183
2012    28      5       0.8726846       162.4879
2012    28      6       0.7713417       150.0472
2012    28      7       0.633288        131.3794
2012    29      0       0.7337024       145.0962
2012    29      1       0.8341783       157.6016
2012    29      2       0.9835477       174.1066
2012    29      3       1.20875         194.5864
2012    29      4       1.45689         213.2553
2012    29      5       1.894992        237.9755
2012    29      6       2.140139        248.4159
2012    29      7       1.572166        222.2162
2012    30      0       1.783556        234.0829
2012    30      1       1.370494        209.063
2012    30      2       1.963745        239.0336
2012    30      3       1.950149        238.6126
2012    30      4       0.8326878       159.9699
2012    30      5       0.3181839       80.49644
2012    30      6       0.07379833      24.04231
2012    30      7       0.08804021      27.56527
2012    31      0       0.0649867       21.47848
2012    31      1       0.1847302       50.88424
2012    31      2       0.2858037       72.73
2012    31      3       0.3349007       82.69389
2012    31      4       0.3899195       93.19771
2012    31      5       0.2683129       68.77329
2012    31      6       0.2569471       66.10533
2012    31      7       0.2516507       64.81612
2013    1       0       0.1979804       53.46998
2013    1       1       0.31635         78.52591
2013    1       2       0.2824223       71.86143
2013    1       3       0.2701487       69.248
2013    1       4       0.3264797       80.8129
2013    1       5       0.3617735       87.70033
2013    1       6       0.2652847       67.89059
2013    1       7       0.1626125       44.57813
2013    2       0       0.1669525       45.09162
2013    2       1       0.2997972       73.6622
2013    2       2       0.4056824       93.4351
2013    2       3       0.4948316       109.2608
2013    2       4       0.5915071       125.0273
2013    2       5       0.6984689       141.2279
2013    2       6       0.7167632       144.1355
2013    2       7       0.7320622       146.2379
2013    3       0       0.7878974       152.8238
2013    3       1       0.8267806       157.6902
2013    3       2       0.8456002       160.2784
2013    3       3       0.8008657       155.4304
2013    3       4       0.6958714       142.2261
2013    3       5       0.5820274       125.5621
2013    3       6       0.5105832       113.8988
2013    3       7       0.5066939       113.1998
2013    4       0       0.493368        111.4632
2013    4       1       0.5150327       115.7123
2013    4       2       0.5194693       116.5938
2013    4       3       0.5276247       118.177
2013    4       4       0.6044854       130.3422
2013    4       5       0.710337        145.9012
2013    4       6       0.5427314       121.1089
2013    4       7       0.4469144       104.5643
2013    5       0       0.5693322       124.8897
2013    5       1       0.73587         149.3431
2013    5       2       0.7825424       155.0383
2013    5       3       0.8452832       162.1014
2013    5       4       0.7433211       149.2333
2013    5       5       0.8158198       157.8827
2013    5       6       0.8531553       162.3875
2013    5       7       0.7519951       149.9563
2013    6       0       0.6230885       132.417
2013    6       1       0.6244796       132.6138
2013    6       2       0.6974644       142.8181
2013    6       3       0.8230793       158.9226
2013    6       4       0.7343028       148.5621
2013    6       5       0.6629273       139.0709
2013    6       6       0.5660689       124.296
2013    6       7       0.585317        127.1146
2013    7       0       0.6133357       131.1295
2013    7       1       0.6667221       138.9511
2013    7       2       0.6753516       140.1657
2013    7       3       0.7633416       152.1935
2013    7       4       1.071829        185.3383
2013    7       5       0.8307128       159.7364
2013    7       6       0.7470405       149.2484
2013    7       7       0.6788089       139.9111
2013    8       0       0.8074697       156.1615
2013    8       1       1.011113        176.8479
2013    8       2       0.5741744       123.5579
2013    8       3       0.6585648       136.5872
2013    8       4       0.6348404       133.1501
2013    8       5       0.5340953       116.9221
2013    8       6       0.1118537       33.26129
2013    8       7       0.1328804       38.00347
2013    9       0       0.2401627       62.43526
2013    9       1       0.3079771       76.91605
2013    9       2       0.2771429       70.85178
2013    9       3       0.2758257       70.57234
2013    9       4       0.2671084       68.2503
2013    9       5       0.2548684       65.75445
2013    9       6       0.2273159       60.05012
2013    9       7       0.2200716       58.10344
2013    10      0       0.2352306       61.24535
2013    10      1       0.3050121       76.09749
2013    10      2       0.3269572       80.63652
2013    10      3       0.3292652       81.59982
2013    10      4       0.3457373       84.24451
2013    10      5       0.3867587       91.19844
2013    10      6       0.4486358       101.9471
2013    10      7       0.5416919       115.306
2013    11      0       0.4569593       105.1474
2013    11      1       0.6669579       137.8879
2013    11      2       0.571774        123.8271
2013    11      3       0.468923        107.5222
2013    11      4       0.4238966       99.85935
2013    11      5       0.4705326       107.8592
2013    11      6       0.5844124       126.1236
2013    11      7       0.5067571       110.2508
2013    12      0       1.230848        197.6627
2013    12      1       1.259071        199.9272
2013    12      2       1.198675        192.7777
2013    12      3       0.8139584       156.1373
2013    12      4       0.9231414       165.5894
2013    12      5       0.9400759       167.5908
2013    12      6       1.214467        194.5705
2013    12      7       1.123891        185.2746
2013    13      0       1.313709        200.8462
2013    13      1       1.388599        205.7653
2013    13      2       1.202396        190.0948
2013    13      3       0.7990662       149.1258
2013    13      4       0.2844868       71.49963
2013    13      5       0.1561121       43.35783
2013    13      6       0.1323854       37.86061
2013    13      7       0.1354672       38.52549
2013    14      0       0.1942603       51.95556
2013    14      1       0.3876532       91.69297
2013    14      2       0.4604361       104.1463
2013    14      3       0.4698196       106.0959
2013    14      4       0.4005343       94.36994
2013    14      5       0.3447478       83.93988
2013    14      6       0.3391576       82.90959
2013    14      7       0.3345191       82.30395
2013    15      0       0.3484366       84.78349
2013    15      1       0.4470636       102.7279
2013    15      2       0.4745612       107.585
2013    15      3       0.4543471       104.4357
2013    15      4       0.4084355       96.44453
2013    15      5       0.3487136       85.32855
2013    15      6       0.310707        77.52945
2013    15      7       0.259395        66.62164
2013    16      0       0.2473955       63.85612
2013    16      1       0.3458166       83.81949
2013    16      2       0.4514032       101.7949
2013    16      3       0.3516401       84.96194
2013    16      4       0.4155838       96.78836
2013    16      5       0.4590862       104.3262
2013    16      6       0.3833802       90.85114
2013    16      7       0.427071        98.088
2013    17      0       0.5681179       121.177
2013    17      1       0.8405633       158.639
2013    17      2       0.8958512       164.0737
2013    17      3       0.7532492       147.8319
2013    17      4       0.6638205       136.238
2013    17      5       0.7998409       155.1832
2013    17      6       1.037584        181.7151
2013    17      7       1.265522        202.6277
2013    18      0       1.086435        187.444
2013    18      1       1.08289         187.3839
2013    18      2       0.9877271       178.1761
2013    18      3       1.33805         207.7357
2013    18      4       0.8670938       164.4441
2013    18      5       0.5150112       114.9209
2013    18      6       0.2444863       62.50996
2013    18      7       0.1700019       46.28262
2013    19      0       0.3112242       76.26305
2013    19      1       0.5416618       117.6573
2013    19      2       0.493567        110.8767
2013    19      3       0.4875674       110.197
2013    19      4       0.4209846       99.01061
2013    19      5       0.4469223       103.5842
2013    19      6       0.4985782       112.3745
2013    19      7       0.3858092       92.33328
2013    20      0       0.4044006       95.66533
2013    20      1       0.4997238       112.45
2013    20      2       0.4987517       112.3958
2013    20      3       0.5008211       112.6526
2013    20      4       0.4968245       112.2444
2013    20      5       0.5483592       120.817
2013    20      6       0.5409134       119.4652
2013    20      7       0.5705399       124.0027
2013    21      0       0.821458        157.2288
2013    21      1       1.064857        183.5311
2013    21      2       1.020562        179.7848
2013    21      3       0.94074         171.8782
2013    21      4       0.8342546       159.7355
2013    21      5       0.6980595       142.8587
2013    21      6       0.6373235       134.5265
2013    21      7       0.4480508       103.8476
2013    22      0       0.3124339       78.03268
2013    22      1       0.2793497       71.15768
2013    22      2       0.2481934       64.77821
2013    22      3       0.2285044       60.65467
2013    22      4       0.2125136       57.08669
2013    22      5       0.1624578       45.46482
2013    22      6       0.183277        49.90529
2013    22      7       0.1947315       52.2017
2013    23      0       0.3022339       75.06205
2013    23      1       0.4142641       96.51504
2013    23      2       0.4433128       101.6073
2013    23      3       0.4610144       104.7741
2013    23      4       0.434125        100.72
2013    23      5       0.3619258       87.56582
2013    23      6       0.3380992       83.02096
2013    23      7       0.2845353       72.32301
2013    24      0       0.257472        66.84767
2013    24      1       0.3848611       92.62732
2013    24      2       0.3793711       91.9433
2013    24      3       0.4013636       96.12562
2013    24      4       0.4212546       99.67425
2013    24      5       0.4350957       101.8271
2013    24      6       0.4299555       100.8143
2013    24      7       0.3900083       93.26862
2013    25      0       0.3878683       92.23702
2013    25      1       0.7531603       149.4269
2013    25      2       0.9314554       170.1642
2013    25      3       1.099187        185.3437
2013    25      4       0.9271006       169.4801
2013    25      5       0.8170721       156.7462
2013    25      6       0.8188319       156.5954
2013    25      7       0.8160887       156.3904
2013    26      0       0.994976        175.6783
2013    26      1       1.254924        199.1907
2013    26      2       1.361945        207.3319
2013    26      3       1.570489        220.855
2013    26      4       1.14101         190.2207
2013    26      5       1.040241        180.0726
2013    26      6       0.7415785       147.189
2013    26      7       0.6530991       135.7937
2013    27      0       0.4881904       110.2401
2013    27      1       0.4386215       101.666
2013    27      2       0.3880387       92.82954
2013    27      3       0.4148941       97.78182
2013    27      4       0.5237131       116.4059
2013    27      5       0.5900493       127.2043
2013    27      6       0.6139742       130.7827
2013    27      7       0.7074539       143.7798
2013    28      0       1.341223        206.9495
2013    28      1       1.62288         223.7677
2013    28      2       2.045455        242.5432
2013    28      3       1.900927        236.0987
2013    28      4       1.741815        228.1995
2013    28      5       1.564196        218.5182
2013    28      6       1.411202        209.6464
2013    28      7       1.25225         198.6221
2013    29      0       0.8654352       162.1234
2013    29      1       0.8114403       155.5845
2013    29      2       0.7044053       142.0064
2013    29      3       0.5462958       119.1502
2013    29      4       0.4661251       106.2429
2013    29      5       0.361075        88.0245
2013    29      6       0.2114289       55.95476
2013    29      7       0.1752355       47.94686
2013    30      0       0.1926928       52.24037
2013    30      1       0.3025654       75.86125
2013    30      2       0.3546993       85.83868
2013    30      3       0.3683751       88.19778
2013    30      4       0.3543054       85.5434
2013    30      5       0.3346999       81.78831
2013    30      6       0.3073386       76.37175
2013    30      7       0.3211821       78.72466
2013    31      0       0.322104        78.8785
2013    31      1       0.3378375       82.4335
2013    31      2       0.3271751       80.35959
2013    31      3       0.3517706       84.81185
2013    31      4       0.3819602       90.4414
2013    31      5       0.4031806       94.23213
2013    31      6       0.4667593       104.744
2013    31      7       0.5022356       109.8104
2014    1       0       0.4405549       98.38373
2014    1       1       0.9890327       171.1094
2014    1       2       1.331818        201.7628
2014    1       3       1.128969        186.1976
2014    1       4       1.442083        211.295
2014    1       5       1.404426        212.5436
2014    1       6       1.174232        193.6178
2014    1       7       0.3050421       76.27463
2014    2       0       0.1935372       49.86358
2014    2       1       0.6709724       135.2263
2014    2       2       0.6560664       134.0911
2014    2       3       0.4037215       93.72544
2014    2       4       0.5461958       116.9235
2014    2       5       1.24258         197.8137
2014    2       6       1.387709        209.1899
2014    2       7       1.486479        216.6008
2014    3       0       1.714532        229.8281
2014    3       1       1.838523        235.4665
2014    3       2       1.335093        207.0086
2014    3       3       0.7532546       150.2595
2014    3       4       0.3145157       78.7965
2014    3       5       0.09779466      30.16246
2014    3       6       0.05429843      18.9328
2014    3       7       0.05305284      18.55447
2014    4       0       0.06037882      20.33658
2014    4       1       0.194893        52.98995
2014    4       2       0.3152303       78.56184
2014    4       3       0.3637914       87.93841
2014    4       4       0.3010051       75.80236
2014    4       5       0.2494358       65.04118
2014    4       6       0.1865136       50.51006
2014    4       7       0.1959993       52.46817
2014    5       0       0.2684613       67.89562
2014    5       1       0.3922113       92.12212
2014    5       2       0.4608796       104.1939
2014    5       3       0.5594015       119.5682
2014    5       4       0.4716298       105.4041
2014    5       5       0.07714464      24.61641
2014    5       6       0.1031225       30.9141
2014    5       7       0.08403228      25.97133
2014    6       0       0.1200353       34.76921
2014    6       1       0.233631        60.33603
2014    6       2       0.2840633       70.6994
2014    6       3       0.2556728       65.09929
2014    6       4       0.1843847       49.54205
2014    6       5       0.1816129       48.97143
2014    6       6       0.1805581       48.66999
2014    6       7       0.1707681       46.44119
2014    7       0       0.2424235       62.31178
2014    7       1       0.312586        76.60531
2014    7       2       0.3236536       79.08789
2014    7       3       0.3292016       80.67025
2014    7       4       0.311507        78.11129
2014    7       5       0.2922164       73.58435
2014    7       6       0.2685614       68.98863
2014    7       7       0.2784618       70.85412
2014    8       0       0.3881636       92.08243
2014    8       1       0.4535662       103.1251
2014    8       2       0.5242752       115.0431
2014    8       3       0.5998168       126.6836
2014    8       4       0.5875098       124.9492
2014    8       5       0.5780594       123.0401
2014    8       6       0.5635371       120.633
2014    8       7       0.5785117       122.5386
2014    9       0       0.6461743       131.8917
2014    9       1       0.7253542       142.7547
2014    9       2       0.750553        146.3134
2014    9       3       0.7932336       151.4797
2014    9       4       0.7926409       151.2911
2014    9       5       0.7717552       148.6877
2014    9       6       0.7415482       144.9845
2014    9       7       0.6839006       137.4915
2014    10      0       0.7270021       143.2168
2014    10      1       0.8214216       155.4938
2014    10      2       0.842117        158.3228
2014    10      3       0.8347357       158.0262
2014    10      4       0.8699251       162.1286
2014    10      5       0.7607836       149.2095
2014    10      6       0.7109411       142.7371
2014    10      7       0.665431        136.2905
2014    11      0       0.8691669       160.848
2014    11      1       1.073104        182.5265
2014    11      2       1.181574        192.8001
2014    11      3       0.9784885       174.8478
2014    11      4       0.9113163       168.1028
2014    11      5       0.9080291       167.6846
2014    11      6       0.7164751       145.1355
2014    11      7       0.5318951       118.523
2014    12      0       0.4806114       109.7326
2014    12      1       0.4808621       109.8702
2014    12      2       0.4605296       105.9857
2014    12      3       0.3420266       84.2301
2014    12      4       0.2797964       71.8503
2014    12      5       0.2766855       70.83104
2014    12      6       0.2835204       71.8886
2014    12      7       0.2928855       73.82773
2014    13      0       0.2766921       70.44056
2014    13      1       0.4672053       107.0991
2014    13      2       0.513967        115.2793
2014    13      3       0.5440404       120.2411
2014    13      4       0.5016892       113.7092
2014    13      5       0.472189        108.7696
2014    13      6       0.4561231       105.7229
2014    13      7       0.4519735       104.6639
2014    14      0       0.4747257       108.4166
2014    14      1       0.5779768       125.5347
2014    14      2       0.5778782       126.0121
2014    14      3       0.6076938       130.6187
2014    14      4       0.5510645       122.0337
2014    14      5       0.4876558       111.7221
2014    14      6       0.4439926       103.8395
2014    14      7       0.4118435       97.62339
2014    15      0       0.5312718       118.174
2014    15      1       0.5993437       129.0911
2014    15      2       0.6612042       138.3661
2014    15      3       0.7883056       155.1453
2014    15      4       0.795862        155.7984
2014    15      5       0.7511524       150.0275
2014    15      6       0.7423298       148.5993
2014    15      7       0.7463527       149.137
2014    16      0       0.6266223       132.8487
2014    16      1       0.6377964       134.8346
2014    16      2       0.833057        160.3766
2014    16      3       1.155093        192.1851
2014    16      4       0.7976495       154.7323
2014    16      5       0.6323427       132.2495
2014    16      6       0.5643932       122.0324
2014    16      7       0.5074038       113.3392
2014    17      0       0.4294084       100.7248
2014    17      1       0.3932894       94.75912
2014    17      2       0.3979482       95.56533
2014    17      3       0.3787463       91.9529
2014    17      4       0.3563202       87.49433
2014    17      5       0.455209        105.8465
2014    17      6       0.6260872       133.3606
2014    17      7       0.6597285       137.4985
2014    18      0       0.6949898       142.3249
2014    18      1       0.7352668       147.702
2014    18      2       0.8483083       161.6518
2014    18      3       1.030005        180.7956
2014    18      4       0.7567617       149.9335
2014    18      5       0.9263366       168.6574
2014    18      6       0.8529214       161.3065
2014    18      7       0.8285718       158.5421
2014    19      0       0.7626419       150.287
2014    19      1       0.9027237       166.9209
2014    19      2       0.9569591       173.3101
2014    19      3       0.879618        164.9896
2014    19      4       0.5823836       126.1237
2014    19      5       0.4982605       112.4694
2014    19      6       0.3414381       84.1322
2014    19      7       0.261197        67.54933
2014    20      0       0.4617267       107.3225
2014    20      1       0.5101616       114.707
2014    20      2       0.5747075       124.9488
2014    20      3       0.7046709       143.349
2014    20      4       0.5713394       124.3323
2014    20      5       0.5214212       116.3007
2014    20      6       0.4738061       108.2173
2014    20      7       0.5052121       113.3041
2014    21      0       0.6299846       132.4286
2014    21      1       0.5210726       116.0375
2014    21      2       0.4836365       109.7916
2014    21      3       0.4798955       109.1165
2014    21      4       0.4211194       99.24037
2014    21      5       0.38738         92.85732
2014    21      6       0.3543896       86.47074
2014    21      7       0.2774545       70.87907
2014    22      0       0.3146491       78.25841
2014    22      1       0.3814766       91.22249
2014    22      2       0.4153283       97.05906
2014    22      3       0.4403289       101.224
2014    22      4       0.3873328       92.16564
2014    22      5       0.2920483       73.77127
2014    22      6       0.2421376       63.33931
2014    22      7       0.2200467       58.51414
2014    23      0       0.2676437       68.88223
2014    23      1       0.3846095       92.12196
2014    23      2       0.4787307       108.3878
2014    23      3       0.459926        105.3733
2014    23      4       0.3788598       90.94135
2014    23      5       0.3822368       91.33491
2014    23      6       0.638531        132.7312
2014    23      7       1.501723        214.4337
2014    24      0       1.744549        227.3858
2014    24      1       1.689678        223.9256
2014    24      2       1.702697        224.5665
2014    24      3       0.9541315       170.7346
2014    24      4       0.2060814       55.09573
2014    24      5       0.1612738       44.832
2014    24      6       0.1604206       44.53877
2014    24      7       0.1787961       48.66353
2014    25      0       0.1791907       48.55588
2014    25      1       0.3139406       76.75292
2014    25      2       0.4125235       95.09384
2014    25      3       0.4549261       102.6656
2014    25      4       0.4295885       98.15112
2014    25      5       0.4228313       97.58131
2014    25      6       0.4370545       100.2741
2014    25      7       0.3830632       91.13817
2014    26      0       0.3092165       77.18873
2014    26      1       0.3485184       85.46947
2014    26      2       0.3937846       93.70858
2014    26      3       0.4131062       97.54776
2014    26      4       0.4139632       97.78628
2014    26      5       0.2791573       71.45383
2014    26      6       0.2371835       62.54539
2014    26      7       0.2010541       54.53952
2014    27      0       0.2103893       56.72388
2014    27      1       0.3226793       80.53161
2014    27      2       0.381398        92.1467
2014    27      3       0.383126        92.73734
2014    27      4       0.3947368       94.98634
2014    27      5       0.3461553       85.64563
2014    27      6       0.23548         62.76343
2014    27      7       0.1954441       53.77149
2014    28      0       0.1614057       45.8577
2014    28      1       0.3157959       79.52772
2014    28      2       0.3682768       90.08018
2014    28      3       0.3956495       95.31436
2014    28      4       0.2887707       74.31555
2014    28      5       0.3827959       93.09854
2014    28      6       0.4134822       98.72843
2014    28      7       0.4949145       112.5896
2014    29      0       0.5645095       123.6892
2014    29      1       0.7238195       146.0561
2014    29      2       0.8178999       157.7302
2014    29      3       0.7683064       151.7828
2014    29      4       0.7730894       152.4175
2014    29      5       0.8464753       161.0518
2014    29      6       0.7844561       153.5165
2014    29      7       0.7083323       143.6898
2014    30      0       0.7030825       142.9138
2014    30      1       0.6795299       139.6191
2014    30      2       0.8084092       156.2864
2014    30      3       0.892115        165.672
2014    30      4       0.859283        162.083
2014    30      5       0.7966149       154.7167
2014    30      6       0.8841384       164.6297
2014    30      7       0.8866137       165.4298
2014    31      0       0.8204365       157.9179
2014    31      1       0.7453056       148.6699
2014    31      2       0.8243725       158.8702
2014    31      3       0.8657475       164.0334
2014    31      4       0.7805973       154.0748
2014    31      5       0.6703706       139.4203
2014    31      6       0.6299192       133.6072
2014    31      7       0.6225116       132.5735
2015    1       0       0.3493718       84.22025
2015    1       1       0.4251833       98.05365
2015    1       2       0.4697057       105.5722
2015    1       3       0.5592782       119.4309
2015    1       4       0.6400468       131.136
2015    1       5       0.7507471       145.5928
2015    1       6       0.912765        166.2472
2015    1       7       0.6701372       137.0849
2015    2       0       0.5038939       112.6679
2015    2       1       0.4655844       106.4394
2015    2       2       0.5012599       112.1689
2015    2       3       0.5161229       114.306
2015    2       4       0.5328715       117.0485
2015    2       5       0.5014391       112.252
2015    2       6       0.4465246       102.9387
2015    2       7       0.3370372       82.59591
2015    3       0       0.2848036       72.25776
2015    3       1       0.5230008       116.6807
2015    3       2       0.564899        123.7208
2015    3       3       0.6219296       132.6457
2015    3       4       0.7026443       143.8529
2015    3       5       0.5446231       120.1394
2015    3       6       0.6366889       133.5874
2015    3       7       0.9358363       170.2893
2015    4       0       1.564994        219.5698
2015    4       1       1.174886        190.7884
2015    4       2       0.7603432       149.8497
2015    4       3       0.8270755       158.6128
2015    4       4       0.7814792       153.1831
2015    4       5       1.12321         188.9182
2015    4       6       0.8829895       165.2528
2015    4       7       0.8621159       163.3022
2015    5       0       1.481509        216.0232
2015    5       1       1.460186        213.7177
2015    5       2       1.729007        228.8286
2015    5       3       1.816743        233.2126
2015    5       4       1.660038        225.7
2015    5       5       1.743725        229.8969
2015    5       6       1.600917        222.4007
2015    5       7       1.125715        188.5158
2015    6       0       1.137603        189.221
2015    6       1       1.285257        200.827
2015    6       2       1.198975        193.9587
2015    6       3       1.08951         185.1938
2015    6       4       0.9369478       170.3949
2015    6       5       0.8777537       163.7118
2015    6       6       0.8305414       157.9143
2015    6       7       0.7713472       150.6703
2015    7       0       0.8709858       162.0635
2015    7       1       1.242835        197.4776
2015    7       2       1.321986        203.6508
2015    7       3       1.2031          195.1936
2015    7       4       1.055871        182.514
2015    7       5       0.9037707       167.4725
2015    7       6       0.8706774       163.606
2015    7       7       0.8503773       160.8651
2015    8       0       0.8798408       164.1362
2015    8       1       1.115916        187.621
2015    8       2       1.552745        218.4305
2015    8       3       1.558202        219.7387
2015    8       4       1.968345        240.7161
2015    8       5       1.773499        230.8092
2015    8       6       1.289888        200.6045
2015    8       7       1.497847        213.584
2015    9       0       1.455942        210.1335
2015    9       1       1.278547        197.8217
2015    9       2       1.189394        190.807
2015    9       3       1.604608        219.8276
2015    9       4       1.794533        230.2438
2015    9       5       1.369025        205.2505
2015    9       6       1.143359        188.2464
2015    9       7       1.160322        189.9148
2015    10      0       1.528202        215.1967
2015    10      1       1.258292        196.0317
2015    10      2       1.440628        208.4002
2015    10      3       1.494759        212.7213
2015    10      4       1.423908        208.3894
2015    10      5       1.59342         218.4677
2015    10      6       1.676304        223.7382
2015    10      7       1.831061        231.949
2015    11      0       1.686394        225.1568
2015    11      1       1.437746        211.2191
2015    11      2       1.219649        196.4037
2015    11      3       0.8403811       159.6755
2015    11      4       0.4660122       106.663
2015    11      5       0.39588         94.33096
2015    11      6       0.388341        92.95145
2015    11      7       0.3437808       84.4606
2015    12      0       0.2847152       72.67383
2015    12      1       0.4510084       104.3917
2015    12      2       0.5084902       114.3935
2015    12      3       0.4926456       111.5982
2015    12      4       0.3233137       80.2685
2015    12      5       0.2553106       65.64933
2015    12      6       0.3052237       75.8155
2015    12      7       0.3428947       81.37458
2015    13      0       0.8660689       158.3887
2015    13      1       1.508309        217.6867
2015    13      2       2.114144        247.047
2015    13      3       1.814505        236.069
2015    13      4       1.77425         234.0321
2015    13      5       0.6006869       128.7613
2015    13      6       0.9867082       179.3426
2015    13      7       0.6904043       142.8738
2015    14      0       1.020019        180.3023
2015    14      1       1.14792         191.7148
2015    14      2       1.148793        191.7769
2015    14      3       0.7352759       147.0735
2015    14      4       0.4936192       112.4703
2015    14      5       0.2423687       63.78258
2015    14      6       0.1902116       52.11815
2015    14      7       0.1716017       47.79244
2015    15      0       0.1897431       51.92591
2015    15      1       0.2676989       68.79455
2015    15      2       0.3995744       94.26726
2015    15      3       0.3596664       86.8545
2015    15      4       0.2905826       73.29213
2015    15      5       0.2253051       59.29952
2015    15      6       0.1597621       44.70138
2015    15      7       0.1109079       32.87587
2015    16      0       0.1210393       34.94104
2015    16      1       0.1932043       52.14228
2015    16      2       0.3908416       93.265
2015    16      3       0.3925801       93.69631
2015    16      4       0.3753908       90.34399
2015    16      5       0.3753903       90.17363
2015    16      6       0.2955994       74.3768
2015    16      7       0.1963245       52.98484
2015    17      0       0.1128799       33.30181
2015    17      1       0.2193104       58.01227
2015    17      2       0.2605247       66.79193
2015    17      3       0.2195122       57.58048
2015    17      4       0.1858362       49.80127
2015    17      5       0.1423407       39.85083
2015    17      6       0.1555892       42.58776
2015    17      7       0.1454574       40.27666
2015    18      0       0.1694689       45.44894
2015    18      1       0.2627279       65.78047
2015    18      2       0.3484142       82.71716
2015    18      3       0.3262564       78.73701
2015    18      4       0.3106483       75.94826
2015    18      5       0.2403028       61.40726
2015    18      6       0.1884803       50.2696
2015    18      7       0.1646085       45.10645
2015    19      0       0.1920413       51.54641
2015    19      1       0.3728536       88.33855
2015    19      2       0.6007482       125.5088
2015    19      3       0.7740961       149.4652
2015    19      4       0.5991556       126.0202
2015    19      5       0.5266102       114.8647
2015    19      6       0.4423648       101.0931
2015    19      7       0.4114489       95.78621
2015    20      0       0.5198545       114.4347
2015    20      1       0.7787732       151.1006
2015    20      2       0.8942874       164.0975
2015    20      3       1.006115        175.1115
2015    20      4       0.8152212       154.7975
2015    20      5       1.004791        175.3571
2015    20      6       1.054974        180.0859
2015    20      7       0.9498181       168.8411
2015    21      0       0.9152679       164.226
2015    21      1       1.046138        178.486
2015    21      2       1.2734          198.2919
2015    21      3       1.126198        186.4132
2015    21      4       0.9025319       165.2805
2015    21      5       0.72541         144.145
2015    21      6       0.7233206       143.6481
2015    21      7       0.7137057       142.5989
2015    22      0       0.7747195       150.7778
2015    22      1       1.066436        183.0273
2015    22      2       1.165947        192.0193
2015    22      3       1.050789        182.0237
2015    22      4       0.8840771       164.7778
2015    22      5       0.7906993       153.7878
2015    22      6       0.8000689       154.8223
2015    22      7       0.8350256       159.0141
2015    23      0       0.903401        166.7648
2015    23      1       1.205613        195.8948
2015    23      2       1.239814        199.2022
2015    23      3       1.202233        195.9686
2015    23      4       1.286843        202.9309
2015    23      5       0.9612784       173.934
2015    23      6       0.900786        167.4807
2015    23      7       1.04902         182.0461
2015    24      0       1.32847         203.484
2015    24      1       1.808186        232.1288
2015    24      2       1.432232        209.6589
2015    24      3       0.9751099       172.6585
2015    24      4       0.7433281       146.7915
2015    24      5       0.5618631       122.0372
2015    24      6       0.8333193       158.5354
2015    24      7       0.4254137       99.31898
2015    25      0       0.3666381       88.39898
2015    25      1       0.179695        49.19833
2015    25      2       0.2990148       74.5702
2015    25      3       0.2687749       67.8811
2015    25      4       0.2415849       62.16926
2015    25      5       0.2552916       64.82654
2015    25      6       0.2474812       63.30906
2015    25      7       0.219291        57.54296
2015    26      0       0.2625203       67.1636
2015    26      1       0.3061418       76.02712
2015    26      2       0.3453525       83.05125
2015    26      3       0.3775586       88.88938
2015    26      4       0.4165979       96.09594
2015    26      5       0.4064167       94.239
2015    26      6       0.6417259       132.0655
2015    26      7       0.670937        136.2059
2015    27      0       0.5350327       116.0249
2015    27      1       0.8392205       157.3068
2015    27      2       0.7790574       149.8049
2015    27      3       0.8056564       153.6337
2015    27      4       0.6221693       130.1333
2015    27      5       0.7534631       147.6236
2015    27      6       0.5213743       114.0554
2015    27      7       0.4309198       98.92822
2015    28      0       0.6011773       126.0639
2015    28      1       0.6742137       135.9527
2015    28      2       0.5571768       118.9214
2015    28      3       0.5287046       114.2554
2015    28      4       0.4193829       96.20456
2015    28      5       0.3316011       79.73847
2015    28      6       0.2441525       61.90507
2015    28      7       0.2191298       56.58726
2015    29      0       0.4073471       93.29976
2015    29      1       0.5788585       120.9799
2015    29      2       0.5436804       115.6148
2015    29      3       0.5214001       112.453
2015    29      4       0.2933621       72.16657
2015    29      5       0.2118044       55.36361
2015    29      6       0.1882025       50.18409
2015    29      7       0.2643282       65.18053
2015    30      0       0.5033308       108.4017
2015    30      1       0.8152893       152.1834
2015    30      2       0.922174        164.1643
2015    30      3       0.749351        144.4055
2015    30      4       0.5867583       122.4795
2015    30      5       0.6037184       124.8745
2015    30      6       0.636376        129.5452
2015    30      7       0.6387489       129.8187
2015    31      0       0.6321794       128.9663
2015    31      1       0.6698585       134.9275
2015    31      2       0.6977386       139.1828
2015    31      3       0.6657187       135.1152
2015    31      4       0.5742492       122.0959
2015    31      5       0.5397606       116.6023
2015    31      6       0.540719        116.4277
2015    31      7       0.5253005       113.7888
2016    1       0       0.8446423       157.0908
2016    1       1       0.8373096       156.5747
2016    1       2       0.8659428       159.858
2016    1       3       0.8892745       162.8017
2016    1       4       0.9489989       169.089
2016    1       5       0.964042        170.4805
2016    1       6       1.204195        192.2904
2016    1       7       1.169313        188.612
2016    5       0       0.9833458       169.863
2016    5       1       1.005414        173.148
2016    5       2       1.253115        195.7297
2016    5       3       1.007099        173.556
2016    5       4       0.8444799       156.1226
2016    5       5       0.773756        148.1649
2016    5       6       0.8964081       162.9646
2016    5       7       0.5886118       123.5779
2016    6       0       0.7685963       148.2578
2016    6       1       1.044778        177.9566
2016    6       2       1.277059        197.1632
2016    6       3       0.9198187       164.7809
2016    6       4       0.6146501       127.4781
2016    6       5       0.3697189       87.88486
2016    6       6       0.263658        67.34901
2016    6       7       0.2017063       54.16748
2016    7       0       0.1370902       39.23139
2016    7       1       0.3431383       83.0771
2016    7       2       0.3900016       91.99364
2016    7       3       0.3967098       93.11406
2016    7       4       0.3159757       77.61387
2016    7       5       0.3449651       82.78354
2016    7       6       0.5194578       112.8874
2016    7       7       0.508788        110.6449
2016    8       0       0.4968552       108.8835
2016    8       1       0.6225551       128.3025
2016    8       2       0.7521303       145.7995
2016    8       3       0.7583299       147.0675
2016    8       4       0.8207608       155.1026
2016    8       5       0.8207769       155.205
2016    8       6       0.7862305       151.039
2016    8       7       0.718375        142.6881
2016    9       0       0.5965129       126.0984
2016    9       1       0.6058122       128.2198
2016    9       2       0.6015842       128.1072
2016    9       3       0.5788052       124.9353
2016    9       4       0.5592416       122.1006
2016    9       5       0.5448614       119.839
2016    9       6       0.5195245       115.6795
2016    9       7       0.4464703       103.1867
2016    10      0       0.4842457       109.6157
2016    10      1       0.5412491       119.2359
2016    10      2       0.5767797       124.9776
2016    10      3       0.6008563       128.4499
2016    10      4       0.588959        125.5156
2016    10      5       0.5970927       126.573
2016    10      6       0.5859396       124.5056
2016    10      7       0.5863474       124.5004
2016    11      0       0.5728663       122.8289
2016    11      1       0.6565732       135.1148
2016    11      2       0.818826        156.6855
2016    11      3       0.8902175       164.9046
2016    11      4       0.8222143       156.4063
2016    11      5       0.986763        173.4616
2016    11      6       0.7238846       144.7368
2016    11      7       0.8145995       156.3866
2016    12      0       0.7763572       152.0848
2016    12      1       0.7934469       155.204
2016    12      2       0.7206212       146.064
2016    12      3       0.6385649       134.5073
2016    12      4       0.4235439       99.56206
2016    12      5       0.5717191       124.746
2016    12      6       0.5984406       128.5636
2016    12      7       0.6083126       129.6256
2016    13      0       0.6039381       129.1464
2016    13      1       0.7369483       148.2336
2016    13      2       0.8608739       163.3681
2016    13      3       0.9891785       178.0891
2016    13      4       1.087334        185.0839
2016    13      5       1.481215        216.0075
2016    13      6       1.202444        195.1124
2016    13      7       1.154989        191.8888
2016    14      0       1.622505        223.826
2016    14      1       2.201636        248.1078
2016    14      2       1.739159        228.2804
2016    14      3       1.292785        199.405
2016    14      4       0.6170212       126.2297
2016    14      5       0.1055768       30.80417
2016    14      6       0.06347172      20.81402
2016    14      7       0.06044207      20.23417
2016    15      0       0.1354026       38.52718
2016    15      1       0.2590224       66.50994
2016    15      2       0.2736084       69.51991
2016    15      3       0.201266        53.41817
2016    15      4       0.2015245       53.3762
2016    15      5       0.2227034       58.11012
2016    15      6       0.2384644       61.65273
2016    15      7       0.2435183       62.82412
2016    16      0       0.237991        61.7426
2016    16      1       0.2925615       73.82975
2016    16      2       0.3503365       84.85466
2016    16      3       0.3954169       93.29691
2016    16      4       0.3871895       91.8873
2016    16      5       0.2957887       74.16057
2016    16      6       0.2070345       55.19209
2016    16      7       0.1739474       47.40043
2016    17      0       0.2559968       65.2917
2016    17      1       0.3673138       87.5366
2016    17      2       0.4625094       104.3817
2016    17      3       0.4788759       107.461
2016    17      4       0.4268893       98.91396
2016    17      5       0.4295599       99.1305
2016    17      6       0.4180316       97.0585
2016    17      7       0.38998         91.83773
2016    18      0       0.4168633       96.63648
2016    18      1       0.4396793       100.7912
2016    18      2       0.4623131       104.7547
2016    18      3       0.4660028       105.421
2016    18      4       0.4475801       102.3348
2016    18      5       0.3904183       91.98591
2016    18      6       0.4156731       96.62903
2016    18      7       0.5187164       114.1599
2016    19      0       0.5644118       121.4213
2016    19      1       0.6315138       131.7088
2016    19      2       0.8643788       161.4672
2016    19      3       0.8762482       162.697
2016    19      4       0.9742408       172.8442
2016    19      5       1.117117        187.2546
2016    19      6       1.225653        196.7692
2016    19      7       1.028794        178.0527
2016    20      0       1.137372        187.1295
2016    20      1       1.111797        185.2895
2016    20      2       1.423922        210.1966
2016    20      3       1.153716        191.2907
2016    20      4       1.144301        190.7004
2016    20      5       1.374177        207.7009
2016    20      6       1.034771        181.3901
2016    20      7       0.9383358       171.5726
2016    21      0       1.375528        206.8905
2016    21      1       1.63858         221.8752
2016    21      2       1.63117         222.5194
2016    21      3       1.055643        182.1106
2016    21      4       1.419031        211.3686
2016    21      5       1.101094        186.0642
2016    21      6       1.083914        184.0007
2016    21      7       1.217979        194.7901
2016    22      0       1.320794        202.0858
2016    22      1       1.684393        224.5327
2016    22      2       1.976908        238.6592
2016    22      3       1.076432        183.0654
2016    22      4       0.9289406       169.046
2016    22      5       1.041429        179.5982
2016    22      6       1.008096        176.5161
2016    22      7       0.5798795       124.0447
2016    23      0       0.421174        97.64505
2016    23      1       0.7262584       143.9956
2016    23      2       0.8632799       161.42
2016    23      3       0.760976        149.4552
2016    23      4       0.5555832       120.6841
2016    23      5       0.4569037       104.4504
2016    23      6       0.4764378       107.941
2016    23      7       0.4882829       109.9679
2016    24      0       0.7060116       142.9306
2016    24      1       0.9138519       168.1433
2016    24      2       0.8174023       156.8284
2016    24      3       0.7767061       151.5084
2016    24      4       0.6998322       141.3842
2016    24      5       0.6647324       136.2084
2016    24      6       0.5928101       125.7003
2016    24      7       0.4644579       105.0836
2016    25      0       0.5730457       122.3522
2016    25      1       0.7669097       149.4775
2016    25      2       0.8618581       160.8354
2016    25      3       0.7881106       152.152
2016    25      4       0.6056318       128.2954
2016    25      5       0.5145285       114.3177
2016    25      6       0.4763915       108.1129
2016    25      7       0.5242207       115.8223
2016    26      0       0.6974196       140.2727
2016    26      1       0.9698238       172.0781
2016    26      2       0.9333122       168.136
2016    26      3       0.7795307       151.3066
2016    26      4       0.7128569       141.8871
2016    26      5       0.7276751       142.4867
2016    26      6       1.02198         174.7047
2016    26      7       1.081929        179.9648
2016    27      0       0.9554149       168.2978
2016    27      1       1.043195        178.7384
2016    27      2       1.488556        213.8869
2016    27      3       1.238534        196.1854
2016    27      4       0.8332617       157.5155
2016    27      5       0.7351385       145.0095
2016    27      6       0.644385        132.2092
2016    27      7       0.5966558       125.9127
2016    28      0       0.5525141       119.6877
2016    28      1       0.7790985       150.9566
2016    28      2       0.9449685       169.979
2016    28      3       0.9828092       174.4406
2016    28      4       1.599867        222.4072
2016    28      5       0.766817        151.1139
2016    28      6       0.5984173       127.3971
2016    28      7       0.8191268       156.1656
2016    29      0       1.295132        200.1449
2016    29      1       1.28212         197.5887
2016    29      2       0.7839714       151.0332
2016    29      3       0.3772423       88.84996
2016    29      4       0.2193873       57.16433
2016    29      5       0.3517979       83.94047
2016    29      6       0.6260402       129.7791
2016    29      7       0.5923818       124.6609
2016    30      0       0.7729817       148.7348
2016    30      1       0.907981        163.5156
2016    30      2       1.15406         186.9542
2016    30      3       1.329764        202.3537
2016    30      4       0.9047197       163.2585
2016    30      5       0.5443265       115.5093
2016    30      6       0.579987        120.3433
2016    30      7       0.7327087       140.5351
2016    31      0       0.9216136       163.4529
2016    31      1       1.05648         177.1417
2016    31      2       0.9128136       162.6091
2016    31      3       1.076583        178.0186
2016    31      4       0.6967878       136.392
2016    31      5       1.015538        172.8029
2016    31      6       0.7956755       149.9015
2016    31      7       0.5869002       121.9924
2017    1       0       0.7946304       150.5903
2017    1       1       0.5925053       125.0347
2017    1       2       0.6216029       128.7693
2017    1       3       0.4010581       92.76933
2017    1       4       0.4142746       96.62644
2017    1       5       0.419714        97.90356
2017    1       6       0.3017514       75.29371
2017    1       7       0.2287379       60.16699
2017    2       0       0.2671237       68.50982
2017    2       1       0.3674937       88.7159
2017    2       2       0.3926595       93.52298
2017    2       3       0.2196872       58.60032
2017    2       4       0.1833891       50.48641
2017    2       5       0.2205953       58.7367
2017    2       6       0.2762747       70.46416
2017    2       7       0.222453        58.86743
2017    3       0       0.1897259       51.61664
2017    3       1       0.3490413       85.17776
2017    3       2       0.4518352       104.1035
2017    3       3       0.5122741       114.2988
2017    3       4       0.5625021       122.331
2017    3       5       0.5519367       120.29
2017    3       6       0.5985637       127.0109
2017    3       7       0.6255745       130.6688
2017    4       0       0.7670822       149.8699
2017    4       1       0.8299294       157.6197
2017    4       2       0.9107891       167.0754
2017    4       3       1.000979        176.9253
2017    4       4       0.8376293       159.2278
2017    4       5       0.7442375       147.4148
2017    4       6       0.717618        143.7516
2017    4       7       0.7578435       148.2251
2017    5       0       0.8687598       161.2865
2017    5       1       1.147199        188.9449
2017    5       2       1.39065         207.8001
2017    5       3       1.181607        191.6716
2017    5       4       0.776705        150.0612
2017    5       5       0.4811062       108.061
2017    5       6       0.3225085       79.63391
2017    5       7       0.2324803       61.06275
2017    6       0       0.3303987       81.242
2017    6       1       0.4196657       98.10545
2017    6       2       0.4229079       98.6767
2017    6       3       0.4077216       96.15985
2017    6       4       0.4180038       98.24556
2017    6       5       0.3553397       86.60965
2017    6       6       0.3730984       90.10412
2017    6       7       0.4103744       97.08207
2017    7       0       0.4336455       101.3875
2017    7       1       0.5739604       124.5995
2017    7       2       0.613411        131.0244
2017    7       3       0.6631208       138.2705
2017    7       4       0.5706301       124.4184
2017    7       5       0.499886        112.774
2017    7       6       0.378907        90.99414
2017    7       7       0.3455616       83.36568
2017    8       0       0.6784613       137.9312
2017    8       1       1.518253        219.3014
2017    8       2       1.265111        201.9141
2017    8       3       1.046853        183.5872
2017    8       4       1.105231        189.3396
2017    8       5       1.129198        191.4575
2017    8       6       1.083327        187.358
2017    8       7       1.181499        195.1094
2017    9       0       1.312357        204.877
2017    9       1       1.582006        221.1836
2017    9       2       1.857328        234.8014
2017    9       3       1.120844        186.6626
2017    9       4       0.9775947       173.1105
2017    9       5       1.028604        180.3605
2017    9       6       0.9300651       170.9757
2017    9       7       0.7944849       155.9111
2017    10      0       0.8045283       157.5878
2017    10      1       0.956788        175.1409
2017    10      2       0.9332457       172.7105
2017    10      3       1.008709        180.731
2017    10      4       0.8475123       163.1893
2017    10      5       0.720686        147.2104
2017    10      6       0.5644101       124.0701
2017    10      7       0.7375247       149.0557
2017    11      0       0.8549477       163.8476
2017    11      1       0.7471692       150.1176
2017    11      2       0.5396012       119.3423
2017    11      3       0.3700099       89.51192
2017    11      4       0.3564705       87.17878
2017    11      5       0.203609        55.09094
2017    11      6       0.1349533       39.07728
2017    11      7       0.1949636       53.50007
2017    12      0       0.2673661       69.48706
2017    12      1       0.3523358       86.5967
2017    12      2       0.3667866       89.53864
2017    12      3       0.2590418       68.08088
2017    12      4       0.1945437       53.70683
2017    12      5       0.299381        75.27789
2017    12      6       0.539648        117.7834
2017    12      7       0.9467967       170.5959
2017    13      0       1.067666        183.8348
2017    13      1       1.698384        228.4951
2017    13      2       1.984573        242.0463
2017    13      3       2.274034        252.2939
2017    13      4       2.202749        250.1534
2017    13      5       0.3590254       86.53554
2017    13      6       0.0889144       28.34598
2017    13      7       0.1011083       31.33343
2017    14      0       0.09671067      30.20738
2017    14      1       0.1236833       36.85799
2017    14      2       0.2030557       55.67194
2017    14      3       0.2184721       58.89736
2017    14      4       0.1248212       36.91823
2017    14      5       0.06991204      23.10084
2017    14      6       0.0799509       25.33334
2017    14      7       0.1037          31.07153
2017    15      0       0.1248573       36.36221
2017    15      1       0.1624456       45.57193
2017    15      2       0.2179479       58.44915
2017    15      3       0.1816374       50.63565
2017    15      4       0.1625973       46.2506
2017    15      5       0.09966359      30.89732
2017    15      6       0.100814        31.15341
2017    15      7       0.1108476       33.63515
2017    16      0       0.1049398       32.25239
2017    16      1       0.1543861       44.40688
2017    16      2       0.242456        64.51933
2017    16      3       0.1963621       54.11962
2017    16      4       0.1605075       45.4214
2017    16      5       0.1338451       38.99009
2017    16      6       0.1605112       45.6036
2017    16      7       0.3134026       78.96566
2017    17      0       0.4909912       111.7113
2017    17      1       0.534841        118.9715
2017    17      2       0.7584351       151.5434
2017    17      3       0.9883665       178.4645
2017    17      4       0.5653522       124.3478
2017    17      5       0.3066957       77.47607
2017    17      6       0.2536049       66.20463
2017    17      7       0.4142762       96.4298
2017    18      0       0.7248224       143.745
2017    18      1       1.119124        187.3469
2017    18      2       0.7446129       148.4282
2017    18      3       0.4274261       100.6284
2017    18      4       0.2395767       63.81064
2017    18      5       0.1637044       46.58184
2017    18      6       0.1257511       37.31287
2017    18      7       0.1268504       37.46926
2017    19      0       0.1933184       52.91746
2017    19      1       0.4227607       99.1795
2017    19      2       0.4686869       107.3316
2017    19      3       0.4193728       98.39105
2017    19      4       0.5613895       123.0461
2017    19      5       1.30845         204.6958
2017    19      6       1.431484        213.3633
2017    19      7       1.93531         238.1994
2017    20      0       2.662134        263.6114
2017    20      1       1.471092        218.5655
2017    20      2       0.459365        106.7995
2017    20      3       0.4143455       99.17753
2017    20      4       0.1218114       36.52549
2017    20      5       0.1075715       32.94311
2017    20      6       0.1089608       33.17339
2017    20      7       0.1122433       33.96152
2017    21      0       0.1355411       39.64272
2017    21      1       0.188233        52.22985
2017    21      2       0.2747355       71.22762
2017    21      3       0.2338896       62.61478
2017    21      4       0.2213654       59.90959
2017    21      5       0.1549772       44.49002
2017    21      6       0.108865        33.20946
2017    21      7       0.08692075      27.56517
2017    22      0       0.09891432      30.58094
2017    22      1       0.2185562       58.95348
2017    22      2       0.3198619       80.43214
2017    22      3       0.255823        67.05392
2017    22      4       0.3764925       91.18711
2017    22      5       0.5917871       127.3537
2017    22      6       0.6660343       137.7305
2017    22      7       0.7317382       146.2032
2017    23      0       1.083375        185.2818
2017    23      1       1.872566        237.0994
2017    23      2       1.762978        233.2613
2017    23      3       2.194104        250.9078
2017    23      4       1.562341        223.1588
2017    23      5       1.231283        199.8357
2017    23      6       1.533553        219.648
2017    23      7       1.339313        208.1349
2017    24      0       1.616603        227.7396
2017    24      1       0.7084889       144.8907
2017    24      2       0.6160957       131.7702
2017    24      3       0.4390121       103.1637
2017    24      4       0.3202273       80.64827
2017    24      5       0.2532108       66.57342
2017    24      6       0.224338        60.04655
2017    24      7       0.3515198       86.59419
2017    25      0       0.2896619       73.47929
2017    25      1       0.5156007       115.0508
2017    25      2       0.5825705       125.2512
2017    25      3       0.4454797       103.0772
2017    25      4       0.4605649       105.9867
2017    25      5       0.3818898       92.31494
2017    25      6       0.3275782       82.02724
2017    25      7       0.3076301       77.8514
2017    26      0       0.3247422       81.0251
2017    26      1       0.3929151       94.23956
2017    26      2       0.3972262       95.2528
2017    26      3       0.4127811       98.12313
2017    26      4       0.4470349       104.162
2017    26      5       0.4407384       102.8716
2017    26      6       0.4197146       98.9319
2017    26      7       0.3793033       91.37429
2017    27      0       0.39759         94.72928
2017    27      1       0.525725        117.2199
2017    27      2       0.5329687       118.7559
2017    27      3       0.5307123       118.4866
2017    27      4       0.4581739       106.3538
2017    27      5       0.4231307       100.0739
2017    27      6       0.4607581       106.7071
2017    27      7       0.4496797       104.7951
2017    28      0       0.3623724       88.48763
2017    28      1       0.3487522       85.73069
2017    28      2       0.3215486       80.25045
2017    28      3       0.3070403       76.79569
2017    28      4       0.3136044       77.27465
2017    28      5       0.3616139       86.87024
2017    28      6       0.3722659       89.41427
2017    28      7       0.4074146       96.1363
2017    29      0       0.4350632       101.1371
2017    29      1       0.4637363       106.2334
2017    29      2       0.4597397       105.8323
2017    29      3       0.4294191       100.6193
2017    29      4       0.3880659       93.02263
2017    29      5       0.3747343       90.58998
2017    29      6       0.3523013       86.40733
2017    29      7       0.3461664       85.01281
2017    30      0       0.4267862       99.35797
2017    30      1       0.5195236       115.4446
2017    30      2       0.7821606       151.0818
2017    30      3       1.029341        177.8258
2017    30      4       1.107172        186.0693
2017    30      5       1.03511         180.2048
2017    30      6       1.054657        182.324
2017    30      7       0.9560915       174.1048
2017    31      0       1.106354        188.7306
2017    31      1       1.279894        202.1462
2017    31      2       1.517219        218.2964
2017    31      3       1.010031        178.5665
2017    31      4       1.104138        187.0799
2017    31      5       1.1563          191.8262
2017    31      6       1.305387        203.523
2017    31      7       1.140373        190.734
2018    1       0       0.3490425       84.26751
2018    1       1       0.4048642       94.79582
2018    1       2       0.3912969       92.58074
2018    1       3       0.3762226       89.79949
2018    1       4       0.3740757       89.28459
2018    1       5       0.3750573       89.42207
2018    1       6       0.3926331       92.68617
2018    1       7       0.4476383       102.3711
2018    2       0       0.4792856       107.2621
2018    2       1       0.4553455       103.1875
2018    2       2       0.4499187       102.5153
2018    2       3       0.4363023       100.3076
2018    2       4       0.4135031       96.16937
2018    2       5       0.3144748       76.92478
2018    2       6       0.3349552       80.06706
2018    2       7       0.3552747       83.83865
2018    3       0       0.4873656       107.6242
2018    3       1       0.5376332       116.4081
2018    3       2       0.558342        119.7797
2018    3       3       0.5947386       125.3584
2018    3       4       0.5833208       124.0863
2018    3       5       0.4963024       110.5416
2018    3       6       0.4683074       105.5792
2018    3       7       0.4025928       93.73598
2018    4       0       0.3884138       91.3972
2018    4       1       0.5325467       116.7303
2018    4       2       0.6067031       128.4723
2018    4       3       0.6600295       135.9899
2018    4       4       0.6179327       129.7752
2018    4       5       0.5352406       117.2958
2018    4       6       0.4979049       110.9028
2018    4       7       0.4842306       108.2719
2018    5       0       0.4990888       111.0027
2018    5       1       0.5348873       117.7735
2018    5       2       0.5336129       117.6937
2018    5       3       0.5443958       119.4334
2018    5       4       0.4723645       107.3848
2018    5       5       0.432051        100.5885
2018    5       6       0.4519009       104.2574
2018    5       7       0.4139436       97.55964
2018    6       0       0.4359787       101.7293
2018    6       1       0.4204024       99.40411
2018    6       2       0.5422016       119.9706
2018    6       3       0.57222         124.6404
2018    6       4       0.9542586       175.2559
2018    6       5       0.7646037       152.6764
2018    6       6       0.4722746       107.9624
2018    6       7       0.465716        106.7204
2018    7       0       0.4372366       101.6984
2018    7       1       0.5743887       124.8196
2018    7       2       0.6617003       137.3863
2018    7       3       0.7503511       148.8051
2018    7       4       0.8653204       161.5943
2018    7       5       1.143445        190.0497
2018    7       6       1.031459        178.5168
2018    7       7       0.9486773       170.5438
2018    8       0       0.9365428       169.6098
2018    8       1       1.276429        200.1752
2018    8       2       1.477784        214.5468
2018    8       3       1.551857        219.742
2018    8       4       1.294638        202.5004
2018    8       5       1.24284         196.636
2018    8       6       1.107325        185.2381
2018    8       7       0.9994602       175.0193
2018    9       0       1.197048        193.8905
2018    9       1       1.350785        206.5514
2018    9       2       0.6203039       131.1953
2018    9       3       0.2534199       65.91723
2018    9       4       0.1562095       44.18249
2018    9       5       0.08280269      26.11498
2018    9       6       0.07928794      25.18737
2018    9       7       0.08737437      27.23202
2018    10      0       0.1824412       50.24614
2018    10      1       0.3612938       87.60539
2018    10      2       0.4557406       104.299
2018    10      3       0.6301425       130.4229
2018    10      4       0.7016092       139.7423
2018    10      5       0.6225728       128.8205
2018    10      6       0.5359567       116.8012
2018    10      7       0.7124201       142.286
2018    11      0       0.8055984       154.4441
2018    11      1       1.048675        181.2086
2018    11      2       0.8532701       161.2452
2018    11      3       0.6448582       133.8669
2018    11      4       0.5831235       124.9573
2018    11      5       0.954542        170.8458
2018    11      6       1.321614        204.1918
2018    11      7       1.495924        216.7641
2018    12      0       1.344372        206.8097
2018    12      1       1.472256        215.3779
2018    12      2       1.531864        218.821
2018    12      3       1.330481        205.1297
2018    12      4       1.339852        206.0002
2018    12      5       1.611433        221.6753
2018    12      6       1.576113        221.6451
2018    12      7       1.353578        206.4191
2018    13      0       0.4880653       107.3834
2018    13      1       0.6378343       130.7031
2018    13      2       0.8149304       152.5086
2018    13      3       0.7882287       148.1542
2018    13      4       0.9633702       167.6279
2018    13      5       0.7291994       140.2614
2018    13      6       0.2991299       72.70676
2018    13      7       0.2348772       60.18185
2018    14      0       0.242335        62.11618
2018    14      1       0.360382        85.49392
2018    14      2       0.3864511       91.14944
2018    14      3       0.3343174       81.04149
2018    14      4       0.3910938       92.64635
2018    14      5       0.4630567       105.5902
2018    14      6       0.5102961       113.3666
2018    14      7       0.5607707       121.7403
2018    15      0       0.5249011       116.0816
2018    15      1       0.4187407       97.72371
2018    15      2       0.3014713       75.5331
2018    15      3       0.06857687      22.27665
2018    15      4       0.07748076      24.55724
2018    15      5       0.07574087      24.12518
2018    15      6       0.08502769      26.34267
2018    15      7       0.09158147      27.97504
2018    16      0       0.1172424       34.27777
2018    16      1       0.2347286       60.96826
2018    16      2       0.2869627       72.04449
2018    16      3       0.2231407       58.3336
2018    16      4       0.1769721       47.84911
2018    16      5       0.2319804       59.66621
2018    16      6       0.2571492       64.94918
2018    16      7       0.2527237       64.10797
2018    17      0       0.2608886       65.47776
2018    17      1       0.3136879       76.71854
2018    17      2       0.3458866       83.46867
2018    17      3       0.3314806       80.86787
2018    17      4       0.2608298       66.85738
2018    17      5       0.1806811       49.32995
2018    17      6       0.1574034       43.93238
2018    17      7       0.1303801       37.71508
2018    18      0       0.1193946       35.14184
2018    18      1       0.2141635       57.55754
2018    18      2       0.2634685       68.51991
2018    18      3       0.2649463       68.94071
2018    18      4       0.2187168       58.82276
2018    18      5       0.204096        55.4472
2018    18      6       0.2169329       58.39571
2018    18      7       0.2353493       62.60249
2018    19      0       0.2593321       67.78038
2018    19      1       0.2927308       74.71717
2018    19      2       0.3209458       80.5406
2018    19      3       0.3832689       92.50916
2018    19      4       0.4531297       104.9972
2018    19      5       0.4430029       103.0636
2018    19      6       0.4450162       103.2278
2018    19      7       0.530703        117.3295
2018    20      0       0.5394546       118.1621
2018    20      1       0.5563113       120.5014
2018    20      2       0.68259         138.9889
2018    20      3       0.8726724       162.9024
2018    20      4       0.63642         132.3136
2018    20      5       0.4953905       110.4928
2018    20      6       0.4313322       99.39608
2018    20      7       0.4472364       102.008
2018    21      0       0.5502976       118.7397
2018    21      1       0.6960133       139.5849
2018    21      2       0.6830077       138.6325
2018    21      3       0.7290576       144.2431
2018    21      4       0.7026998       140.3295
2018    21      5       0.6746504       136.6152
2018    21      6       0.7227759       143.3774
2018    21      7       0.981872        172.5588
2018    22      0       1.278771        200.4629
2018    22      1       1.465457        214.1202
2018    22      2       1.546541        219.0427
2018    22      3       1.096423        185.0975
2018    22      4       1.083889        185.2222
2018    22      5       1.257058        199.6883
2018    22      6       1.195138        194.6268
2018    22      7       1.44211         212.4774
2018    23      0       1.261579        200.1948
2018    23      1       0.9521678       172.6641
2018    23      2       1.390471        209.8842
2018    23      3       1.606481        223.0708
2018    23      4       1.092591        186.3325
2018    23      5       0.8074118       156.0469
2018    23      6       1.060586        182.5866
2018    23      7       1.115935        187.665
2018    24      0       1.561317        218.9702
2018    24      1       1.219259        195.7737
2018    24      2       1.058147        182.4578
2018    24      3       1.591054        221.1244
2018    24      4       1.215017        195.4113
2018    24      5       1.243055        197.0054
2018    24      6       1.283903        199.2788
2018    24      7       1.053883        181.2682
2018    25      0       1.133195        187.9384
2018    25      1       1.309246        202.5374
2018    25      2       1.214372        195.6636
2018    25      3       1.085756        185.0691
2018    25      4       1.043427        181.2308
2018    25      5       1.065136        183.4796
2018    25      6       1.047534        181.9855
2018    25      7       1.010355        178.4006
2018    26      0       1.069389        183.9116
2018    26      1       1.345632        206.1377
2018    26      2       1.385813        209.1915
2018    26      3       1.385824        209.8711
2018    26      4       1.037937        182.0458
2018    26      5       1.034526        181.1077
2018    26      6       1.173906        192.7565
2018    26      7       1.231352        197.5658
2018    27      0       1.258769        199.5678
2018    27      1       1.394056        209.1688
2018    27      2       1.398911        209.5778
2018    27      3       1.077941        184.715
2018    27      4       0.9178702       168.7785
2018    27      5       1.031346        180.0868
2018    27      6       1.08397         185.6066
2018    27      7       1.180362        194.4123
2018    28      0       1.257495        200.9104
2018    28      1       1.531922        220.1233
2018    28      2       1.578261        222.3455
2018    28      3       1.65328         226.8389
2018    28      4       1.398546        211.9141
2018    28      5       1.018326        180.7714
2018    28      6       0.7277785       147.0687
2018    28      7       0.555756        122.0449
2018    29      0       0.493203        111.8771
2018    29      1       0.6704503       139.3168
2018    29      2       0.6926749       142.6585
2018    29      3       0.6840716       141.5471
2018    29      4       0.5528688       121.8135
2018    29      5       0.4761047       108.6729
2018    29      6       0.8696828       163.3646
2018    29      7       1.550226        218.9911
2018    30      0       1.550028        218.6154
2018    30      1       1.739197        228.5817
2018    30      2       1.849347        233.4275
2018    30      3       1.007801        175.5766
2018    30      4       0.5834825       123.7882
2018    30      5       0.3829529       90.75712
2018    30      6       0.2697626       68.68765
2018    30      7       0.1054618       31.66135
2018    31      0       0.1089299       32.69923
2018    31      1       0.1443795       41.31971
2018    31      2       0.2550257       66.65753
2018    31      3       0.1881313       51.19662
2018    31      4       0.1429708       40.63905
2018    31      5       0.1787739       48.77571
2018    31      6       0.1685484       46.34785
2018    31      7       0.1510063       42.26027
