####################################################################################################
# Month: 06Jun                                                                                     #
# Station: BGA                                                                                     #
# Frequency: 230 GHz                                                                               #
# Columns are: year    day     tau     Tb (K)                                                      #
####################################################################################################
2009    1       0.54260409      112.4214725
2009    2       0.40501865      91.0449975
2009    3       0.52785866      105.6255475
2009    4       0.24335586      60.757525
2009    5       0.37425518      84.4386075
2009    6       0.36294015      83.78077125
2009    7       0.40922201      93.22857125
2009    8       0.3829783       86.8521375
2009    9       0.27689226      67.42598
2009    10      0.22698035      58.15014875
2009    11      0.40923291      91.72496
2009    12      0.23996539      59.70919875
2009    13      0.13157288      36.542205
2009    14      0.0894525       27.00611
2009    15      0.24187575      59.6060975
2009    16      0.34393739      81.91540375
2009    17      0.55878719      115.56515625
2009    18      0.67078422      130.99299125
2009    19      0.19789052      52.235905
2009    20      0.38568099      83.51613875
2009    21      0.52341765      105.845105
2009    22      0.54171331      112.10147125
2009    23      0.51853044      107.69866625
2009    24      0.56911546      116.3634025
2009    25      0.5957654       118.41578875
2009    26      0.72536861      138.496
2009    27      0.71355978      135.19464875
2009    28      0.92388582      161.7954625
2009    29      1.01830189      171.677375
2009    30      0.90948005      160.47475
2010    1       0.46678249      98.4874725
2010    2       0.34342242      77.82897625
2010    3       0.43009529      94.008775
2010    4       0.54383162      111.8682575
2010    5       0.6977141       134.967425
2010    6       0.51466115      104.107615
2010    7       0.07554152      23.7037475
2010    8       0.22845499      57.11209875
2010    9       0.61015835      117.27880875
2010    10      0.25158175      61.433515
2010    11      0.12522622      35.82359125
2010    12      0.35440342      83.5316775
2010    13      0.39470352      90.83529875
2010    14      0.40790335      92.83697875
2010    15      0.67116821      129.92633625
2010    16      0.55956216      117.035135
2010    17      0.46806311      102.55036125
2010    18      0.45764235      100.30124625
2010    19      0.4540322       99.16239375
2010    20      0.52454698      108.0461375
2010    21      0.37987276      84.86500375
2010    22      0.48644706      102.48991125
2010    23      0.51822031      108.4746025
2010    24      0.45570009      99.768815
2010    25      0.29845189      71.52237
2010    26      0.36321601      84.46359
2010    27      0.48014596      101.42511625
2010    28      0.61441704      123.9807
2010    29      0.82895415      151.5248625
2010    30      0.76249436      141.92534
2011    1       0.58774931      120.043275
2011    2       0.61398436      122.56424
2011    3       0.68004465      129.95066875
2011    4       0.46061392      99.73516
2011    5       0.45516764      98.11517125
2011    6       0.58350218      118.1252375
2011    7       0.53430155      112.893215
2011    8       0.3572897       82.76802125
2011    9       0.24496234      60.26010125
2011    10      0.45005902      98.560075
2011    11      0.5561726       114.7543225
2011    12      0.72587102      138.38325
2011    13      0.65805208      129.156625
2011    14      0.60409484      120.43841375
2011    15      0.72890478      138.5517
2011    16      0.55113901      114.17406125
2011    17      0.36422954      84.06329125
2011    18      0.23874331      60.74814125
2011    19      0.35931323      83.1578575
2011    20      0.24221731      61.59438875
2011    21      0.1227135       35.20863125
2011    22      0.15633685      43.08886125
2011    23      0.1928481       51.5812025
2011    24      0.31466885      75.4035825
2011    25      0.35426506      82.05802375
2011    26      0.10280237      30.128025
2011    27      0.09212011      27.57590375
2011    28      0.35148966      79.35845375
2011    29      0.51926732      105.33666625
2011    30      0.53250142      107.71087625
2012    1       0.48481988      100.41837125
2012    2       0.38958008      88.631255
2012    3       0.34752884      81.4483475
2012    4       0.32410879      76.55971875
2012    5       0.54217762      111.5408475
2012    6       0.26820258      63.52707375
2012    7       0.31626661      75.72516
2012    8       0.27479873      68.58974625
2012    9       0.408346        93.74665875
2012    10      0.40034465      92.3453725
2012    11      0.42610764      95.882515
2012    12      0.29760711      72.4544325
2012    13      0.22219162      57.4523
2012    14      0.3034778       72.18286125
2012    15      0.17652876      47.3620375
2012    16      0.14614252      41.13067875
2012    17      0.10818548      32.35878125
2012    18      0.08384938      26.35790625
2012    19      0.07773719      24.653485
2012    20      0.06910315      22.49785375
2012    21      0.0724561       23.3902075
2012    22      0.13267369      37.7414225
2012    23      0.3757498       86.1225425
2012    24      0.74470401      141.9925
2012    25      0.49502214      107.7648325
2012    26      0.62649068      128.0367
2012    27      0.2738229       64.63172
2012    28      0.23656949      60.229935
2012    29      0.372454        87.45371875
2012    30      0.39258305      91.07121875
2013    1       0.30435624      69.95926125
2013    2       0.43183671      93.14105125
2013    3       0.48334891      101.81853375
2013    4       0.45463464      97.88407375
2013    5       0.47408398      100.78467375
2013    6       0.43331944      95.235175
2013    7       0.44278502      96.02979
2013    8       0.54489834      111.35252875
2013    9       0.5071584       106.60676625
2013    10      0.42646984      93.83843125
2013    11      0.45214458      98.89544625
2013    12      0.7068269       135.50235
2013    13      0.73316185      136.2003225
2013    14      0.68143355      132.1187625
2013    15      0.67392789      131.86852375
2013    16      0.36010299      84.5165925
2013    17      0.32199354      76.40398625
2013    18      0.27734074      69.460955
2013    19      0.25519809      65.1507675
2013    20      0.49006689      106.09583
2013    21      0.25123178      64.15449
2013    22      0.24399082      62.46938125
2013    23      0.55589372      109.76974
2013    24      0.6685409       130.56440625
2013    25      0.45271201      99.29082125
2013    26      0.53960282      110.1520525
2013    27      0.4691653       100.02171875
2013    28      0.44336745      95.33736375
2013    29      0.50350648      101.26269375
2013    30      0.54860479      112.68970125
2014    1       0.24424165      59.304
2014    2       0.38499085      86.44738125
2014    3       0.41773116      92.01404125
2014    4       0.5721084       116.35000375
2014    5       0.57282521      117.20473625
2014    6       0.6937689       135.0061125
2014    7       0.54048765      113.1203225
2014    8       0.4873048       103.04953875
2014    9       0.43530029      95.7820625
2014    10      0.28374541      69.31851
2014    11      0.57812726      115.505935
2014    12      0.251886        63.03642625
2014    13      0.40360745      85.64481625
2014    14      0.69764805      136.169975
2014    15      0.69326784      133.26790375
2014    16      0.72372258      138.19135
2014    17      0.668164        130.8845625
2014    18      0.52937087      111.73357125
2014    19      0.59281808      119.08119375
2014    20      0.62948991      124.53359375
2014    21      0.34065369      78.04887625
2014    22      0.13102749      36.78089
2014    23      0.22462462      56.48564125
2014    24      0.42174332      94.42142625
2014    25      0.50679445      109.29870875
2014    26      0.37110264      84.6260825
2014    27      0.47464092      102.73854625
2014    28      0.20385089      53.0039825
2014    29      0.12306778      35.637085
2014    30      0.33507629      76.01683
2015    1       0.24125389      59.91392375
2015    2       0.10263287      30.09374875
2015    3       0.29546296      69.70128375
2015    4       0.51082336      106.63763625
2015    5       0.6042809       121.43103875
2015    6       0.18098607      47.97435375
2015    7       0.29206524      69.14461125
2015    8       0.53316775      111.7511175
2015    9       0.47810464      101.75158375
2015    10      0.55240615      113.71278125
2015    11      0.55364046      113.18498
2015    12      0.26405125      65.19219
2015    13      0.39882434      90.0852375
2015    14      0.37467872      86.4711025
2015    15      0.53665035      113.151855
2015    16      0.57238036      117.36916375
2015    17      0.52684699      108.0794575
2015    18      0.71295652      136.5880725
2015    19      0.52705412      111.03720375
2015    20      0.61155816      122.554715
2015    21      0.43117808      89.97927375
2015    22      0.18978135      48.8257
2015    23      0.11495185      32.92952875
2015    24      0.35106314      80.89868375
2015    25      0.17105776      43.4198275
2015    26      0.29878985      69.4659075
2015    27      0.38630562      87.40034
2015    28      0.6391235       124.55040625
2015    29      0.86733726      155.421975
2015    30      0.81516226      149.4019625
2016    1       0.41298676      89.28640875
2016    2       0.38535248      87.0904025
2016    3       0.41940978      92.5106925
2016    4       0.52460349      109.5801525
2016    5       0.58776436      117.90168
2016    6       0.7189265       136.7830625
2016    7       0.57495217      114.7879275
2016    8       0.22128449      55.27184375
2016    9       0.25416144      62.09128125
2016    10      0.49358689      102.4351025
2016    11      0.42185942      93.8636575
2016    12      0.61848519      122.87373625
2016    13      0.59657004      120.403975
2016    14      0.59774355      120.324715
2016    15      0.30599616      73.0189825
2016    16      0.30096064      72.14481875
2016    17      0.4479002       100.37651875
2016    18      0.50269472      109.38873375
2016    19      0.4987757       106.9819225
2016    20      0.40797085      93.4204075
2016    21      0.25134759      63.763705
2016    22      0.18004914      49.04223125
2016    23      0.29746225      72.00069875
2016    24      0.35034601      80.82375875
2016    25      0.14695455      40.969175
2016    26      0.33183038      76.92912875
2016    27      0.63876861      126.979175
2016    28      0.48332396      104.70977875
2016    29      0.69334218      134.87343375
2016    30      0.28078404      70.08671875
2017    1       0.53965448      113.15932875
2017    2       0.56220609      115.94305625
2017    3       0.68600878      132.30705
2017    4       0.65874973      130.819175
2017    5       0.55873528      116.4305725
2017    6       0.65849252      128.86986125
2017    7       0.61843402      125.5981375
2017    8       0.53802995      106.3657975
2017    9       0.4081794       90.30922625
2017    10      0.26249761      64.5079225
2017    11      0.69603979      134.6432625
2017    12      0.2176246       56.290325
2017    13      0.37162582      86.16837
2017    14      0.42635481      91.7361475
2017    15      0.2423338       60.422375
2017    16      0.28323539      68.866575
2017    17      0.43911279      93.49379875
2017    18      0.33486752      75.6065025
2017    19      0.46843024      99.36907375
2017    20      0.49440837      104.62431625
2017    21      0.24431552      61.60381625
2017    22      0.3862405       86.43371125
2017    23      0.23875479      60.86582125
2017    24      0.51399496      109.88906
2017    25      0.23212191      59.37246
2017    26      0.40715444      89.65560875
2017    27      0.41389961      93.75307125
2017    28      0.4762928       105.02134
2017    29      0.4276187       96.84389375
2017    30      0.346518        83.01418
2018    1       0.16159318      43.82900375
2018    2       0.4309166       94.09295375
2018    3       0.54747835      112.507245
2018    4       0.53674301      112.074855
2018    5       0.5331693       110.5106425
2018    6       0.60079415      121.40784625
2018    7       0.6373791       126.33007875
2018    8       0.38832329      89.39897875
2018    9       0.36810555      85.15090125
2018    10      0.38373365      87.28539375
2018    11      0.42429108      95.14261
2018    12      0.50773839      109.88409
2018    13      0.54148849      113.0032275
2018    14      0.74547416      141.085525
2018    15      0.70141708      135.8342125
2018    16      0.66311945      127.00227375
2018    17      0.9265212       161.6187125
2018    18      1.02170864      168.6567
2018    19      0.83264986      151.8853
2018    20      0.3734086       86.466735
2018    21      0.3630099       83.26635375
2018    22      0.7586017       138.07691375
2018    23      0.40917806      91.47274625
2018    24      0.37649038      86.12614875
2018    25      0.42313859      91.6548225
2018    26      0.68948984      132.6145375
2018    27      0.72378032      139.0771625
2018    28      0.79485401      146.2966875
2018    29      0.77397118      145.4387625
2018    30      0.85175096      154.181275
