####################################################################################################
# Month: 09Sep                                                                                     #
# Station: KILI                                                                                    #
# Frequency: 345 GHz                                                                               #
# Columns are: year    day     tau     Tb (K)                                                      #
####################################################################################################
2009    1       0.12302509      35.7279025
2009    2       0.12778893      36.58494
2009    3       0.34721462      79.735055
2009    4       0.26868832      66.03792625
2009    5       0.18127186      48.58688125
2009    6       0.1962665       51.91926
2009    7       0.211858        55.67141
2009    8       0.17600858      48.1535525
2009    9       0.15608094      43.56436875
2009    10      0.10473511      31.7547575
2009    11      0.09502254      29.43838625
2009    12      0.11142441      33.4617825
2009    13      0.12234715      35.77247
2009    14      0.18259575      49.15508625
2009    15      0.23993785      61.21513875
2009    16      0.25914728      64.773665
2009    17      0.26453738      66.444605
2009    18      0.27858198      68.89871875
2009    19      0.19435196      51.78105125
2009    20      0.24503789      61.81630125
2009    21      0.21761815      56.89146375
2009    22      0.20923586      55.19673
2009    23      0.26318202      66.25159625
2009    24      0.16640071      46.2179025
2009    25      0.14261641      40.83526
2009    26      0.16214003      45.06789625
2009    27      0.1663758       45.775065
2009    28      0.09733462      30.0416325
2009    29      0.10154433      31.01842375
2009    30      0.1137654       33.97928375
2010    1       0.37898681      86.5948425
2010    2       0.75518441      138.59361375
2010    3       0.6715557       131.7479
2010    4       0.45397039      99.865965
2010    5       0.17389155      46.9882575
2010    6       0.0971398       30.07937125
2010    7       0.13913377      38.9391075
2010    8       0.24751555      61.771865
2010    9       0.15339196      42.16064125
2010    10      0.17055125      46.2198575
2010    11      0.19232798      50.72152125
2010    12      0.14949306      41.721815
2010    13      0.16682082      45.37975125
2010    14      0.20534218      53.5553875
2010    15      0.26485057      65.73789875
2010    16      0.34412515      81.0645775
2010    17      0.35106665      82.3664875
2010    18      0.27573315      67.70860125
2010    19      0.22671754      58.39616
2010    20      0.30367714      74.068815
2010    21      0.21320336      56.01130875
2010    22      0.14650954      41.51873625
2010    23      0.06553261      22.3436075
2010    24      0.07089658      23.689235
2010    25      0.161105        44.3146325
2010    26      0.19839374      52.41509375
2010    27      0.26601358      65.36838375
2010    28      0.24627207      62.767525
2010    29      0.1633145       45.3298525
2010    30      0.1847992       49.80587625
2011    1       0.16798205      45.390745
2011    2       0.16128249      44.524495
2011    3       0.24579942      61.50345625
2011    4       0.4203816       94.26145
2011    5       0.416204        93.7927775
2011    6       0.40664765      92.06366625
2011    7       0.32357198      76.90547125
2011    8       0.38268674      88.00113125
2011    9       0.27899763      69.2897825
2011    10      0.24243522      62.0011225
2011    11      0.2153335       56.2937875
2011    12      0.1537055       43.1637825
2011    13      0.12312414      36.27889875
2011    14      0.20317516      52.37891875
2011    15      0.35435349      79.52222875
2011    16      0.79361632      143.36835
2011    17      0.77087344      143.5108875
2011    18      0.43295868      94.65010625
2011    19      0.37940436      86.60193125
2011    20      0.32948843      78.1090775
2011    21      0.17234766      47.25750875
2011    22      0.14508881      40.745755
2011    23      0.32624716      73.91792
2011    24      0.26569882      65.32454625
2011    25      0.19547318      52.04171
2011    26      0.15437675      42.87547125
2011    27      0.17347876      46.285055
2011    28      0.35742022      83.17725125
2011    29      0.44214826      97.16645875
2011    30      0.81459064      145.8669875
2012    1       0.16229388      44.74546375
2012    2       0.12273581      35.385275
2012    3       0.13969295      38.9528475
2012    4       0.15948154      44.02307375
2012    5       0.23723009      60.60759
2012    6       0.26001685      64.744555
2012    7       0.18853128      50.108
2012    8       0.15807081      43.638545
2012    9       0.38909701      87.72118875
2012    10      0.44734306      98.6113375
2012    11      0.38897986      86.6377875
2012    12      0.16020912      44.32704875
2012    13      0.12288595      36.149415
2012    14      0.10941502      33.11639375
2012    15      0.10521367      32.09799125
2012    16      0.09027915      28.47908
2012    17      0.07150743      23.91185375
2012    18      0.09240718      28.9692175
2012    19      0.12215872      35.84713
2012    20      0.16126934      44.84157625
2012    21      0.30330658      74.27787875
2012    22      0.24088646      61.532565
2012    23      0.22105298      57.376475
2012    24      0.19204084      51.3887775
2012    25      0.1924169       51.04901
2012    26      0.10667067      32.20296375
2012    27      0.12997074      37.5862275
2012    28      0.15306228      43.0090675
2012    29      0.12028069      35.47806125
2012    30      0.10533482      32.1284225
2013    1       0.28986043      67.178915
2013    2       0.28103461      69.1175075
2013    3       0.21352986      55.576435
2013    4       0.1382294       39.37685625
2013    5       0.10026849      30.5130025
2013    6       0.12607141      36.59195375
2013    7       0.26794431      66.806825
2013    8       0.15254903      42.87145875
2013    9       0.08778323      27.837375
2013    10      0.08994867      28.33019625
2013    11      0.15323036      42.79949375
2013    12      0.31164625      74.46184625
2013    13      0.15811165      44.32568125
2013    14      0.20611504      54.39808125
2013    15      0.17578895      47.69808125
2013    16      0.09489513      29.20406375
2013    17      0.06637318      22.56736375
2013    18      0.52201777      107.2210975
2013    19      0.69436232      134.9811375
2013    20      0.77045851      144.975
2013    21      0.67914418      132.9744875
2013    22      0.49618971      107.5285325
2013    23      0.33909019      81.5061775
2013    24      0.5740994       119.73511375
2013    25      0.53919745      114.9688
2013    26      0.73098218      139.0081125
2013    27      0.55586269      115.05245375
2013    28      0.26714741      65.193515
2013    29      0.43918969      96.10162875
2013    30      0.38948864      89.74413125
2014    1       0.44399376      98.46161375
2014    2       0.5144824       108.87289125
2014    3       0.6284822       126.7739625
2014    4       0.9328927       161.015825
2014    5       0.66514215      130.47105
2014    6       0.31602306      76.0397675
2014    7       0.20655788      54.3387775
2014    8       0.2343946       60.2253225
2014    9       0.21000758      55.4264125
2014    10      0.18366728      49.91920625
2014    11      0.20509066      54.094775
2014    12      0.28973078      71.51815625
2014    13      0.2017604       53.6748925
2014    14      0.24346332      61.87954625
2014    15      0.78909029      141.88305
2014    16      0.39717808      90.0902875
2014    17      0.55451168      113.35289
2014    18      0.43609455      96.62526
2014    19      0.48389236      103.76505375
2014    20      0.39021822      89.1235
2014    21      0.29471607      72.46978625
2014    22      0.3177067       76.24267
2014    23      0.17362187      47.03325875
2014    24      0.11989544      35.46666125
2014    25      0.16256942      45.25291625
2014    26      0.19100335      51.43422
2014    27      0.27487032      68.821555
2014    28      0.44691548      99.1273475
2014    29      0.50361419      107.66681375
2014    30      0.29510256      71.2043525
2015    1       0.4763488       102.784375
2015    2       0.49990892      106.78827
2015    3       0.75626974      139.6083775
2015    4       1.0432024       172.6543
2015    5       0.61947108      124.573125
2015    6       0.41414251      93.8398175
2015    7       0.31554241      76.333705
2015    8       0.1481142       41.96990375
2015    9       0.09258606      28.96599375
2015    10      0.08211499      26.4191725
2015    11      0.0889941       28.22254
2015    12      0.12943402      37.7214675
2015    13      0.14663492      41.1409575
2015    14      0.15853195      43.80441375
2015    15      0.1036824       31.62603125
2015    16      0.27218193      66.10680875
2015    17      0.64149559      127.31025
2015    18      0.52706021      111.22102875
2015    19      0.34315959      80.60091125
2015    20      0.16582171      45.6876425
2015    21      0.12898085      37.6061825
2015    22      0.14637906      41.52029
2015    23      0.14127809      40.41262375
2015    24      0.17401689      47.057725
2015    25      0.20285639      53.31945875
2015    26      0.42096695      93.84547625
2015    27      0.39156281      89.35519375
2015    28      0.27860664      68.76267
2015    29      0.20627902      54.407085
2015    30      0.28100036      68.736865
2016    1       0.10993033      33.0707825
2016    2       0.11890459      35.20668875
2016    3       0.2449646       61.60577125
2016    4       0.30508259      73.6407325
2016    5       0.20058829      53.14915125
2016    6       0.13273254      38.25909
2016    7       0.09743849      30.2172475
2016    8       0.0864286       27.56880375
2016    9       0.08683661      27.48778
2016    10      0.12470163      35.9433175
2016    11      0.08429201      26.51499375
2016    12      0.12172391      34.77198625
2016    13      0.14009417      38.94075375
2016    14      0.40282758      88.4479975
2016    15      0.61680179      123.3270475
2016    16      0.24240442      61.30507875
2016    17      0.12623742      36.14036
2016    18      0.09791706      30.13474125
2016    19      0.11685439      33.88365625
2016    20      0.7124663       135.8977875
2016    21      0.48589729      103.9953375
2016    22      0.1680808       45.9965025
2016    23      0.15302685      42.799275
2016    24      0.2180878       56.5122025
2016    25      0.28716245      70.54725625
2016    26      0.67768097      130.64716375
2016    27      0.34059079      78.2803475
2016    28      0.49634978      102.25005625
2016    29      0.42367849      94.747975
2016    30      0.1135865       34.07968375
2017    1       0.14423875      40.06908875
2017    2       0.16633073      44.72619125
2017    3       0.48946506      105.77450625
2017    4       0.47768465      101.3656075
2017    5       0.24610417      62.065875
2017    6       0.18439166      49.222295
2017    7       0.15150009      41.90530375
2017    8       0.29029398      70.51049375
2017    9       0.32554106      77.69161625
2017    10      0.29553006      72.3674375
2017    11      0.22370538      56.71697875
2017    12      0.12781941      37.03554125
2017    13      0.20229509      52.9924775
2017    14      0.21891338      57.07734875
2017    15      0.50141345      104.69377
2017    16      0.3365964       78.551535
2017    17      0.17629545      47.9474925
2017    18      0.22320881      58.03443625
2017    19      0.2537617       62.44179375
2017    20      0.35683012      81.11467875
2017    21      0.21384036      55.4940625
2017    22      0.198206        51.98523875
2017    23      0.12396187      36.0171725
2017    24      0.25116299      61.4827775
2017    25      0.2863426       68.933625
2017    26      0.25005957      62.113585
2017    27      0.2841387       68.62738125
2017    28      0.32056436      75.935245
2017    29      0.23952429      60.70475625
2017    30      0.18491575      49.38900625
2018    1       0.07855514      25.42312875
2018    2       0.07270859      24.06676125
2018    3       0.2284037       58.608315
2018    4       0.18098904      48.9288875
2018    5       0.15019464      42.1434
2018    6       0.1120151       33.73305125
2018    7       0.08575445      27.5523525
2018    8       0.08399402      27.0908375
2018    9       0.12791672      37.03643625
2018    10      0.12132816      35.33843
2018    11      0.14269144      40.260745
2018    12      0.09916493      30.19376875
2018    13      0.17078947      46.23995625
2018    14      0.13206476      38.07631
2018    15      0.18025936      48.67135
2018    16      0.16266544      45.156835
2018    17      0.14955388      42.20062875
2018    18      0.11125115      33.25606625
2018    19      0.10118793      31.15526875
2018    20      0.10899726      32.99965
2018    21      0.14774485      41.98426625
2018    22      0.12850044      37.64689875
2018    23      0.1454974       41.299715
2018    24      0.11088639      33.47083
2018    25      0.21337476      55.1496125
2018    26      0.62765836      112.5690375
2018    27      1.15184636      179.9706625
2018    28      0.53490147      109.4123175
2018    29      0.20373999      53.3551675
2018    30      0.156904        43.23458375
