####################################################################################################
# Month: 01Jan                                                                                     #
# Station: FLWO                                                                                    #
# Frequency: 230 GHz                                                                               #
# Columns are: year    day     tau     Tb (K)                                                      #
####################################################################################################
2009    1       0.09437951      28.46545875
2009    2       0.07640394      24.03578
2009    3       0.12172283      34.668195
2009    4       0.38411399      84.47276
2009    5       0.28613286      67.997805
2009    6       0.1890609       48.79993875
2009    7       0.17678324      47.8534175
2009    8       0.11588156      33.88668375
2009    9       0.12671036      36.2355525
2009    10      0.04122037      14.9986225
2009    11      0.09427303      28.330455
2009    12      0.07955491      24.71045625
2009    13      0.11003938      32.515505
2009    14      0.06848083      22.05616375
2009    15      0.07042959      22.6922925
2009    16      0.07726531      24.39282875
2009    17      0.1286824       36.503235
2009    18      0.17947048      48.043315
2009    19      0.22870971      57.5493
2009    20      0.604666        124.056025
2009    21      0.69483579      137.338675
2009    22      0.90517754      161.479925
2009    23      0.61120217      124.6901
2009    24      0.25507495      60.5239725
2009    25      0.09652025      28.75841875
2009    26      0.13287202      36.53485125
2009    27      0.06822806      21.74691625
2009    28      0.05487346      18.47010125
2009    29      0.07291659      23.05155875
2009    30      0.04328224      15.69393875
2009    31      0.09766472      29.24139625
2010    1       0.13130355      36.72928375
2010    2       0.27009016      67.11151125
2010    3       0.09787689      28.97423875
2010    4       0.13934531      38.76496625
2010    5       0.09748921      28.9891375
2010    6       0.08942318      27.1109725
2010    7       0.2700631       65.0546425
2010    8       0.23871511      59.19728125
2010    9       0.08682396      25.8001975
2010    10      0.0918496       27.18763625
2010    11      0.14322659      39.12621125
2010    12      0.12905431      36.63664125
2010    13      0.20904719      53.5434625
2010    14      0.19706364      50.42300375
2010    15      0.12006992      33.95543625
2010    16      0.08426093      25.02094375
2010    17      0.15821561      41.71458875
2010    18      0.44045906      96.84484125
2010    19      0.40009361      88.82637625
2010    20      0.36486284      80.991025
2010    21      0.60364568      119.0511725
2010    22      0.71165206      136.6690875
2010    23      0.38250851      83.930815
2010    24      0.07161033      22.6490825
2010    25      0.23254648      58.50550125
2010    26      0.29676943      71.77571125
2010    27      0.34616451      79.29752875
2010    28      0.54817111      112.89731125
2010    29      0.26538832      64.23315
2010    30      0.10741268      31.446225
2010    31      0.13767311      38.21185375
2011    1       0.07619283      23.17665
2011    2       0.1002188       29.47064625
2011    3       0.10210145      29.97682375
2011    4       0.10858585      31.09219625
2011    5       0.16050772      43.08525
2011    6       0.25445929      61.77973375
2011    7       0.27408922      67.04534875
2011    8       0.16558674      43.944605
2011    9       0.187933        49.13152125
2011    10      0.15766859      43.067065
2011    11      0.1653337       44.54753625
2011    12      0.19302501      50.178035
2011    13      0.0948217       28.6198075
2011    14      0.11532722      33.82827375
2011    15      0.12398091      35.4755175
2011    16      0.18848599      49.74579125
2011    17      0.34639494      83.92206125
2011    18      0.17572575      47.97049125
2011    19      0.21193701      55.59855
2011    20      0.21823824      56.61528125
2011    21      0.1114819       32.3972625
2011    22      0.1475848       41.0898475
2011    23      0.17528798      46.58095625
2011    24      0.0652377       21.07643625
2011    25      0.06665221      20.925455
2011    26      0.10664618      30.71845875
2011    27      0.06559641      21.21772375
2011    28      0.07761937      23.8279475
2011    29      0.19183545      49.662995
2011    30      0.11656971      33.48622875
2011    31      0.2622368       62.7730175
2012    1       0.07852223      24.66149875
2012    2       0.08235912      25.75541875
2012    3       0.10810604      31.128795
2012    4       0.15362825      42.02895
2012    5       0.06369462      20.6612625
2012    6       0.10768836      31.195215
2012    7       0.12984029      36.56153875
2012    8       0.12101361      34.34317875
2012    9       0.11570818      32.7501525
2012    10      0.14790191      41.1305425
2012    11      0.18584492      48.60651125
2012    12      0.26307807      63.32681
2012    13      0.1225319       34.008705
2012    14      0.08858982      26.4869625
2012    15      0.33155741      77.44317625
2012    16      0.51535709      107.835475
2012    17      0.05066107      17.47284375
2012    18      0.06258828      20.59985
2012    19      0.10790864      32.11173875
2012    20      0.0825207       25.75285875
2012    21      0.19728241      50.5739075
2012    22      0.15017293      39.89733875
2012    23      0.23678088      58.72892375
2012    24      0.1915247       49.56326625
2012    25      0.10600768      31.04974125
2012    26      0.12664144      36.01392625
2012    27      0.14169218      39.31853875
2012    28      0.20690515      53.05804125
2012    29      0.05237769      17.859165
2012    30      0.0644384       20.71646125
2012    31      0.12539223      35.03123875
2013    1       0.10643054      30.45815625
2013    2       0.13043876      36.64228125
2013    3       0.12413441      35.15138875
2013    4       0.1310667       36.43415
2013    5       0.07866293      24.3532375
2013    6       0.11325616      32.24974375
2013    7       0.12753181      35.2998025
2013    8       0.1597031       42.41310125
2013    9       0.09780159      29.27336375
2013    10      0.13755363      37.36954875
2013    11      0.15760932      40.65189875
2013    12      0.0832657       24.7519775
2013    13      0.065011        20.375225
2013    14      0.08454344      25.090775
2013    15      0.06387334      20.320565
2013    16      0.110442        32.34658875
2013    17      0.0959131       29.257295
2013    18      0.08418682      25.9906125
2013    19      0.10985992      31.87303125
2013    20      0.21446202      54.99955375
2013    21      0.36043639      84.15284375
2013    22      0.213787        55.2109
2013    23      0.11988402      35.055055
2013    24      0.38960141      86.90486875
2013    25      0.78393045      148.1175375
2013    26      0.71077379      139.6133
2013    27      0.38335745      88.88263625
2013    28      0.2245088       56.982755
2013    29      0.18103835      46.244485
2013    30      0.11941797      34.0388875
2013    31      0.12547847      35.86442875
2014    1       0.16643495      44.91476875
2014    2       0.11578128      33.99835625
2014    3       0.11029408      32.45203625
2014    4       0.30347009      70.90781875
2014    5       0.15314548      41.6636425
2014    6       0.07101967      22.8306725
2014    7       0.08686607      26.50359875
2014    8       0.26668711      64.30118375
2014    9       0.11723682      33.14222125
2014    10      0.1431027       39.69070125
2014    11      0.16760136      45.59720375
2014    12      0.13539212      38.09781125
2014    13      0.07273456      22.90002
2014    14      0.07464003      23.618915
2014    15      0.05299086      18.3541425
2014    16      0.06042223      20.260405
2014    17      0.07615187      24.19037
2014    18      0.09479937      28.81672375
2014    19      0.09563698      28.26841625
2014    20      0.15460469      41.94993125
2014    21      0.15804836      42.888925
2014    22      0.31660873      75.146805
2014    23      0.2319178       59.0889175
2014    24      0.46101922      99.09232125
2014    25      0.65974222      130.9849625
2014    26      0.36714536      85.75172125
2014    27      0.37982821      86.8556
2014    28      0.210811        53.71884
2014    29      0.18770862      49.57278125
2014    30      0.2483769       63.31059375
2014    31      0.38465861      88.6405925
2015    1       0.19206221      48.94646
2015    2       0.15576098      41.2333925
2015    3       0.11606761      33.02484375
2015    4       0.12390064      35.3036225
2015    5       0.09478008      28.62171
2015    6       0.0434962       15.829635
2015    7       0.33390681      72.53257375
2015    8       0.7468733       143.2508375
2015    9       0.53285786      111.5679475
2015    10      0.34409285      80.5471525
2015    11      0.3236691       76.88196
2015    12      0.36029889      84.04753125
2015    13      0.22058955      56.86513375
2015    14      0.18470049      48.647445
2015    15      0.07691912      24.12352125
2015    16      0.04564411      16.34558
2015    17      0.07611231      23.82522875
2015    18      0.16267156      44.65235
2015    19      0.19830012      52.03551125
2015    20      0.16918452      45.54469875
2015    21      0.23292071      58.58760625
2015    22      0.1177073       32.80424375
2015    23      0.09586938      28.3288375
2015    24      0.13416696      37.23192625
2015    25      0.1305165       36.600435
2015    26      0.48386674      104.12717875
2015    27      0.54971999      117.001765
2015    28      0.17092535      45.50102125
2015    29      0.41992112      89.391495
2015    30      1.03598072      174.5231625
2015    31      0.72833625      138.68095
2016    1       0.14457258      39.37934
2016    5       0.39899455      88.83444625
2016    6       0.31555885      73.507
2016    7       0.36061182      77.72009125
2016    8       0.41117994      89.6230225
2016    9       0.11530841      32.37952
2016    10      0.22818633      56.1555775
2016    11      0.15695083      41.39231625
2016    12      0.06841519      21.83886
2016    13      0.06604156      21.3824925
2016    14      0.07372611      23.14067625
2016    15      0.18306641      47.697485
2016    16      0.16074732      41.78872125
2016    17      0.26110783      61.4039475
2016    18      0.10844902      30.8228125
2016    19      0.14643743      40.08508125
2016    20      0.17071444      44.90006625
2016    21      0.12523341      35.69628375
2016    22      0.10537342      30.57612625
2016    23      0.10418932      30.30015
2016    24      0.09435672      27.92358125
2016    25      0.13543298      37.05763375
2016    26      0.08560935      25.50628875
2016    27      0.09289235      28.00807125
2016    28      0.10312021      30.154625
2016    29      0.09539496      28.27595875
2016    30      0.23402304      59.0498375
2016    31      0.13375943      37.6216375
2017    1       0.36117822      82.6580825
2017    2       0.16355994      43.08796375
2017    3       0.55082595      114.7974
2017    4       0.50703185      105.0752125
2017    5       0.21744746      56.12725625
2017    6       0.17892192      47.40568125
2017    7       0.22241819      55.86359875
2017    8       0.48804884      107.182315
2017    9       0.32080649      77.54515
2017    10      0.20001431      51.3602625
2017    11      0.20605629      53.05166875
2017    12      0.13481738      37.70607375
2017    13      0.26559954      64.19662625
2017    14      0.47010336      101.0455875
2017    15      0.45389021      98.89845875
2017    16      0.39054926      87.25181125
2017    17      0.39575169      88.97592375
2017    18      0.30216606      72.17431875
2017    19      0.23922719      58.6474825
2017    20      0.35147382      80.27377375
2017    21      0.44793878      96.7120875
2017    22      0.30595588      71.84935125
2017    23      0.2909988       70.304885
2017    24      0.18803517      47.6819725
2017    25      0.10115758      29.16327
2017    26      0.08502689      25.79353875
2017    27      0.09934475      29.1636475
2017    28      0.05141755      17.64436625
2017    29      0.0733006       23.213215
2017    30      0.07054664      22.69932125
2017    31      0.07496548      23.74661625
2018    1       0.44255891      99.06516625
2018    2       0.30763822      74.2153925
2018    3       0.22395322      56.64304125
2018    4       0.56839849      116.8730175
2018    5       0.20013784      53.12676625
2018    6       0.15727026      42.59075625
2018    7       0.42128549      90.809625
2018    8       0.27672688      66.44384875
2018    9       0.5634203       117.56563875
2018    10      0.35421332      81.10454625
2018    11      0.16169019      44.26509125
2018    12      0.18547202      49.5832725
2018    13      0.08735982      26.76192125
2018    14      0.10581885      31.22897875
2018    15      0.1993544       51.453
2018    16      0.31353054      73.5871975
2018    17      0.30198017      72.63469375
2018    18      0.08623739      26.33213875
2018    19      0.12095934      34.69164375
2018    20      0.25931242      63.58078875
2018    21      0.09521256      26.72922625
2018    22      0.16622059      43.097705
2018    23      0.16145507      42.8913525
2018    24      0.05445584      18.51039375
2018    25      0.05952723      19.7647425
2018    26      0.09993158      29.27272875
2018    27      0.11644176      33.50127375
2018    28      0.12514398      35.84398375
2018    29      0.07708356      24.41749
2018    30      0.04866665      17.249355
2018    31      0.05124937      17.74100625
2019    1       0.29471334      69.56791
