####################################################################################################
# Month: 09Sep                                                                                     #
# Station: MOR                                                                                     #
# Frequency: 345 GHz                                                                               #
# Columns are: year    day     tau     Tb (K)                                                      #
####################################################################################################
2009    1       1.79498838      229.1034625
2009    2       1.26775184      198.1785125
2009    3       1.1736925       192.6489375
2009    4       0.90793398      165.641175
2009    5       1.08672452      180.9566125
2009    6       2.08859425      235.790825
2009    7       1.99472075      236.6313625
2009    8       1.2914439       193.8083375
2009    9       1.70216362      213.0295125
2009    10      2.071261        235.15395
2009    11      2.05113338      232.9358875
2009    12      1.04616281      174.9850375
2009    13      1.04149986      169.4129
2009    14      0.94721201      168.21805
2009    15      0.6086606       125.455305
2009    16      0.54476264      115.06977375
2009    17      0.34780498      83.9117575
2009    18      0.77221366      138.27107125
2009    19      1.89634808      209.4715625
2009    20      1.08461744      175.155275
2009    21      0.77723122      146.907
2009    22      0.70808635      139.5161875
2009    23      1.107281        181.2123875
2009    24      2.0901515       234.6700875
2009    25      1.98522488      234.224125
2009    26      0.74477925      143.6165875
2009    27      0.82701889      149.681975
2009    28      1.22407718      186.9417
2009    29      1.10056139      178.245
2009    30      0.66954981      129.00558375
2010    1       1.34078125      204.126925
2010    2       0.69962253      141.598225
2010    3       0.59783791      128.0721125
2010    4       0.84407129      152.1678
2010    5       2.9640425       256.232225
2010    6       3.31137588      265.6470875
2010    7       1.63569842      209.0103875
2010    8       1.03328664      165.16555
2010    9       1.78470488      225.9226375
2010    10      1.658847        223.885075
2010    11      1.41716212      207.433475
2010    12      1.07746048      179.62375
2010    13      1.96321888      227.3826125
2010    14      2.73258262      255.00875
2010    15      3.07543925      262.1038875
2010    16      2.73626175      257.47765
2010    17      1.34660062      201.29725
2010    18      1.97911025      233.9391625
2010    19      2.316289        243.8381625
2010    20      2.0005235       234.2439625
2010    21      2.08836138      228.6416375
2010    22      2.91930112      260.376225
2010    23      2.07270575      233.469925
2010    24      2.28629988      245.329675
2010    25      1.93363338      230.3884875
2010    26      1.69027988      219.7819
2010    27      0.95984152      167.3045375
2010    28      0.82384806      152.3485875
2010    29      1.32369718      198.5968
2010    30      1.25846525      191.7452375
2011    1       1.24739112      195.80835
2011    2       1.50195948      212.46105
2011    3       0.57439554      122.66348875
2011    4       0.99701028      171.9385375
2011    5       1.2822455       201.4993875
2011    6       0.98846796      174.4643125
2011    7       1.15152751      189.849575
2011    8       1.20107438      194.4042875
2011    9       1.3152705       201.3991
2011    10      0.94722199      169.3562125
2011    11      0.70145486      141.80615
2011    12      0.54912341      116.80578625
2011    13      0.69769561      137.595975
2011    14      0.58025155      122.89085
2011    15      0.94596291      165.8207
2011    16      1.27412162      197.6957875
2011    17      1.8623355       231.10935
2011    18      0.96083629      168.985825
2011    19      0.37714839      88.97861125
2011    20      0.62236288      124.91089375
2011    21      0.8339441       156.844325
2011    22      1.46506966      207.8088375
2011    23      1.996771        233.2731375
2011    24      0.52541862      113.7367625
2011    25      0.47182015      104.77968125
2011    26      0.88766488      159.4611
2011    27      1.14196944      185.2680375
2011    28      1.2192716       190.6579625
2011    29      1.29600001      197.2168375
2011    30      1.21611709      192.69225
2012    1       1.25273325      199.0016875
2012    2       0.98827209      174.43875
2012    3       1.02795054      177.599725
2012    4       0.9986034       174.1829375
2012    5       0.42821519      97.72557125
2012    6       0.31724294      76.916115
2012    7       0.6867877       134.62825375
2012    8       0.81961922      153.84914
2012    9       0.38850043      91.15530125
2012    10      0.47937362      105.016985
2012    11      0.60825159      121.925195
2012    12      0.65351011      133.9828125
2012    13      0.60480099      126.69326
2012    14      0.81195485      154.9923
2012    15      1.14009214      188.82805
2012    16      1.14799059      189.5798375
2012    17      0.93443248      167.6489625
2012    18      1.32848275      199.8924375
2012    19      1.72211788      222.8362
2012    20      1.18188225      193.021575
2012    21      1.07627694      182.3497
2012    22      1.42809388      208.2515875
2012    23      2.1960205       235.378775
2012    24      3.06178525      259.73785
2012    25      1.34920856      201.20935
2012    26      0.9390946       165.321275
2012    27      2.0331595       229.6721125
2012    28      1.10927757      173.1507125
2012    29      0.62786266      127.64508625
2012    30      0.91549189      162.7499125
2013    1       0.71211971      135.66520125
2013    2       0.84777575      157.398425
2013    3       0.7996654       151.3531875
2013    4       0.89325266      162.7993625
2013    5       0.74930021      147.2330625
2013    6       1.71543188      209.841375
2013    7       2.10927238      235.1707625
2013    8       1.34696312      201.099575
2013    9       0.71264831      140.4061125
2013    10      0.72843111      138.7993625
2013    11      1.46122258      206.2189875
2013    12      1.42673845      194.3334625
2013    13      2.19234812      241.5829625
2013    14      1.08927506      178.116325
2013    15      1.04491654      173.308375
2013    16      1.82790438      226.43165
2013    17      1.49217142      207.431075
2013    18      2.0762415       234.0987875
2013    19      1.29717905      192.7889875
2013    20      1.73243575      225.29675
2013    21      1.52756744      211.4050375
2013    22      1.68359825      222.164175
2013    23      1.83747812      229.621275
2013    24      1.49028025      212.2009375
2013    25      1.01735796      173.225375
2013    26      1.02490807      175.8893125
2013    27      0.96018544      170.481875
2013    28      1.15526692      186.691575
2013    29      1.64379525      219.2561875
2013    30      1.77339425      229.2727625
2014    1       1.58494238      214.6483875
2014    2       1.79732775      230.969925
2014    3       1.92624362      235.74105
2014    4       2.18772012      244.3849125
2014    5       1.19206336      192.0144
2014    6       1.03094189      166.4386375
2014    7       0.93631391      162.3895375
2014    8       0.5226175       113.07590375
2014    9       0.53217959      117.523075
2014    10      0.86163915      160.9501625
2014    11      1.32181306      202.6904875
2014    12      1.72526788      227.51645
2014    13      2.0043095       238.9966625
2014    14      2.135473        241.964675
2014    15      2.40284862      250.18255
2014    16      1.96098375      235.6697
2014    17      1.49848138      211.9905375
2014    18      0.92584684      165.6083
2014    19      1.0313067       170.4661625
2014    20      2.52325388      248.3610625
2014    21      2.58366275      251.28475
2014    22      1.46463791      205.7016125
2014    23      0.6813252       136.0833875
2014    24      0.85356976      159.5191375
2014    25      0.74442806      144.67605
2014    26      1.99641375      234.129775
2014    27      1.38260884      202.7659
2014    28      0.93073549      166.12725
2014    29      0.85976576      156.0741
2014    30      0.9399555       161.628575
2015    1       1.59676715      213.1243
2015    2       0.81967685      150.0220625
2015    3       0.66259297      135.564125
2015    4       0.80365712      153.5419125
2015    5       1.0716448       183.2537875
2015    6       0.82155049      155.6826375
2015    7       0.70285106      135.8835425
2015    8       0.84429446      157.5891875
2015    9       1.22483895      189.585525
2015    10      1.54441125      216.1730375
2015    11      1.24891259      192.928225
2015    12      1.20140404      190.32605
2015    13      1.02571245      177.4817625
2015    14      0.79170124      151.4029625
2015    15      0.588548        125.115725
2015    16      0.68589612      136.5837125
2015    17      0.84787741      156.585025
2015    18      0.81809911      154.667025
2015    19      0.61285509      118.5315325
2015    20      1.64735075      212.5380625
2015    21      1.75181238      223.2905875
2015    22      2.04940375      237.7972625
2015    23      2.40994025      248.1207625
2015    24      1.23088789      191.083925
2015    25      1.38769374      196.0489125
2015    26      1.33677885      195.19955
2015    27      2.00832879      226.2683
2015    28      2.48406237      247.9961625
2015    29      1.8342044       220.3462625
2015    30      0.45479931      102.31671625
2016    1       2.07459238      237.0790875
2016    2       2.2500055       242.1497625
2016    3       2.21394075      241.740075
2016    4       2.13807212      241.0916
2016    5       2.189803        243.1501875
2016    6       2.37324225      247.97775
2016    7       2.11835612      239.6648
2016    8       1.89931588      232.9465
2016    9       1.72121938      224.7353
2016    10      1.6302975       220.2432875
2016    11      1.25648012      195.2722875
2016    12      1.07274144      178.616225
2016    13      1.20178964      181.6361225
2016    14      0.75997482      143.91426
2016    15      1.16584398      187.9538375
2016    16      1.4995835       215.1082
2016    17      1.3043065       200.8575875
2016    18      1.27635719      194.4864375
2016    19      2.0026085       232.5665875
2016    20      0.42685576      97.20045375
2016    21      1.16065912      177.563175
2016    22      0.46911561      104.3843975
2016    23      0.46193192      104.07884375
2016    24      0.43549609      98.84374
2016    25      0.50156888      109.331535
2016    26      0.84009676      154.6625125
2016    27      1.21251726      191.7883625
2016    28      1.11919122      185.928825
2016    29      1.23700304      187.406675
2016    30      0.73620015      143.7777875
2017    1       0.65735471      135.06681
2017    2       0.80326576      148.3538
2017    3       0.86127869      160.3833
2017    4       0.54496392      118.767175
2017    5       0.73361531      138.78049375
2017    6       1.4688375       213.2948375
2017    7       1.1734541       193.9315375
2017    8       0.46459476      105.74399
2017    9       0.38027709      91.34299375
2017    10      0.5050227       111.32725
2017    11      0.76685768      149.859
2017    12      0.81410556      152.5763625
2017    13      1.52852475      209.66695
2017    14      2.21297188      242.7063625
2017    15      1.51163162      212.8545
2017    16      1.44276291      205.8167875
2017    17      0.93585832      160.516525
2017    18      0.34084302      82.91269375
2017    19      0.51737998      111.0278275
2017    20      0.87139823      158.5678
2017    21      1.19468225      189.9289
2017    22      1.81720712      225.7225125
2017    23      1.46827262      209.37825
2017    24      1.16850378      188.7973875
2017    25      1.2240353       190.8992
2017    26      2.320933        242.7034125
2017    27      2.05395262      237.6761125
2017    28      1.13789281      185.10575
2017    29      1.03892348      177.609425
2017    30      0.8439657       156.23525
2018    1       1.71045212      224.4969125
2018    2       1.93555525      235.6684125
2018    3       1.84590838      230.2496125
2018    4       1.35562601      202.949625
2018    5       1.897246        233.5577875
2018    6       2.5398305       252.0313875
2018    7       0.9085402       164.5081625
2018    8       0.52506184      113.238305
2018    9       0.3595822       86.46764125
2018    10      0.7990723       143.008595
2018    11      2.3147675       243.92765
2018    12      2.27872962      245.6570375
2018    13      1.457204        208.4360875
2018    14      1.23977194      192.0631125
2018    15      1.14342966      173.1481375
2018    16      1.829388        226.5356875
2018    17      1.36410875      196.98495
2018    18      1.54324046      200.7088375
2018    19      1.11503965      180.720775
2018    20      1.41907562      207.742075
2018    21      2.09921712      234.6673875
2018    22      2.23682213      244.3921
2018    23      1.87460338      230.4874375
2018    24      2.04595562      236.0787
2018    25      2.41035175      247.2791
2018    26      2.55692662      251.1354
2018    27      2.58495912      251.768925
2018    28      2.58546625      250.2345
2018    29      2.275271        242.4423625
2018    30      2.01468         234.3751875
