####################################################################################################
# Month: 09Sep                                                                                     #
# Station: MOR                                                                                     #
# Frequency: 230 GHz                                                                               #
# Columns are: year    day     segment         tau     Tb (K)                                      #
####################################################################################################
2009    1       0       0.5862754       123.4678
2009    1       1       0.5408782       116.3039
2009    1       2       0.55585         118.5539
2009    1       3       0.5459283       117.3222
2009    1       4       0.5063522       111.1826
2009    1       5       0.5118236       112.1511
2009    1       6       0.4955555       109.4929
2009    1       7       0.3490397       83.44776
2009    2       0       0.2679675       67.64302
2009    2       1       0.2818283       70.64313
2009    2       2       0.3535076       84.73843
2009    2       3       0.3652776       86.80211
2009    2       4       0.3615866       86.23212
2009    2       5       0.424528        98.19883
2009    2       6       0.4674691       106.3197
2009    2       7       0.3409781       83.43814
2009    3       0       0.3113583       77.48759
2009    3       1       0.3023388       75.56803
2009    3       2       0.3101411       77.02248
2009    3       3       0.3029036       75.56477
2009    3       4       0.3328288       81.40453
2009    3       5       0.3853002       91.15934
2009    3       6       0.3947341       93.01351
2009    3       7       0.3127942       77.66559
2009    4       0       0.2634333       67.3729
2009    4       1       0.2679966       68.12869
2009    4       2       0.2342804       60.99132
2009    4       3       0.1899213       51.31638
2009    4       4       0.2228111       58.53365
2009    4       5       0.2758355       69.56307
2009    4       6       0.3164896       77.76298
2009    4       7       0.2787195       70.35615
2009    5       0       0.251671        64.64494
2009    5       1       0.2405836       62.03724
2009    5       2       0.2420492       62.22077
2009    5       3       0.2438064       62.56757
2009    5       4       0.2989012       73.9813
2009    5       5       0.3771279       88.91134
2009    5       6       0.4191801       96.39495
2009    5       7       0.386081        90.67266
2009    6       0       0.4049554       94.27191
2009    6       1       0.4406984       100.6854
2009    6       2       0.4303375       98.71078
2009    6       3       0.4512108       102.1596
2009    6       4       0.60118         125.9575
2009    6       5       0.954048        169.0519
2009    6       6       1.050725        179.1502
2009    6       7       0.7127989       142.2364
2009    7       0       0.6447097       131.9747
2009    7       1       0.6775795       135.7709
2009    7       2       0.5550112       118.1726
2009    7       3       0.4264521       97.48242
2009    7       4       0.518632        113.2242
2009    7       5       0.6863863       137.2987
2009    7       6       0.6683507       135.173
2009    7       7       0.5013553       110.4026
2009    8       0       0.340443        81.81316
2009    8       1       0.2642637       66.78531
2009    8       2       0.2417127       62.16029
2009    8       3       0.2373933       61.10219
2009    8       4       0.3614986       85.69518
2009    8       5       0.5274801       113.8582
2009    8       6       0.6072022       125.7949
2009    8       7       0.4293998       97.81304
2009    9       0       0.3239663       78.3421
2009    9       1       0.3002542       73.54537
2009    9       2       0.3092081       74.98115
2009    9       3       0.3397128       81.13636
2009    9       4       0.4526584       101.2737
2009    9       5       0.6306086       128.5297
2009    9       6       1.009165        173.7553
2009    9       7       0.8074294       150.6733
2009    10      0       0.8479014       155.1019
2009    10      1       0.5853289       120.786
2009    10      2       0.5781608       118.75
2009    10      3       0.6470328       127.5196
2009    10      4       0.6634037       130.71
2009    10      5       0.7740117       146.0813
2009    10      6       0.8671825       156.7347
2009    10      7       0.6515629       129.6215
2009    11      0       0.4574232       101.0977
2009    11      1       0.3927833       90.44943
2009    11      2       0.4810525       105.0882
2009    11      3       0.5912619       121.5178
2009    11      4       0.8600159       156.9562
2009    11      5       1.085097        180.824
2009    11      6       0.8843915       161.758
2009    11      7       0.5783998       122.446
2009    12      0       0.4581013       102.9844
2009    12      1       0.3905337       91.18859
2009    12      2       0.3130144       76.67338
2009    12      3       0.2245762       58.61104
2009    12      4       0.2488404       63.65128
2009    12      5       0.2834127       70.64672
2009    12      6       0.2694466       67.71788
2009    12      7       0.178985        48.07437
2009    13      0       0.1668247       45.35376
2009    13      1       0.1702451       46.13465
2009    13      2       0.1850783       49.47974
2009    13      3       0.200822        53.18915
2009    13      4       0.316899        77.47976
2009    13      5       0.5246504       114.0732
2009    13      6       0.5985173       125.7694
2009    13      7       0.3786966       89.34628
2009    14      0       0.2962017       73.10174
2009    14      1       0.2603934       65.87829
2009    14      2       0.2318933       59.73896
2009    14      3       0.237587        60.72662
2009    14      4       0.2992204       73.40974
2009    14      5       0.2923854       72.40797
2009    14      6       0.2880677       71.6891
2009    14      7       0.2371098       61.19298
2009    15      0       0.1599012       44.17082
2009    15      1       0.1145094       33.52098
2009    15      2       0.1358004       38.64419
2009    15      3       0.1547703       43.15344
2009    15      4       0.1879648       50.75644
2009    15      5       0.2450198       62.9329
2009    15      6       0.2720584       68.56912
2009    15      7       0.1599578       44.41644
2009    16      0       0.123984        35.90606
2009    16      1       0.1142529       33.54317
2009    16      2       0.1081278       31.98571
2009    16      3       0.09748559      29.38789
2009    16      4       0.1482977       41.74611
2009    16      5       0.2331272       60.62732
2009    16      6       0.2672365       67.89352
2009    16      7       0.1606459       44.7029
2009    17      0       0.120317        35.16822
2009    17      1       0.1036831       31.10998
2009    17      2       0.08186067      25.78406
2009    17      3       0.062981        21.00083
2009    17      4       0.09658128      29.50494
2009    17      5       0.1471625       41.84228
2009    17      6       0.1243424       36.43238
2009    17      7       0.07350289      23.56934
2009    18      0       0.08236152      25.6708
2009    18      1       0.1171939       33.57072
2009    18      2       0.1678765       44.40417
2009    18      3       0.1572898       42.45955
2009    18      4       0.2160814       55.28779
2009    18      5       0.411821        93.38148
2009    18      6       0.3930636       90.82084
2009    18      7       0.2335848       60.35198
2009    19      0       0.151137        42.22004
2009    19      1       0.1511942       41.92039
2009    19      2       0.331777        79.05269
2009    19      3       0.4677405       103.8334
2009    19      4       0.8758742       159.7724
2009    19      5       0.9911815       173.0332
2009    19      6       0.8224199       155.0106
2009    19      7       0.7089429       140.5248
2009    20      0       0.591855        123.8471
2009    20      1       0.3458626       81.77161
2009    20      2       0.322066        77.8568
2009    20      3       0.3139778       75.71812
2009    20      4       0.2775327       68.26576
2009    20      5       0.2428936       62.05886
2009    20      6       0.1965457       52.48495
2009    20      7       0.1855699       50.12305
2009    21      0       0.1676235       46.26958
2009    21      1       0.158831        44.33869
2009    21      2       0.160339        44.3813
2009    21      3       0.1668128       45.43425
2009    21      4       0.3300782       78.14607
2009    21      5       0.3063804       74.86517
2009    21      6       0.2838698       70.92277
2009    21      7       0.2147634       56.47187
2009    22      0       0.1548108       42.97045
2009    22      1       0.1443917       40.69181
2009    22      2       0.1481171       41.529
2009    22      3       0.1527002       42.51206
2009    22      4       0.2225124       58.41159
2009    22      5       0.2681978       68.25051
2009    22      6       0.2811694       70.95515
2009    22      7       0.2389329       62.27906
2009    23      0       0.22051         58.16616
2009    23      1       0.2270686       59.48837
2009    23      2       0.216482        57.08927
2009    23      3       0.2940463       72.42168
2009    23      4       0.3595179       85.28445
2009    23      5       0.3458781       82.9673
2009    23      6       0.3840416       89.86377
2009    23      7       0.4612917       103.4768
2009    24      0       0.455373        102.3423
2009    24      1       0.3931893       91.34293
2009    24      2       0.4200071       96.18806
2009    24      3       0.48461         107.246
2009    24      4       0.8026161       150.7291
2009    24      5       1.009798        174.1598
2009    24      6       0.9191489       165.1217
2009    24      7       0.7278466       142.2768
2009    25      0       0.580499        121.7194
2009    25      1       0.4564086       102.2503
2009    25      2       0.4952105       108.8209
2009    25      3       0.5996919       124.2836
2009    25      4       0.8473898       155.8089
2009    25      5       0.7964063       149.936
2009    25      6       0.6198938       126.8008
2009    25      7       0.5064158       109.5894
2009    26      0       0.2882067       70.82812
2009    26      1       0.1549563       42.86887
2009    26      2       0.2176776       56.14666
2009    26      3       0.2070462       54.22872
2009    26      4       0.1990837       52.66589
2009    26      5       0.2425871       62.15652
2009    26      6       0.2733776       68.69549
2009    26      7       0.1799918       48.81219
2009    27      0       0.1328107       37.81683
2009    27      1       0.1417872       39.90012
2009    27      2       0.1563452       43.04448
2009    27      3       0.19833         52.22504
2009    27      4       0.277974        69.0896
2009    27      5       0.3549384       84.20806
2009    27      6       0.3860291       90.08512
2009    27      7       0.2630135       66.39138
2009    28      0       0.2550351       64.68576
2009    28      1       0.2572381       65.09257
2009    28      2       0.253529        64.25639
2009    28      3       0.2471946       62.92788
2009    28      4       0.3348089       80.13406
2009    28      5       0.5260625       112.7967
2009    28      6       0.7779714       147.6236
2009    28      7       0.4163426       95.03215
2009    29      0       0.3384302       80.61335
2009    29      1       0.3292904       78.66111
2009    29      2       0.3086255       74.8083
2009    29      3       0.2804782       69.17012
2009    29      4       0.3494523       82.34454
2009    29      5       0.5544115       116.3294
2009    29      6       0.4623226       102.7508
2009    29      7       0.1517467       42.35374
2009    30      0       0.1046644       31.00528
2009    30      1       0.123359        35.19136
2009    30      2       0.1272993       36.04987
2009    30      3       0.1231955       35.14522
2009    30      4       0.1866707       49.48802
2009    30      5       0.2714705       67.36599
2009    30      6       0.3179468       76.61492
2009    30      7       0.2633439       65.38009
2010    1       0       0.3129647       76.61603
2010    1       1       0.4194573       96.64249
2010    1       2       0.4005554       93.53301
2010    1       3       0.3829049       90.07613
2010    1       4       0.3945391       92.17745
2010    1       5       0.4311872       99.01653
2010    1       6       0.4099815       95.61348
2010    1       7       0.2981404       74.64935
2010    2       0       0.2103854       56.06179
2010    2       1       0.1738853       47.84082
2010    2       2       0.1570468       44.04182
2010    2       3       0.1689188       46.97621
2010    2       4       0.2057128       55.39935
2010    2       5       0.2499609       65.09817
2010    2       6       0.2357302       62.16091
2010    2       7       0.1803529       49.89696
2010    3       0       0.1548559       43.97462
2010    3       1       0.1509965       43.07872
2010    3       2       0.1495944       42.71889
2010    3       3       0.1522138       43.26548
2010    3       4       0.1678015       46.86911
2010    3       5       0.1924564       52.531
2010    3       6       0.2056074       55.4901
2010    3       7       0.1826361       50.34329
2010    4       0       0.1632163       45.91263
2010    4       1       0.1551965       44.11213
2010    4       2       0.1492466       42.60378
2010    4       3       0.1466612       41.73596
2010    4       4       0.2201148       57.77055
2010    4       5       0.2903134       71.66244
2010    4       6       0.3642009       85.48926
2010    4       7       0.4451632       100.0542
2010    5       0       0.5156183       111.8885
2010    5       1       0.5894388       122.609
2010    5       2       0.7192268       140.1607
2010    5       3       0.9277402       165.1079
2010    5       4       1.182122        190.1519
2010    5       5       1.46724         211.6568
2010    5       6       1.314343        201.0621
2010    5       7       1.135438        186.8073
2010    6       0       0.9315058       167.3437
2010    6       1       0.8751854       161.3044
2010    6       2       1.073576        181.4758
2010    6       3       1.226494        194.9149
2010    6       4       1.461946        211.9172
2010    6       5       1.547764        217.2336
2010    6       6       1.197666        192.3446
2010    6       7       0.9314924       167.3743
2010    7       0       0.8827775       162.4735
2010    7       1       0.7608584       148.048
2010    7       2       0.6084848       127.8536
2010    7       3       0.4583947       104.54
2010    7       4       0.4374585       101.0558
2010    7       5       0.4173024       97.71715
2010    7       6       0.2456509       63.93382
2010    7       7       0.1507177       42.38144
2010    8       0       0.1339676       38.52767
2010    8       1       0.1317394       38.1187
2010    8       2       0.1403725       40.11531
2010    8       3       0.1674638       46.36933
2010    8       4       0.3145137       78.00827
2010    8       5       0.4564465       104.011
2010    8       6       0.5888964       125.2201
2010    8       7       0.4762983       107.6689
2010    9       0       0.4209369       98.16311
2010    9       1       0.3891694       92.51742
2010    9       2       0.3641841       87.86645
2010    9       3       0.353132        85.69999
2010    9       4       0.4732426       107.1249
2010    9       5       0.7186756       143.2435
2010    9       6       0.9227308       167.6423
2010    9       7       0.6521076       134.8175
2010    10      0       0.4833913       109.0557
2010    10      1       0.3997143       94.55278
2010    10      2       0.4081638       95.63179
2010    10      3       0.413718        96.27839
2010    10      4       0.4645127       104.8606
2010    10      5       0.565525        120.6152
2010    10      6       0.5983647       125.5956
2010    10      7       0.4905835       109.1443
2010    11      0       0.4473088       101.4766
2010    11      1       0.4395915       99.45914
2010    11      2       0.4448002       99.92333
2010    11      3       0.4000577       92.17894
2010    11      4       0.3867802       89.99277
2010    11      5       0.4098096       94.59375
2010    11      6       0.4144276       95.71521
2010    11      7       0.2845813       71.4567
2010    12      0       0.2198367       57.49924
2010    12      1       0.2538119       64.56991
2010    12      2       0.260446        65.71862
2010    12      3       0.2854412       70.64668
2010    12      4       0.3404579       81.09507
2010    12      5       0.378641        88.25007
2010    12      6       0.3728642       87.51602
2010    12      7       0.3324952       80.23115
2010    13      0       0.337088        81.01716
2010    13      1       0.3685067       86.52795
2010    13      2       0.4067939       93.24801
2010    13      3       0.4323835       97.75189
2010    13      4       0.5839026       121.8803
2010    13      5       0.8730022       158.831
2010    13      6       0.9481668       167.655
2010    13      7       0.8211213       154.1391
2010    14      0       0.6413043       131.1851
2010    14      1       0.6035989       125.7324
2010    14      2       0.6108096       126.9667
2010    14      3       0.6447508       131.8936
2010    14      4       0.8622784       159.412
2010    14      5       1.221178        194.2324
2010    14      6       1.223603        194.7323
2010    14      7       1.047676        179.4438
2010    15      0       0.8754771       161.4898
2010    15      1       0.7557642       147.0718
2010    15      2       0.7001224       139.9337
2010    15      3       0.6969287       139.6111
2010    15      4       0.9044995       164.2033
2010    15      5       1.343608        203.1334
2010    15      6       1.328626        201.8451
2010    15      7       1.121875        184.7389
2010    16      0       0.9436694       168.0128
2010    16      1       0.8039861       152.4913
2010    16      2       0.7086504       140.5703
2010    16      3       0.667813        135.1941
2010    16      4       0.8299909       155.3268
2010    16      5       0.9907369       172.8029
2010    16      6       0.8675409       159.8178
2010    16      7       0.7941343       151.0349
2010    17      0       0.5461944       118.1265
2010    17      1       0.5291799       115.7449
2010    17      2       0.4443454       101.8983
2010    17      3       0.2765558       70.16289
2010    17      4       0.259797        66.40851
2010    17      5       0.3279408       79.82721
2010    17      6       0.3712191       88.04649
2010    17      7       0.3415504       82.58098
2010    18      0       0.3542658       85.25617
2010    18      1       0.4338017       99.66604
2010    18      2       0.5096216       112.1219
2010    18      3       0.5427893       116.9407
2010    18      4       0.6202355       128.332
2010    18      5       0.8268266       154.9638
2010    18      6       0.8211792       154.306
2010    18      7       0.6025969       125.8438
2010    19      0       0.570849        120.7688
2010    19      1       0.4859003       107.1554
2010    19      2       0.4898223       107.7319
2010    19      3       0.5572913       118.2018
2010    19      4       0.6834491       136.2598
2010    19      5       0.940738        167.0195
2010    19      6       1.052169        178.9608
2010    19      7       1.098956        183.303
2010    20      0       0.7415573       144.8196
2010    20      1       0.5212565       113.9348
2010    20      2       0.4332014       99.34918
2010    20      3       0.4922709       108.3689
2010    20      4       0.8274248       155.1412
2010    20      5       1.039221        177.6766
2010    20      6       0.8880286       162.7443
2010    20      7       0.472564        106.284
2010    21      0       0.3381011       82.35148
2010    21      1       0.3333706       81.43214
2010    21      2       0.4278482       98.75428
2010    21      3       0.5696074       121.8785
2010    21      4       0.7279415       144.2258
2010    21      5       1.159155        189.0784
2010    21      6       1.151771        187.8455
2010    21      7       0.9395394       166.997
2010    22      0       1.037241        176.8752
2010    22      1       0.8766808       160.7374
2010    22      2       0.788115        150.4655
2010    22      3       0.7095061       140.6648
2010    22      4       0.8156793       154.1462
2010    22      5       1.095204        183.6219
2010    22      6       1.18538         192.025
2010    22      7       0.7264808       144.2512
2010    23      0       0.4745612       107.3701
2010    23      1       0.3537461       85.67872
2010    23      2       0.3740312       89.35283
2010    23      3       0.4066716       95.3309
2010    23      4       0.5274511       115.7613
2010    23      5       0.8510164       159.4493
2010    23      6       1.166937        190.6123
2010    23      7       1.098249        184.7394
2010    24      0       1.069014        182.0899
2010    24      1       1.135473        188.1422
2010    24      2       0.6649146       135.7959
2010    24      3       0.4991678       110.9447
2010    24      4       0.5364165       116.5099
2010    24      5       0.6207813       128.9128
2010    24      6       0.6837191       137.8009
2010    24      7       0.5321313       115.9645
2010    25      0       0.4158205       96.58993
2010    25      1       0.3898244       91.53842
2010    25      2       0.4330607       98.98181
2010    25      3       0.4146003       95.79687
2010    25      4       0.5087691       111.468
2010    25      5       0.6945896       138.2307
2010    25      6       0.7820293       149.2544
2010    25      7       0.8178533       154.1607
2010    26      0       0.697656        139.7506
2010    26      1       0.7617073       148.1557
2010    26      2       0.4547429       103.3546
2010    26      3       0.3635874       87.08151
2010    26      4       0.3249053       79.33229
2010    26      5       0.404141        93.80101
2010    26      6       0.45935         102.7418
2010    26      7       0.408057        93.76603
2010    27      0       0.4163108       94.92132
2010    27      1       0.4280603       96.9616
2010    27      2       0.3043085       74.66136
2010    27      3       0.2256885       58.98511
2010    27      4       0.2235622       59.0664
2010    27      5       0.2399764       62.49623
2010    27      6       0.2098392       55.99389
2010    27      7       0.1676724       46.25393
2010    28      0       0.1623007       45.28933
2010    28      1       0.1554109       43.8017
2010    28      2       0.1414343       40.60312
2010    28      3       0.155003        43.83007
2010    28      4       0.2419674       63.20792
2010    28      5       0.3553962       85.88997
2010    28      6       0.3639363       87.62012
2010    28      7       0.327522        80.96899
2010    29      0       0.3224235       79.78763
2010    29      1       0.320406        79.14813
2010    29      2       0.2905593       73.02617
2010    29      3       0.2379608       61.96883
2010    29      4       0.3343312       81.50489
2010    29      5       0.526575        114.8548
2010    29      6       0.6275319       129.8719
2010    29      7       0.5053819       111.4706
2010    30      0       0.3884867       91.40975
2010    30      1       0.2972903       74.00337
2010    30      2       0.2401414       62.20566
2010    30      3       0.2051462       54.68187
2010    30      4       0.2948913       73.41313
2010    30      5       0.4541433       102.2502
2010    30      6       0.6235783       128.4445
2010    30      7       0.4690003       105.1016
2011    1       0       0.4037161       93.32437
2011    1       1       0.3197214       78.00245
2011    1       2       0.2881447       71.89682
2011    1       3       0.2976367       73.7822
2011    1       4       0.351861        84.15045
2011    1       5       0.3862322       90.4213
2011    1       6       0.3855503       90.07343
2011    1       7       0.3797462       88.60577
2011    2       0       0.4205174       96.48897
2011    2       1       0.4752737       105.5436
2011    2       2       0.4735991       104.8786
2011    2       3       0.4584939       102.3206
2011    2       4       0.4686483       104.0007
2011    2       5       0.4748596       105.8898
2011    2       6       0.403022        94.35443
2011    2       7       0.2847684       71.81747
2011    3       0       0.2260851       59.6623
2011    3       1       0.1852932       50.60115
2011    3       2       0.1308406       37.75063
2011    3       3       0.1093187       32.40003
2011    3       4       0.1242161       36.10047
2011    3       5       0.1735775       47.99803
2011    3       6       0.1837258       50.5249
2011    3       7       0.1711909       47.64046
2011    4       0       0.1748057       48.43349
2011    4       1       0.1915124       52.19332
2011    4       2       0.206916        55.72223
2011    4       3       0.2021807       54.57955
2011    4       4       0.2804817       71.23968
2011    4       5       0.3748385       89.82105
2011    4       6       0.4317205       100.3594
2011    4       7       0.3974109       94.4706
2011    5       0       0.3646023       88.32625
2011    5       1       0.3370416       83.02974
2011    5       2       0.3065958       77.03581
2011    5       3       0.3005926       75.75783
2011    5       4       0.3341594       82.1412
2011    5       5       0.42303         98.34296
2011    5       6       0.4585679       104.5235
2011    5       7       0.3894629       92.52372
2011    6       0       0.3346586       82.31735
2011    6       1       0.2695264       69.0365
2011    6       2       0.2350906       61.67592
2011    6       3       0.208506        55.77763
2011    6       4       0.2405405       62.62494
2011    6       5       0.2923905       73.20178
2011    6       6       0.3309535       80.62187
2011    6       7       0.3259834       79.83665
2011    7       0       0.3240857       79.57544
2011    7       1       0.3192574       78.62731
2011    7       2       0.2913678       73.03397
2011    7       3       0.2766268       69.97
2011    7       4       0.3091159       76.5269
2011    7       5       0.3492419       84.1478
2011    7       6       0.3917735       91.76328
2011    7       7       0.3454848       83.50327
2011    8       0       0.3294823       80.5758
2011    8       1       0.322536        79.27302
2011    8       2       0.314441        77.83346
2011    8       3       0.31004         76.94071
2011    8       4       0.3228195       79.30474
2011    8       5       0.381798        90.16365
2011    8       6       0.3984229       92.94639
2011    8       7       0.3459027       83.48434
2011    9       0       0.3524967       84.82064
2011    9       1       0.3389954       82.4242
2011    9       2       0.3084962       76.44651
2011    9       3       0.3017794       74.99362
2011    9       4       0.3253558       79.46338
2011    9       5       0.3988701       93.14717
2011    9       6       0.4862907       108.2413
2011    9       7       0.4714622       105.9902
2011    10      0       0.3840775       90.94514
2011    10      1       0.3281701       80.5218
2011    10      2       0.2949442       74.07883
2011    10      3       0.2422953       63.0902
2011    10      4       0.2338056       61.10583
2011    10      5       0.2408366       62.62199
2011    10      6       0.2290389       60.21672
2011    10      7       0.1914212       51.85055
2011    11      0       0.2051342       54.89472
2011    11      1       0.1955798       52.94431
2011    11      2       0.1863451       50.96225
2011    11      3       0.1767104       48.72421
2011    11      4       0.2003678       54.05059
2011    11      5       0.2346544       61.58017
2011    11      6       0.2422974       63.25027
2011    11      7       0.1476712       41.92094
2011    12      0       0.1261601       36.68004
2011    12      1       0.1261395       36.62612
2011    12      2       0.1116798       33.03212
2011    12      3       0.1106068       32.63216
2011    12      4       0.1504037       42.01724
2011    12      5       0.2048337       54.18483
2011    12      6       0.2376643       61.05464
2011    12      7       0.1902514       50.33004
2011    13      0       0.177575        47.28535
2011    13      1       0.1792912       47.86324
2011    13      2       0.1597316       43.73955
2011    13      3       0.1557484       42.97969
2011    13      4       0.1892786       50.71812
2011    13      5       0.2465054       63.24548
2011    13      6       0.300262        74.5806
2011    13      7       0.1739035       47.31657
2011    14      0       0.1335148       37.87733
2011    14      1       0.1379335       39.11233
2011    14      2       0.1301959       37.49101
2011    14      3       0.1497717       42.12578
2011    14      4       0.1734556       47.62751
2011    14      5       0.2090818       55.51935
2011    14      6       0.2107395       55.85148
2011    14      7       0.1722592       47.30135
2011    15      0       0.17252         47.21961
2011    15      1       0.1856575       50.01735
2011    15      2       0.2038896       54.09225
2011    15      3       0.234377        60.68925
2011    15      4       0.2880338       71.58302
2011    15      5       0.3547673       84.19961
2011    15      6       0.3698371       87.20458
2011    15      7       0.3404091       81.84902
2011    16      0       0.3111988       76.32186
2011    16      1       0.3072263       75.65564
2011    16      2       0.3145413       77.02732
2011    16      3       0.3305742       79.95416
2011    16      4       0.3639416       86.14478
2011    16      5       0.4108562       94.64664
2011    16      6       0.4493488       101.3275
2011    16      7       0.4367665       99.39224
2011    17      0       0.496623        109.3283
2011    17      1       0.5418317       116.6708
2011    17      2       0.5692176       120.8539
2011    17      3       0.536722        115.7702
2011    17      4       0.6899559       136.6722
2011    17      5       0.5162769       112.3969
2011    17      6       0.6402985       129.8033
2011    17      7       0.4100718       94.10345
2011    18      0       0.3008996       74.15133
2011    18      1       0.3188337       77.79761
2011    18      2       0.3174304       77.60968
2011    18      3       0.293221        72.85864
2011    18      4       0.2965828       73.57326
2011    18      5       0.2844925       71.3795
2011    18      6       0.2365001       61.68342
2011    18      7       0.1343019       38.7649
2011    19      0       0.09112406      28.10907
2011    19      1       0.09129162      27.96821
2011    19      2       0.09581393      28.97814
2011    19      3       0.09623077      29.07193
2011    19      4       0.1103823       32.53543
2011    19      5       0.140643        39.75405
2011    19      6       0.1475758       41.52766
2011    19      7       0.0939144       28.55782
2011    20      0       0.09157073      27.84665
2011    20      1       0.0932833       28.3278
2011    20      2       0.1071231       31.54845
2011    20      3       0.149152        41.46017
2011    20      4       0.23464         60.67832
2011    20      5       0.2792466       70.07572
2011    20      6       0.2322189       60.44518
2011    20      7       0.2264581       59.31385
2011    21      0       0.2399976       62.01782
2011    21      1       0.2659053       67.46991
2011    21      2       0.2556265       65.41096
2011    21      3       0.2352176       61.15232
2011    21      4       0.2641015       66.65534
2011    21      5       0.2184234       57.17509
2011    21      6       0.2132267       55.96219
2011    21      7       0.1941433       51.9787
2011    22      0       0.2547222       64.79258
2011    22      1       0.3162958       76.78313
2011    22      2       0.4011159       92.16032
2011    22      3       0.4115315       94.44777
2011    22      4       0.4682221       103.6117
2011    22      5       0.5663533       118.9996
2011    22      6       0.4941626       108.6308
2011    22      7       0.4521304       101.844
2011    23      0       0.5392408       115.4669
2011    23      1       0.6250575       128.2062
2011    23      2       0.6045677       125.4457
2011    23      3       0.624465        128.3465
2011    23      4       0.8017937       150.6131
2011    23      5       0.6200121       127.7197
2011    23      6       0.5193798       112.7396
2011    23      7       0.2974147       73.76975
2011    24      0       0.1684764       46.26922
2011    24      1       0.1890338       50.54044
2011    24      2       0.1620298       44.55402
2011    24      3       0.08197815      25.85644
2011    24      4       0.1236711       35.89607
2011    24      5       0.1779488       48.50321
2011    24      6       0.1726721       47.37546
2011    24      7       0.1220255       35.47183
2011    25      0       0.1004133       30.23786
2011    25      1       0.09273112      28.392
2011    25      2       0.09966911      29.99588
2011    25      3       0.1113035       32.66224
2011    25      4       0.1358718       38.6117
2011    25      5       0.183505        49.84625
2011    25      6       0.2080733       55.53254
2011    25      7       0.1484035       41.7612
2011    26      0       0.1628269       44.70706
2011    26      1       0.2018998       53.34043
2011    26      2       0.2058156       53.99724
2011    26      3       0.184085        49.31711
2011    26      4       0.2285991       59.65938
2011    26      5       0.3394442       82.39618
2011    26      6       0.4042585       94.61342
2011    26      7       0.2856938       71.73047
2011    27      0       0.2565826       65.65749
2011    27      1       0.2672726       67.87412
2011    27      2       0.2532384       64.81367
2011    27      3       0.2401758       61.93618
2011    27      4       0.292421        72.86963
2011    27      5       0.3991038       93.01964
2011    27      6       0.5043027       110.8089
2011    27      7       0.3912146       91.9365
2011    28      0       0.3081902       76.10665
2011    28      1       0.2644533       66.92007
2011    28      2       0.2548275       64.61818
2011    28      3       0.2501646       63.66709
2011    28      4       0.3310377       79.81939
2011    28      5       0.4259313       96.95979
2011    28      6       0.4872169       107.3407
2011    28      7       0.443226        100.3444
2011    29      0       0.3908149       90.99709
2011    29      1       0.3198699       77.35738
2011    29      2       0.2833447       70.02556
2011    29      3       0.2537264       63.91065
2011    29      4       0.338908        81.23851
2011    29      5       0.436536        98.98727
2011    29      6       0.4743821       105.661
2011    29      7       0.4344983       99.28252
2011    30      0       0.3334694       80.82299
2011    30      1       0.2954857       73.19831
2011    30      2       0.2798697       69.93966
2011    30      3       0.2948299       72.77922
2011    30      4       0.3774879       87.76022
2011    30      5       0.4440716       99.54531
2011    30      6       0.4147248       95.33354
2011    30      7       0.3491899       83.33012
2012    1       0       0.3795424       90.61888
2012    1       1       0.334244        82.12303
2012    1       2       0.3128628       77.97911
2012    1       3       0.303888        76.17192
2012    1       4       0.3668768       88.11263
2012    1       5       0.4243052       98.1466
2012    1       6       0.4070093       95.04374
2012    1       7       0.3230406       79.68288
2012    2       0       0.2783426       70.57471
2012    2       1       0.2232736       59.00099
2012    2       2       0.192896        52.36023
2012    2       3       0.2712155       69.23666
2012    2       4       0.3128651       77.52068
2012    2       5       0.3309613       81.00017
2012    2       6       0.3121853       77.33877
2012    2       7       0.3150747       78.10943
2012    3       0       0.2939041       73.85766
2012    3       1       0.2824998       71.49842
2012    3       2       0.2613449       67.10413
2012    3       3       0.2195823       58.08951
2012    3       4       0.243781        63.01775
2012    3       5       0.3069211       75.73929
2012    3       6       0.3395705       81.99378
2012    3       7       0.380994        89.42403
2012    4       0       0.3453326       83.06391
2012    4       1       0.3089161       76.30991
2012    4       2       0.3202186       78.3801
2012    4       3       0.2840658       71.3098
2012    4       4       0.2773752       69.79129
2012    4       5       0.2838332       71.12202
2012    4       6       0.259417        66.2427
2012    4       7       0.182429        49.63309
2012    5       0       0.1583809       44.21856
2012    5       1       0.1074167       32.13236
2012    5       2       0.08401384      26.21847
2012    5       3       0.07495268      23.93996
2012    5       4       0.1079519       32.0678
2012    5       5       0.148693        41.60218
2012    5       6       0.174658        47.64331
2012    5       7       0.1277871       36.90307
2012    6       0       0.1005711       30.28931
2012    6       1       0.06961541      22.46154
2012    6       2       0.05485031      18.75275
2012    6       3       0.06094655      20.2856
2012    6       4       0.09027712      27.69383
2012    6       5       0.1318551       37.58951
2012    6       6       0.1354573       38.36498
2012    6       7       0.09562188      28.70676
2012    7       0       0.09085802      27.70853
2012    7       1       0.1218238       35.49106
2012    7       2       0.1429561       40.56896
2012    7       3       0.1722149       47.31124
2012    7       4       0.2309379       60.1689
2012    7       5       0.2613446       66.39683
2012    7       6       0.2595461       65.94199
2012    7       7       0.2851493       71.04124
2012    8       0       0.233316        60.44001
2012    8       1       0.2152486       56.68667
2012    8       2       0.2639233       67.14998
2012    8       3       0.2945607       73.38347
2012    8       4       0.2680562       68.08329
2012    8       5       0.2587119       66.11976
2012    8       6       0.2129737       56.39098
2012    8       7       0.1187135       34.78245
2012    9       0       0.09536573      29.17855
2012    9       1       0.09657988      29.46684
2012    9       2       0.09010437      27.88734
2012    9       3       0.08315408      26.06569
2012    9       4       0.1261585       36.52444
2012    9       5       0.1599212       44.38736
2012    9       6       0.1514113       42.41124
2012    9       7       0.09248678      28.23541
2012    10      0       0.1009946       29.96494
2012    10      1       0.100387        29.89974
2012    10      2       0.09322982      28.15105
2012    10      3       0.08562271      26.36875
2012    10      4       0.1275393       36.97491
2012    10      5       0.2021932       54.38981
2012    10      6       0.2413169       63.09302
2012    10      7       0.1473771       41.94205
2012    11      0       0.1121715       33.22592
2012    11      1       0.0986967       29.9124
2012    11      2       0.09122414      28.08114
2012    11      3       0.09616515      29.24808
2012    11      4       0.1523698       42.93157
2012    11      5       0.237908        61.95078
2012    11      6       0.316874        78.16686
2012    11      7       0.2779249       69.98734
2012    12      0       0.227872        58.78281
2012    12      1       0.1640376       45.03768
2012    12      2       0.1473438       41.43949
2012    12      3       0.1597305       44.4309
2012    12      4       0.1821803       49.8033
2012    12      5       0.2144592       57.14032
2012    12      6       0.2291291       60.50765
2012    12      7       0.157567        44.51098
2012    13      0       0.1384448       39.96453
2012    13      1       0.1309245       38.15279
2012    13      2       0.114385        34.17178
2012    13      3       0.1115776       33.54098
2012    13      4       0.1630518       45.86178
2012    13      5       0.2397565       62.93604
2012    13      6       0.2637118       68.23995
2012    13      7       0.2159335       58.0273
2012    14      0       0.1969426       53.75443
2012    14      1       0.1819977       50.37057
2012    14      2       0.1713469       47.87152
2012    14      3       0.1728381       48.13879
2012    14      4       0.2186469       58.31586
2012    14      5       0.2666658       68.60071
2012    14      6       0.3325143       81.98178
2012    14      7       0.3056002       76.85638
2012    15      0       0.3048742       76.61875
2012    15      1       0.29111         73.79676
2012    15      2       0.2702322       69.41228
2012    15      3       0.2476141       64.52614
2012    15      4       0.2919392       73.50827
2012    15      5       0.371509        88.77609
2012    15      6       0.4252947       98.49849
2012    15      7       0.3885856       92.19137
2012    16      0       0.3664421       88.0672
2012    16      1       0.3300216       81.1371
2012    16      2       0.2872064       72.56161
2012    16      3       0.2501805       64.84704
2012    16      4       0.3082232       76.52619
2012    16      5       0.3584147       85.99222
2012    16      6       0.3880552       91.50071
2012    16      7       0.320593        78.95376
2012    17      0       0.2701938       68.84852
2012    17      1       0.2134423       56.87662
2012    17      2       0.1953422       52.80266
2012    17      3       0.2108053       56.23959
2012    17      4       0.2573701       66.06344
2012    17      5       0.3098379       76.48578
2012    17      6       0.3359611       81.42525
2012    17      7       0.3310404       80.51946
2012    18      0       0.3044795       75.44208
2012    18      1       0.3077602       75.96066
2012    18      2       0.3137374       77.04647
2012    18      3       0.2999109       74.42631
2012    18      4       0.3475394       83.41177
2012    18      5       0.4468375       100.7724
2012    18      6       0.4942524       108.3421
2012    18      7       0.5164762       112.0516
2012    19      0       0.645746        131.4334
2012    19      1       0.6748161       135.2169
2012    19      2       0.5124441       111.0465
2012    19      3       0.4550868       101.4763
2012    19      4       0.458887        101.8408
2012    19      5       0.4373506       99.05276
2012    19      6       0.4234803       97.23055
2012    19      7       0.3646456       86.62158
2012    20      0       0.3544324       85.03279
2012    20      1       0.3444192       83.45734
2012    20      2       0.3250273       79.84433
2012    20      3       0.2924739       73.47831
2012    20      4       0.3020186       75.43077
2012    20      5       0.3452266       83.86646
2012    20      6       0.355898        85.88292
2012    20      7       0.360531        86.72212
2012    21      0       0.3201096       78.57725
2012    21      1       0.2812317       70.44255
2012    21      2       0.2718427       68.73421
2012    21      3       0.2427311       62.82649
2012    21      4       0.2694433       68.431
2012    21      5       0.3373341       81.83994
2012    21      6       0.372039        88.39518
2012    21      7       0.3368376       81.93566
2012    22      0       0.2966731       74.15794
2012    22      1       0.3146329       77.65409
2012    22      2       0.375206        89.19724
2012    22      3       0.3727474       88.47144
2012    22      4       0.4035827       94.00383
2012    22      5       0.4691381       105.0753
2012    22      6       0.5263372       114.2271
2012    22      7       0.5457545       117.2485
2012    23      0       0.4705783       105.5121
2012    23      1       0.3817453       90.15689
2012    23      2       0.3858044       90.53491
2012    23      3       0.4747316       105.3418
2012    23      4       0.6436194       129.7398
2012    23      5       0.8638023       157.2575
2012    23      6       1.077478        180.0182
2012    23      7       1.108242        182.8305
2012    24      0       0.9740938       169.6075
2012    24      1       1.162434        187.5587
2012    24      2       0.8822735       160.2119
2012    24      3       0.9703724       169.4656
2012    24      4       1.251073        195.6617
2012    24      5       1.492144        212.8949
2012    24      6       1.018158        176.6358
2012    24      7       0.5800511       122.8766
2012    25      0       0.585972        123.1199
2012    25      1       0.4333112       99.24502
2012    25      2       0.3321194       80.79651
2012    25      3       0.2681406       67.89351
2012    25      4       0.3233474       78.86329
2012    25      5       0.4022117       93.40345
2012    25      6       0.4164575       95.94263
2012    25      7       0.3215232       78.68467
2012    26      0       0.2653239       67.44222
2012    26      1       0.2429262       62.81053
2012    26      2       0.2096159       55.64769
2012    26      3       0.1602954       44.64159
2012    26      4       0.2508246       64.57277
2012    26      5       0.5183776       113.7389
2012    26      6       0.4281238       98.55974
2012    26      7       0.2299994       60.29999
2012    27      0       0.3009764       75.107
2012    27      1       0.3445584       83.34814
2012    27      2       0.4703434       105.4021
2012    27      3       0.6438061       131.6124
2012    27      4       0.9923513       172.3114
2012    27      5       1.022558        175.5537
2012    27      6       0.8450448       156.624
2012    27      7       1.078926        180.1427
2012    28      0       0.7059944       136.8443
2012    28      1       0.4266054       96.12364
2012    28      2       0.1483921       41.23143
2012    28      3       0.298122        72.48857
2012    28      4       0.6165442       122.5724
2012    28      5       0.4686188       103.3968
2012    28      6       0.2383637       60.80951
2012    28      7       0.2319074       59.44658
2012    29      0       0.2575106       64.75777
2012    29      1       0.2194574       56.75183
2012    29      2       0.1363889       38.43829
2012    29      3       0.1086304       31.97826
2012    29      4       0.1305777       37.37939
2012    29      5       0.1829654       49.61439
2012    29      6       0.2279566       59.61541
2012    29      7       0.1933734       51.86412
2012    30      0       0.1969633       52.54689
2012    30      1       0.2012183       53.3132
2012    30      2       0.204934        54.07558
2012    30      3       0.2047692       54.03804
2012    30      4       0.270454        67.85978
2012    30      5       0.3474427       82.88291
2012    30      6       0.3741309       87.93672
2012    30      7       0.2867096       71.56163
2013    1       0       0.09422669      28.95827
2013    1       1       0.1039031       31.43303
2013    1       2       0.1036714       31.29652
2013    1       3       0.1233018       36.22084
2013    1       4       0.2316801       61.24806
2013    1       5       0.3243515       80.15947
2013    1       6       0.3489362       84.93329
2013    1       7       0.29009         73.61134
2013    2       0       0.2136305       57.42313
2013    2       1       0.1834837       50.56351
2013    2       2       0.1593702       44.93104
2013    2       3       0.1568732       44.28396
2013    2       4       0.2623094       67.45443
2013    2       5       0.348799        84.52282
2013    2       6       0.3478802       84.24568
2013    2       7       0.2509087       64.88931
2013    3       0       0.1752944       48.31328
2013    3       1       0.1707727       47.12263
2013    3       2       0.1693559       46.57931
2013    3       3       0.1781781       48.51506
2013    3       4       0.2567843       65.71345
2013    3       5       0.3233196       79.07254
2013    3       6       0.3063419       75.80248
2013    3       7       0.2290708       59.92849
2013    4       0       0.1749698       47.99087
2013    4       1       0.1778718       48.61185
2013    4       2       0.2201161       58.03127
2013    4       3       0.2602604       66.67341
2013    4       4       0.2889772       72.48662
2013    4       5       0.3272711       79.99461
2013    4       6       0.3242128       79.426
2013    4       7       0.2485815       64.11802
2013    5       0       0.2174532       57.36137
2013    5       1       0.2249618       59.02239
2013    5       2       0.2154762       56.9019
2013    5       3       0.1898823       51.29208
2013    5       4       0.2169802       57.21855
2013    5       5       0.2331284       60.50975
2013    5       6       0.2178242       57.33849
2013    5       7       0.1816697       49.39195
2013    6       0       0.1987372       53.10934
2013    6       1       0.2254424       58.90786
2013    6       2       0.2777035       69.84134
2013    6       3       0.4325585       99.40269
2013    6       4       0.5954219       124.6946
2013    6       5       0.8871566       160.9591
2013    6       6       0.8387835       154.7455
2013    6       7       0.6946236       136.7706
2013    7       0       0.8551115       156.917
2013    7       1       0.7797037       147.4165
2013    7       2       0.7050861       138.1337
2013    7       3       0.4023679       92.16118
2013    7       4       0.4283608       97.79413
2013    7       5       0.8567259       157.464
2013    7       6       0.8953483       162.9922
2013    7       7       0.4030488       94.04965
2013    8       0       0.425658        96.81432
2013    8       1       0.3116232       75.8865
2013    8       2       0.3365978       79.7462
2013    8       3       0.3472829       82.59879
2013    8       4       0.4723909       105.281
2013    8       5       0.5297875       114.3153
2013    8       6       0.5226705       113.4769
2013    8       7       0.288796        72.0734
2013    9       0       0.2103462       55.54082
2013    9       1       0.174562        47.56905
2013    9       2       0.1497907       42.01848
2013    9       3       0.1513377       42.49257
2013    9       4       0.1969397       52.8607
2013    9       5       0.2600837       66.22118
2013    9       6       0.2998437       74.38825
2013    9       7       0.1819573       49.41613
2013    10      0       0.1232144       35.75865
2013    10      1       0.1176411       34.48478
2013    10      2       0.1249258       36.21695
2013    10      3       0.1356198       38.79357
2013    10      4       0.224082        59.01851
2013    10      5       0.3071294       76.22401
2013    10      6       0.3642178       87.35354
2013    10      7       0.2648398       67.87578
2013    11      0       0.2693577       68.24845
2013    11      1       0.3979852       91.89152
2013    11      2       0.5383885       113.8062
2013    11      3       0.5250454       112.2548
2013    11      4       0.5242967       112.7141
2013    11      5       0.5112101       111.2613
2013    11      6       0.421684        97.21803
2013    11      7       0.2332973       61.22178
2013    12      0       0.1670622       45.89737
2013    12      1       0.2672907       66.6675
2013    12      2       0.2587945       65.20699
2013    12      3       0.2213605       57.23172
2013    12      4       0.4513816       101.0185
2013    12      5       0.6164932       126.9112
2013    12      6       0.6682209       134.2623
2013    12      7       0.6218403       128.1701
2013    13      0       0.8262852       153.8852
2013    13      1       0.6899729       138.1378
2013    13      2       0.6729678       134.1894
2013    13      3       0.6277508       128.0833
2013    13      4       0.5963803       122.74
2013    13      5       0.6254943       126.6744
2013    13      6       0.6356544       127.8599
2013    13      7       0.6005196       123.0754
2013    14      0       0.4562714       100.4886
2013    14      1       0.3837906       88.74894
2013    14      2       0.2483577       63.50441
2013    14      3       0.1644715       45.04182
2013    14      4       0.2411293       61.9151
2013    14      5       0.3392688       81.45288
2013    14      6       0.3898224       90.78494
2013    14      7       0.3200179       77.8769
2013    15      0       0.2556821       64.87658
2013    15      1       0.2534178       64.43877
2013    15      2       0.1994255       52.88528
2013    15      3       0.1884406       50.70879
2013    15      4       0.2684703       67.91604
2013    15      5       0.3599513       85.55663
2013    15      6       0.4840844       106.7227
2013    15      7       0.4459674       100.2288
2013    16      0       0.4377386       98.48837
2013    16      1       0.5956748       123.4543
2013    16      2       0.4388314       98.48653
2013    16      3       0.5196928       111.8226
2013    16      4       0.7286072       141.8993
2013    16      5       0.8268855       153.8781
2013    16      6       0.791009        149.7501
2013    16      7       0.5175276       111.8305
2013    17      0       0.4996877       108.8737
2013    17      1       0.4143114       94.79614
2013    17      2       0.2973216       73.31652
2013    17      3       0.255912        64.90099
2013    17      4       0.4065889       93.59065
2013    17      5       0.5955157       123.534
2013    17      6       0.646766        130.5437
2013    17      7       0.6346958       127.7363
2013    18      0       0.9221729       160.6906
2013    18      1       1.027992        171.84
2013    18      2       0.8927261       160.9778
2013    18      3       0.6945621       137.9139
2013    18      4       0.8256816       155.3403
2013    18      5       0.7738407       149.2997
2013    18      6       0.5896808       125.1719
2013    18      7       0.3011684       75.15698
2013    19      0       0.253194        65.27552
2013    19      1       0.2425398       63.0169
2013    19      2       0.2377277       62.10308
2013    19      3       0.240503        62.80111
2013    19      4       0.3381803       82.23041
2013    19      5       0.5779174       122.5386
2013    19      6       0.7708147       148.7063
2013    19      7       0.5454241       118.0321
2013    20      0       0.4570369       103.6757
2013    20      1       0.4647134       104.7687
2013    20      2       0.4357259       99.80693
2013    20      3       0.4086127       95.07946
2013    20      4       0.4675042       104.959
2013    20      5       0.6510848       132.2625
2013    20      6       0.6990517       138.6987
2013    20      7       0.5507225       117.9378
2013    21      0       0.4482973       101.5822
2013    21      1       0.3897132       91.28083
2013    21      2       0.3377937       81.62198
2013    21      3       0.2812918       70.53668
2013    21      4       0.3564885       85.16321
2013    21      5       0.5236493       113.5618
2013    21      6       0.6674954       134.4593
2013    21      7       0.5969505       124.7241
2013    22      0       0.4473059       101.1625
2013    22      1       0.4099938       94.70216
2013    22      2       0.4313157       98.48628
2013    22      3       0.3906752       91.40118
2013    22      4       0.4443764       100.8052
2013    22      5       0.5899466       123.4967
2013    22      6       0.6803489       136.6366
2013    22      7       0.5773632       122.072
2013    23      0       0.5154908       112.4044
2013    23      1       0.4740587       105.8671
2013    23      2       0.433465        99.2244
2013    23      3       0.4127606       95.78149
2013    23      4       0.4547471       103.0748
2013    23      5       0.6327818       130.0749
2013    23      6       0.7650713       147.148
2013    23      7       0.6379395       130.1544
2013    24      0       0.5039835       110.8448
2013    24      1       0.3990784       92.9107
2013    24      2       0.3359179       80.9049
2013    24      3       0.3183437       77.39665
2013    24      4       0.3941123       91.96347
2013    24      5       0.4778502       106.5078
2013    24      6       0.5153234       112.8542
2013    24      7       0.4332514       99.4496
2013    25      0       0.3228805       79.03331
2013    25      1       0.2501218       64.23892
2013    25      2       0.1947189       51.99804
2013    25      3       0.17765         47.85732
2013    25      4       0.2858996       70.89656
2013    25      5       0.3844345       89.68332
2013    25      6       0.3946221       91.88402
2013    25      7       0.2871203       71.8396
2013    26      0       0.2738206       68.7171
2013    26      1       0.2547754       64.99805
2013    26      2       0.2163121       56.99264
2013    26      3       0.2003367       53.47024
2013    26      4       0.2854779       71.5768
2013    26      5       0.3683113       87.83801
2013    26      6       0.3853938       91.10208
2013    26      7       0.3314855       80.77151
2013    27      0       0.2798927       70.66109
2013    27      1       0.2246733       59.37993
2013    27      2       0.2212472       58.35549
2013    27      3       0.2481654       63.69356
2013    27      4       0.3231656       78.54338
2013    27      5       0.3315446       80.34746
2013    27      6       0.2670172       67.28074
2013    27      7       0.2720468       68.1152
2013    28      0       0.2933286       72.759
2013    28      1       0.2944608       72.90806
2013    28      2       0.2534438       64.37225
2013    28      3       0.239143        61.44666
2013    28      4       0.3092009       75.85362
2013    28      5       0.4021431       92.86552
2013    28      6       0.434624        98.87512
2013    28      7       0.3940732       92.24759
2013    29      0       0.3185687       77.5461
2013    29      1       0.3766889       88.43081
2013    29      2       0.4171796       95.70329
2013    29      3       0.4171545       95.54104
2013    29      4       0.445867        100.6563
2013    29      5       0.5061876       111.1667
2013    29      6       0.645321        132.2851
2013    29      7       0.6477411       133.3365
2013    30      0       0.5355275       116.8444
2013    30      1       0.4295792       99.06193
2013    30      2       0.3947366       92.8195
2013    30      3       0.4123392       95.92852
2013    30      4       0.4911615       109.4939
2013    30      5       0.6047193       127.4256
2013    30      6       0.6484216       133.9473
2013    30      7       0.5108317       113.1035
2014    1       0       0.2744677       69.67969
2014    1       1       0.2874128       72.31114
2014    1       2       0.3135153       77.39075
2014    1       3       0.4349863       99.52909
2014    1       4       0.5137363       112.8818
2014    1       5       0.6106216       127.4527
2014    1       6       0.6650714       134.8688
2014    1       7       0.5449622       117.8769
2014    2       0       0.5407751       117.4271
2014    2       1       0.5973398       125.6823
2014    2       2       0.4993227       110.5154
2014    2       3       0.4245312       97.96616
2014    2       4       0.4684542       105.2394
2014    2       5       0.5369443       115.9666
2014    2       6       0.5853503       123.698
2014    2       7       0.5101483       112.4301
2014    3       0       0.4631305       104.567
2014    3       1       0.4432817       100.9886
2014    3       2       0.4845178       107.8836
2014    3       3       0.5345638       116.1055
2014    3       4       0.6115616       127.6551
2014    3       5       0.6705153       136.0351
2014    3       6       0.684538        138.2655
2014    3       7       0.5879373       124.9588
2014    4       0       0.5397689       117.2378
2014    4       1       0.5766277       122.3455
2014    4       2       0.5655857       120.5846
2014    4       3       0.5689056       121.355
2014    4       4       0.6666845       135.3407
2014    4       5       0.8295103       155.8707
2014    4       6       0.910786        165.22
2014    4       7       0.5239679       115.2204
2014    5       0       0.3954351       93.56066
2014    5       1       0.3818735       90.80145
2014    5       2       0.3748          89.36408
2014    5       3       0.3263264       79.7132
2014    5       4       0.3221138       78.36842
2014    5       5       0.3638252       86.12736
2014    5       6       0.3299332       80.32708
2014    5       7       0.2134375       56.66165
2014    6       0       0.1582157       44.18645
2014    6       1       0.1329664       38.21197
2014    6       2       0.1336087       38.18945
2014    6       3       0.2282829       59.06275
2014    6       4       0.35075         83.39646
2014    6       5       0.4673972       103.5708
2014    6       6       0.4702342       104.1317
2014    6       7       0.4280691       98.08864
2014    7       0       0.4992801       109.9762
2014    7       1       0.3557255       84.56304
2014    7       2       0.2179236       56.86334
2014    7       3       0.2180055       56.82877
2014    7       4       0.228226        59.28342
2014    7       5       0.2479703       64.0255
2014    7       6       0.2293431       60.53836
2014    7       7       0.127534        37.4223
2014    8       0       0.07498337      24.28545
2014    8       1       0.07785529      24.7969
2014    8       2       0.1321056       38.24496
2014    8       3       0.1474795       41.91559
2014    8       4       0.1804083       49.52048
2014    8       5       0.2223511       58.89439
2014    8       6       0.222772        59.08587
2014    8       7       0.1361231       39.32091
2014    9       0       0.1206058       35.537
2014    9       1       0.144573        41.27792
2014    9       2       0.1576873       44.44544
2014    9       3       0.1444422       41.47371
2014    9       4       0.1472231       42.21317
2014    9       5       0.1883111       51.72341
2014    9       6       0.1901153       52.1175
2014    9       7       0.1213727       35.91119
2014    10      0       0.1516809       43.16748
2014    10      1       0.2087767       56.17748
2014    10      2       0.2531874       65.66876
2014    10      3       0.2740808       69.82301
2014    10      4       0.2711113       68.99372
2014    10      5       0.2722589       69.13143
2014    10      6       0.2610087       66.74435
2014    10      7       0.2598348       66.63509
2014    11      0       0.282187        71.18498
2014    11      1       0.3207613       78.71635
2014    11      2       0.3565179       85.44182
2014    11      3       0.390136        91.88613
2014    11      4       0.3741702       88.86266
2014    11      5       0.4279599       98.55235
2014    11      6       0.4437731       101.3858
2014    11      7       0.4014704       94.27189
2014    12      0       0.4200073       97.8132
2014    12      1       0.4679987       105.8448
2014    12      2       0.4834471       108.201
2014    12      3       0.4702802       105.8201
2014    12      4       0.4795069       107.3426
2014    12      5       0.4964222       109.9814
2014    12      6       0.5423848       117.1557
2014    12      7       0.5609153       119.882
2014    13      0       0.5580803       119.3882
2014    13      1       0.5196545       113.3776
2014    13      2       0.5583606       119.1686
2014    13      3       0.5613346       119.83
2014    13      4       0.6063309       126.6683
2014    13      5       0.6369884       131.2122
2014    13      6       0.6002914       126.0387
2014    13      7       0.5216612       113.9463
2014    14      0       0.499792        110.3972
2014    14      1       0.5235978       114.0399
2014    14      2       0.5590366       119.3344
2014    14      3       0.6731936       134.7976
2014    14      4       0.6428455       130.5556
2014    14      5       0.6713944       134.6382
2014    14      6       0.6768676       135.7904
2014    14      7       0.7093196       140.5047
2014    15      0       0.682786        136.9421
2014    15      1       0.7315          142.7761
2014    15      2       0.6200243       128.3245
2014    15      3       0.6458401       132.0079
2014    15      4       0.7467407       145.1081
2014    15      5       0.8197985       154.2887
2014    15      6       0.7488028       145.629
2014    15      7       0.6459507       131.1934
2014    16      0       0.5848747       123.33
2014    16      1       0.650657        133.2405
2014    16      2       0.5963757       125.0238
2014    16      3       0.5490235       117.5191
2014    16      4       0.5983406       124.6729
2014    16      5       0.6063708       125.7986
2014    16      6       0.480158        106.4195
2014    16      7       0.4153504       95.33728
2014    17      0       0.4535559       102.1884
2014    17      1       0.5206358       113.1281
2014    17      2       0.5282835       114.055
2014    17      3       0.4339038       98.82417
2014    17      4       0.4150427       96.14342
2014    17      5       0.4248595       97.76466
2014    17      6       0.3329238       80.65467
2014    17      7       0.2813762       70.36284
2014    18      0       0.2831791       70.568
2014    18      1       0.2867832       71.38497
2014    18      2       0.2790367       69.45227
2014    18      3       0.2254587       58.18893
2014    18      4       0.2819477       69.56393
2014    18      5       0.2955035       72.57659
2014    18      6       0.2409678       61.93371
2014    18      7       0.1926387       51.19661
2014    19      0       0.198779        52.49931
2014    19      1       0.2097558       54.92921
2014    19      2       0.2018306       52.96741
2014    19      3       0.2159729       55.76502
2014    19      4       0.2938664       71.33837
2014    19      5       0.3650626       84.98023
2014    19      6       0.4587983       101.2904
2014    19      7       0.4267568       95.82036
2014    20      0       0.4795518       104.022
2014    20      1       0.5905853       122.2593
2014    20      2       0.6440912       130.8213
2014    20      3       0.7762759       148.5727
2014    20      4       0.7416171       143.7284
2014    20      5       1.007635        174.1635
2014    20      6       1.159876        188.5518
2014    20      7       1.139447        187.0052
2014    21      0       0.8522509       156.6843
2014    21      1       0.6721438       134.3611
2014    21      2       0.533583        115.4097
2014    21      3       0.6790112       136.2269
2014    21      4       0.9397745       166.9354
2014    21      5       0.9670939       168.9381
2014    21      6       0.8439563       155.0263
2014    21      7       0.746172        143.9354
2014    22      0       0.6773335       135.3493
2014    22      1       0.6218546       128.3071
2014    22      2       0.509751        111.5258
2014    22      3       0.4003739       93.02271
2014    22      4       0.3620499       86.19497
2014    22      5       0.3637812       86.66606
2014    22      6       0.3031306       75.01247
2014    22      7       0.2450844       63.1997
2014    23      0       0.1959635       52.53716
2014    23      1       0.1806452       48.77366
2014    23      2       0.1512612       41.96966
2014    23      3       0.1323536       37.37119
2014    23      4       0.1933332       51.50211
2014    23      5       0.2443312       62.60936
2014    23      6       0.238161        61.33206
2014    23      7       0.2071852       54.70654
2014    24      0       0.226117        58.92762
2014    24      1       0.2743837       69.34977
2014    24      2       0.2661009       67.71275
2014    24      3       0.2665937       67.77658
2014    24      4       0.2431319       62.9615
2014    24      5       0.2395737       62.19907
2014    24      6       0.2131568       56.28989
2014    24      7       0.2081378       54.85743
2014    25      0       0.2679365       67.94805
2014    25      1       0.2236867       58.78472
2014    25      2       0.1754312       47.80239
2014    25      3       0.1537391       42.69183
2014    25      4       0.2041355       53.53986
2014    25      5       0.2374992       61.03024
2014    25      6       0.176804        48.09619
2014    25      7       0.248507        63.01667
2014    26      0       0.383364        89.00858
2014    26      1       0.4361348       98.16463
2014    26      2       0.5126597       111.4032
2014    26      3       0.5807379       122.1089
2014    26      4       0.6620267       133.8379
2014    26      5       0.6751336       135.1199
2014    26      6       0.640284        130.587
2014    26      7       0.6758108       135.3816
2014    27      0       0.5757676       121.7855
2014    27      1       0.4308709       98.46522
2014    27      2       0.2934979       72.64656
2014    27      3       0.2742228       68.32791
2014    27      4       0.410211        93.8289
2014    27      5       0.4528789       101.7399
2014    27      6       0.3706637       87.8243
2014    27      7       0.3243524       78.84012
2014    28      0       0.3566366       85.15281
2014    28      1       0.3634243       86.65879
2014    28      2       0.2628256       67.09607
2014    28      3       0.2115444       55.77219
2014    28      4       0.2071213       54.81553
2014    28      5       0.2673077       67.8768
2014    28      6       0.234499        61.23671
2014    28      7       0.2116858       55.56677
2014    29      0       0.2359739       60.30818
2014    29      1       0.195623        52.23212
2014    29      2       0.1546011       43.33473
2014    29      3       0.1249606       36.53855
2014    29      4       0.2133161       57.02892
2014    29      5       0.3483161       84.55908
2014    29      6       0.392748        92.92707
2014    29      7       0.2965279       74.48634
2014    30      0       0.2041412       54.99543
2014    30      1       0.1666953       46.44141
2014    30      2       0.1417223       40.51922
2014    30      3       0.1600054       44.54424
2014    30      4       0.3016207       74.3257
2014    30      5       0.4420318       99.35786
2014    30      6       0.4047466       92.83412
2014    30      7       0.3189663       77.19982
2015    1       0       0.2643723       66.69224
2015    1       1       0.3096776       75.16092
2015    1       2       0.3673783       86.29069
2015    1       3       0.4280196       97.10984
2015    1       4       0.4897445       107.1225
2015    1       5       0.5667031       119.2717
2015    1       6       0.6477965       131.3877
2015    1       7       0.617869        127.5502
2015    2       0       0.4752499       105.8156
2015    2       1       0.2583103       65.47937
2015    2       2       0.1637389       45.18096
2015    2       3       0.1430085       40.53575
2015    2       4       0.1819343       49.60075
2015    2       5       0.2169609       57.45444
2015    2       6       0.237384        62.01977
2015    2       7       0.179552        49.12709
2015    3       0       0.175457        48.08644
2015    3       1       0.1574511       43.96468
2015    3       2       0.1444784       40.9246
2015    3       3       0.1522136       42.89149
2015    3       4       0.1822743       50.04826
2015    3       5       0.2228612       59.21351
2015    3       6       0.2673952       68.67901
2015    3       7       0.2003344       53.86762
2015    4       0       0.1831847       50.05388
2015    4       1       0.1884559       51.18413
2015    4       2       0.187415        50.89248
2015    4       3       0.1705274       46.99605
2015    4       4       0.2396739       62.50111
2015    4       5       0.2925717       73.70068
2015    4       6       0.3091452       77.14448
2015    4       7       0.24587         63.88882
2015    5       0       0.2600358       66.85359
2015    5       1       0.2804396       71.16591
2015    5       2       0.2723614       69.52277
2015    5       3       0.2779361       70.63497
2015    5       4       0.3184748       78.6949
2015    5       5       0.3671259       87.99004
2015    5       6       0.3718241       89.00053
2015    5       7       0.2773955       70.65473
2015    6       0       0.2476228       64.26657
2015    6       1       0.2263016       59.57064
2015    6       2       0.1967218       53.02565
2015    6       3       0.1970234       52.8746
2015    6       4       0.2502842       64.19671
2015    6       5       0.2880926       72.03639
2015    6       6       0.273776        69.26427
2015    6       7       0.1801009       49.11656
2015    7       0       0.1467687       41.46191
2015    7       1       0.1309045       37.62543
2015    7       2       0.1123514       33.25853
2015    7       3       0.1160018       34.30828
2015    7       4       0.1959046       52.69381
2015    7       5       0.2936567       73.11536
2015    7       6       0.3237012       79.09746
2015    7       7       0.2784485       69.86878
2015    8       0       0.2903648       72.52456
2015    8       1       0.2398815       62.11206
2015    8       2       0.1946874       52.15496
2015    8       3       0.1699532       46.56938
2015    8       4       0.226038        59.07406
2015    8       5       0.2677183       67.77845
2015    8       6       0.2794083       70.26621
2015    8       7       0.2412532       62.18651
2015    9       0       0.2512716       64.65941
2015    9       1       0.2495987       64.63404
2015    9       2       0.2397684       62.57264
2015    9       3       0.2385595       62.28155
2015    9       4       0.3104224       76.83843
2015    9       5       0.4391789       100.5932
2015    9       6       0.5792788       123.262
2015    9       7       0.5783628       123.3
2015    10      0       0.4995842       110.8896
2015    10      1       0.4643169       104.8985
2015    10      2       0.3974596       93.29274
2015    10      3       0.3413614       82.8405
2015    10      4       0.3734825       88.51436
2015    10      5       0.4814798       107.1241
2015    10      6       0.5406902       116.6715
2015    10      7       0.5019995       110.7268
2015    11      0       0.5201813       113.5621
2015    11      1       0.472864        105.9106
2015    11      2       0.3639211       86.62402
2015    11      3       0.2414766       61.90205
2015    11      4       0.2633286       66.13497
2015    11      5       0.3192362       77.2766
2015    11      6       0.3552388       83.96629
2015    11      7       0.3418588       81.41279
2015    12      0       0.2866087       71.14138
2015    12      1       0.2701709       67.93111
2015    12      2       0.2712916       68.19311
2015    12      3       0.2855006       71.1281
2015    12      4       0.3539369       84.43406
2015    12      5       0.4500153       101.1108
2015    12      6       0.4537427       101.9207
2015    12      7       0.3607275       85.86377
2015    13      0       0.3080686       75.87279
2015    13      1       0.2775097       69.93897
2015    13      2       0.2623431       66.90021
2015    13      3       0.2328506       60.65224
2015    13      4       0.2804069       70.40441
2015    13      5       0.3279747       79.75206
2015    13      6       0.3427188       82.77932
2015    13      7       0.2938625       73.42645
2015    14      0       0.2591944       66.30983
2015    14      1       0.2158039       57.04931
2015    14      2       0.1826552       49.70689
2015    14      3       0.1693231       46.73614
2015    14      4       0.2229635       58.73558
2015    14      5       0.3010297       75.1499
2015    14      6       0.2920611       73.59618
2015    14      7       0.1586603       44.58551
2015    15      0       0.1455218       41.43719
2015    15      1       0.151128        42.75496
2015    15      2       0.1533472       43.30363
2015    15      3       0.1417724       40.56574
2015    15      4       0.1725172       47.72143
2015    15      5       0.2371148       62.15156
2015    15      6       0.2165608       57.85933
2015    15      7       0.1221623       36.02503
2015    16      0       0.1290871       37.68195
2015    16      1       0.1324922       38.49687
2015    16      2       0.1366767       39.48902
2015    16      3       0.1363383       39.36991
2015    16      4       0.1910671       52.0121
2015    16      5       0.289111        72.88248
2015    16      6       0.3002121       75.40681
2015    16      7       0.2500943       65.0414
2015    17      0       0.2394226       62.83158
2015    17      1       0.1840784       50.53737
2015    17      2       0.1517043       43.00148
2015    17      3       0.1449571       41.35739
2015    17      4       0.2167082       57.61003
2015    17      5       0.3188773       78.59036
2015    17      6       0.3584725       86.42896
2015    17      7       0.3171617       78.47
2015    18      0       0.3135236       77.53365
2015    18      1       0.2665529       67.96956
2015    18      2       0.1994165       53.61423
2015    18      3       0.1599344       44.72344
2015    18      4       0.1974929       53.24682
2015    18      5       0.2564163       65.71365
2015    18      6       0.2745559       69.46949
2015    18      7       0.1911482       51.80962
2015    19      0       0.1251107       36.5459
2015    19      1       0.08444594      26.56685
2015    19      2       0.07016927      22.90903
2015    19      3       0.06801098      22.32421
2015    19      4       0.139537        39.913
2015    19      5       0.236681        61.46004
2015    19      6       0.3279165       79.54563
2015    19      7       0.3544592       83.94836
2015    20      0       0.302706        73.06495
2015    20      1       0.392049        89.57316
2015    20      2       0.3610417       84.61586
2015    20      3       0.3257933       78.28192
2015    20      4       0.668182        133.8694
2015    20      5       0.926807        164.9837
2015    20      6       0.9680101       169.5228
2015    20      7       0.437563        99.36287
2015    21      0       0.32679         79.22011
2015    21      1       0.3634635       86.02361
2015    21      2       0.4807626       106.258
2015    21      3       0.512488        111.0732
2015    21      4       0.5209416       112.4874
2015    21      5       0.6538048       132.326
2015    21      6       0.6778859       135.9247
2015    21      7       0.527151        114.0446
2015    22      0       0.5215967       112.9613
2015    22      1       0.5371318       115.4698
2015    22      2       0.5290087       114.3418
2015    22      3       0.5248884       113.4326
2015    22      4       0.5563995       118.111
2015    22      5       0.6706342       134.1754
2015    22      6       0.7454317       143.8015
2015    22      7       0.6756979       134.8189
2015    23      0       0.8100882       151.1534
2015    23      1       0.8375442       154.956
2015    23      2       0.8016656       151.6407
2015    23      3       0.857371        158.3309
2015    23      4       0.7197699       140.8778
2015    23      5       0.8096587       151.4626
2015    23      6       0.7315452       143.1449
2015    23      7       0.5630472       119.9598
2015    24      0       0.3860943       90.79713
2015    24      1       0.3131944       77.03739
2015    24      2       0.2479982       63.52897
2015    24      3       0.2090418       54.82654
2015    24      4       0.3802848       88.53251
2015    24      5       0.5016589       109.1947
2015    24      6       0.4631508       103.5633
2015    24      7       0.3755353       88.05786
2015    25      0       0.3127798       75.90638
2015    25      1       0.2375066       60.93592
2015    25      2       0.2273586       58.79486
2015    25      3       0.2616832       66.08488
2015    25      4       0.4133693       94.75321
2015    25      5       0.6343231       129.1138
2015    25      6       0.9067178       163.5135
2015    25      7       0.5391577       115.9474
2015    26      0       0.3098389       75.97387
2015    26      1       0.2873367       71.51458
2015    26      2       0.243543        62.45355
2015    26      3       0.2386753       61.28043
2015    26      4       0.4189177       95.69503
2015    26      5       0.574008        120.8182
2015    26      6       0.8045445       152.2402
2015    26      7       0.5348269       115.4535
2015    27      0       0.2916212       72.58976
2015    27      1       0.279163        69.74972
2015    27      2       0.5114768       111.0304
2015    27      3       0.8387796       155.7205
2015    27      4       1.040461        175.5681
2015    27      5       0.8758209       157.9055
2015    27      6       0.7650573       145.5018
2015    27      7       0.8108127       151.3763
2015    28      0       0.8162443       151.3021
2015    28      1       0.7717495       145.6184
2015    28      2       0.753925        144.1078
2015    28      3       0.802296        149.8887
2015    28      4       0.8415395       153.1441
2015    28      5       1.009872        169.967
2015    28      6       0.7290024       140.0612
2015    28      7       0.9603978       167.6783
2015    29      0       1.064102        177.9284
2015    29      1       1.019628        173.9432
2015    29      2       0.7699564       147.5421
2015    29      3       0.5690489       120.447
2015    29      4       0.5543086       118.5356
2015    29      5       0.5421271       116.4703
2015    29      6       0.4111504       95.01806
2015    29      7       0.2384144       61.79365
2015    30      0       0.1369189       39.26095
2015    30      1       0.08903237      27.63698
2015    30      2       0.08094597      25.6405
2015    30      3       0.08518775      26.74997
2015    30      4       0.1236125       36.18062
2015    30      5       0.1858207       50.51671
2015    30      6       0.1970986       53.02361
2015    30      7       0.1490033       42.17343
2016    1       0       0.4328578       99.26267
2016    1       1       0.4774018       106.5389
2016    1       2       0.552998        118.3195
2016    1       3       0.5668862       120.2829
2016    1       4       0.726822        142.3201
2016    1       5       0.9457155       167.132
2016    1       6       0.8304563       154.6813
2016    1       7       0.495322        108.4735
2016    2       0       0.4994505       109.0699
2016    2       1       0.5232338       112.9067
2016    2       2       0.5154991       112.2613
2016    2       3       0.5608512       119.2941
2016    2       4       0.7465044       144.66
2016    2       5       1.032282        176.3769
2016    2       6       1.083605        181.6281
2016    2       7       0.6211162       128.4567
2016    3       0       0.4940929       109.1832
2016    3       1       0.5020712       110.148
2016    3       2       0.5121986       111.434
2016    3       3       0.5982785       124.5486
2016    3       4       0.706258        139.1043
2016    3       5       0.8648145       157.8993
2016    3       6       0.8578904       157.0841
2016    3       7       0.8388702       154.8455
2016    4       0       0.7015915       138.4101
2016    4       1       0.6540178       131.7625
2016    4       2       0.6066403       125.3102
2016    4       3       0.6083858       125.2862
2016    4       4       0.5975625       123.6757
2016    4       5       0.5856102       122.2136
2016    4       6       0.6748592       135.0201
2016    4       7       0.7555619       145.5915
2016    5       0       0.5789041       120.9335
2016    5       1       0.6265671       128.1228
2016    5       2       0.6179461       126.481
2016    5       3       0.6008421       124.4948
2016    5       4       0.6864831       136.5657
2016    5       5       0.7874574       149.6414
2016    5       6       0.7738931       148.4422
2016    5       7       0.6378437       130.7986
2016    6       0       0.6168728       128.0281
2016    6       1       0.6381223       131.0864
2016    6       2       0.6048599       126.1884
2016    6       3       0.5634069       120.056
2016    6       4       0.6176603       127.8201
2016    6       5       0.8408801       156.3395
2016    6       6       0.9563749       168.4985
2016    6       7       0.8287255       154.3012
2016    7       0       0.8151715       152.1779
2016    7       1       0.782984        148.1846
2016    7       2       0.6896545       136.123
2016    7       3       0.5171732       110.8812
2016    7       4       0.4754805       105.3131
2016    7       5       0.5904032       123.5281
2016    7       6       0.6675461       134.6032
2016    7       7       0.5693621       120.5519
2016    8       0       0.5163948       112.2725
2016    8       1       0.4827729       107.1407
2016    8       2       0.4815998       107.1238
2016    8       3       0.4886086       108.3517
2016    8       4       0.5253414       114.2311
2016    8       5       0.6860363       137.4613
2016    8       6       0.7798249       149.383
2016    8       7       0.5074255       111.1543
2016    9       0       0.4301662       97.8523
2016    9       1       0.4589904       102.4792
2016    9       2       0.4692268       104.2586
2016    9       3       0.5104894       111.449
2016    9       4       0.5609529       119.0778
2016    9       5       0.6065391       125.7669
2016    9       6       0.5605523       119.1971
2016    9       7       0.4969297       109.5507
2016    10      0       0.4698816       105.0278
2016    10      1       0.4554948       102.4253
2016    10      2       0.4597185       102.8576
2016    10      3       0.4730572       105.2588
2016    10      4       0.4828823       106.4053
2016    10      5       0.5593834       118.4127
2016    10      6       0.5137145       111.373
2016    10      7       0.4052575       93.54379
2016    11      0       0.3293676       79.54528
2016    11      1       0.2925162       72.31442
2016    11      2       0.2954696       72.89971
2016    11      3       0.3043906       74.85952
2016    11      4       0.3200983       78.09968
2016    11      5       0.4059578       93.95101
2016    11      6       0.4894217       108.0069
2016    11      7       0.4245408       97.2895
2016    12      0       0.3441596       82.46686
2016    12      1       0.2783337       69.51655
2016    12      2       0.223367        58.18379
2016    12      3       0.2171614       56.73667
2016    12      4       0.2706109       67.9423
2016    12      5       0.3147675       76.69388
2016    12      6       0.3284234       79.22578
2016    12      7       0.4477281       100.6531
2016    13      0       0.5841681       122.7467
2016    13      1       0.4987442       109.7924
2016    13      2       0.4668705       104.8727
2016    13      3       0.2658158       67.1531
2016    13      4       0.3148781       76.25423
2016    13      5       0.2589133       65.25654
2016    13      6       0.2184266       56.55155
2016    13      7       0.1214331       35.07026
2016    14      0       0.09345255      28.32729
2016    14      1       0.1443457       40.26327
2016    14      2       0.1734817       47.28737
2016    14      3       0.1726683       46.89037
2016    14      4       0.2285243       59.71577
2016    14      5       0.3320867       81.21838
2016    14      6       0.3190743       79.15226
2016    14      7       0.2573573       66.48893
2016    15      0       0.2498256       64.75364
2016    15      1       0.2412258       62.83509
2016    15      2       0.2312632       60.46668
2016    15      3       0.2585015       66.06554
2016    15      4       0.342543        82.98364
2016    15      5       0.4232689       97.89096
2016    15      6       0.4568346       103.7703
2016    15      7       0.4307099       99.41716
2016    16      0       0.419845        97.57025
2016    16      1       0.428223        98.74054
2016    16      2       0.4095663       95.12583
2016    16      3       0.3856664       90.72314
2016    16      4       0.4058918       94.2471
2016    16      5       0.4589877       103.4067
2016    16      6       0.4748222       106.1941
2016    16      7       0.4115363       95.44143
2016    17      0       0.3656169       86.97681
2016    17      1       0.3405137       82.08517
2016    17      2       0.3239416       78.87958
2016    17      3       0.326423        79.36754
2016    17      4       0.3581158       85.33718
2016    17      5       0.4060151       94.09037
2016    17      6       0.4359967       99.3685
2016    17      7       0.3900987       90.9307
2016    18      0       0.3336861       80.10202
2016    18      1       0.2657929       66.9936
2016    18      2       0.2510662       63.9506
2016    18      3       0.2867298       71.1938
2016    18      4       0.3657568       85.90111
2016    18      5       0.4489599       100.3274
2016    18      6       0.4976241       108.0329
2016    18      7       0.4918318       106.9331
2016    19      0       0.5866894       121.4963
2016    19      1       0.7615899       144.9871
2016    19      2       0.7407399       142.2698
2016    19      3       0.640743        129.4873
2016    19      4       0.619986        127.4166
2016    19      5       0.5883755       123.1719
2016    19      6       0.5359735       115.5616
2016    19      7       0.3017072       75.07323
2016    20      0       0.1526874       43.00622
2016    20      1       0.09856617      29.98295
2016    20      2       0.08495671      26.47639
2016    20      3       0.06586531      21.41135
2016    20      4       0.1173307       34.24977
2016    20      5       0.1557519       43.32459
2016    20      6       0.1609623       44.42728
2016    20      7       0.1489182       41.46485
2016    21      0       0.1567942       43.42076
2016    21      1       0.1603434       44.0898
2016    21      2       0.1909263       50.65021
2016    21      3       0.288911        71.76906
2016    21      4       0.4650581       103.1554
2016    21      5       0.5620589       118.3683
2016    21      6       0.4768648       105.7327
2016    21      7       0.3382689       81.62006
2016    22      0       0.1868121       49.96478
2016    22      1       0.08976344      27.22424
2016    22      2       0.09930168      29.82858
2016    22      3       0.1203832       35.04683
2016    22      4       0.1513447       42.3635
2016    22      5       0.1664411       45.87432
2016    22      6       0.1449253       40.88688
2016    22      7       0.112603        33.08806
2016    23      0       0.1149025       33.6162
2016    23      1       0.1147439       33.67459
2016    23      2       0.1099138       32.62875
2016    23      3       0.1066645       31.84249
2016    23      4       0.1311272       37.66788
2016    23      5       0.1726256       47.20771
2016    23      6       0.1778115       48.61343
2016    23      7       0.1271465       36.85103
2016    24      0       0.1119093       33.2722
2016    24      1       0.09290722      28.68327
2016    24      2       0.07664323      24.64089
2016    24      3       0.06732764      22.29729
2016    24      4       0.1043483       31.62447
2016    24      5       0.1628713       45.50413
2016    24      6       0.2110993       56.41144
2016    24      7       0.1754467       48.60624
2016    25      0       0.1341367       38.99573
2016    25      1       0.09831129      30.24777
2016    25      2       0.07587968      24.49799
2016    25      3       0.07594516      24.36908
2016    25      4       0.1495008       42.19488
2016    25      5       0.2126614       56.34467
2016    25      6       0.2167466       57.3676
2016    25      7       0.185351        50.48232
2016    26      0       0.1892246       51.29286
2016    26      1       0.1875092       50.96287
2016    26      2       0.1894287       51.44975
2016    26      3       0.1929645       51.77627
2016    26      4       0.3263436       77.91634
2016    26      5       0.3866479       89.37171
2016    26      6       0.2865447       70.82114
2016    26      7       0.1950122       51.04237
2016    27      0       0.2466119       61.4958
2016    27      1       0.3436522       80.30721
2016    27      2       0.3552492       83.39371
2016    27      3       0.3550628       83.79677
2016    27      4       0.3727531       87.91219
2016    27      5       0.3793632       89.38899
2016    27      6       0.3737449       88.56772
2016    27      7       0.3587527       86.11103
2016    28      0       0.2917754       73.02546
2016    28      1       0.2716513       68.96371
2016    28      2       0.2587068       66.2935
2016    28      3       0.2543433       65.27732
2016    28      4       0.3068162       76.07408
2016    28      5       0.3717933       88.49846
2016    28      6       0.407542        95.08609
2016    28      7       0.3717176       88.623
2016    29      0       0.3066329       75.96372
2016    29      1       0.2311444       60.44345
2016    29      2       0.1843289       50.33724
2016    29      3       0.2160963       57.42139
2016    29      4       0.4663862       105.053
2016    29      5       0.6442042       131.4089
2016    29      6       0.7734484       148.8903
2016    29      7       0.3979606       92.97248
2016    30      0       0.2530488       65.28583
2016    30      1       0.2234354       58.98602
2016    30      2       0.1796101       49.28444
2016    30      3       0.1361191       39.09194
2016    30      4       0.1801093       49.31116
2016    30      5       0.3058227       75.85605
2016    30      6       0.3018092       75.20823
2016    30      7       0.2003402       53.9378
2017    1       0       0.2420566       63.50764
2017    1       1       0.1728959       48.21891
2017    1       2       0.1313239       38.39119
2017    1       3       0.1149227       34.45791
2017    1       4       0.1561854       44.35427
2017    1       5       0.2104591       56.58737
2017    1       6       0.2661696       68.55942
2017    1       7       0.2041919       55.2929
2017    2       0       0.1345503       38.98018
2017    2       1       0.1397281       40.01124
2017    2       2       0.1422749       40.49577
2017    2       3       0.14392         40.76603
2017    2       4       0.2286429       59.93741
2017    2       5       0.3261391       79.96378
2017    2       6       0.3780155       89.97986
2017    2       7       0.3314851       81.56922
2017    3       0       0.248263        64.66442
2017    3       1       0.2193023       58.35601
2017    3       2       0.1818198       49.89665
2017    3       3       0.186392        50.8399
2017    3       4       0.2914279       73.48085
2017    3       5       0.3444145       83.9009
2017    3       6       0.2912758       73.5129
2017    3       7       0.1876117       51.16461
2017    4       0       0.1513911       42.53697
2017    4       1       0.1341502       38.19839
2017    4       2       0.1440546       40.62902
2017    4       3       0.1624624       45.3627
2017    4       4       0.1740173       48.1174
2017    4       5       0.1949384       52.88561
2017    4       6       0.155055        43.87919
2017    4       7       0.12066         35.62092
2017    5       0       0.1117652       33.32307
2017    5       1       0.1111656       33.16604
2017    5       2       0.1200568       35.39841
2017    5       3       0.125765        36.83316
2017    5       4       0.1884546       51.59573
2017    5       5       0.3167087       78.57488
2017    5       6       0.3650333       87.94585
2017    5       7       0.3253816       80.62919
2017    6       0       0.3250863       80.62895
2017    6       1       0.3343991       82.51408
2017    6       2       0.3327808       82.21247
2017    6       3       0.3398774       83.59403
2017    6       4       0.4253052       99.40506
2017    6       5       0.5202745       115.2884
2017    6       6       0.5900314       125.8644
2017    6       7       0.4854798       109.8183
2017    7       0       0.4080987       96.44952
2017    7       1       0.340696        83.86177
2017    7       2       0.305454        76.87599
2017    7       3       0.292329        74.17965
2017    7       4       0.3168575       78.97722
2017    7       5       0.3546777       86.1898
2017    7       6       0.3624951       87.73573
2017    7       7       0.2783271       71.2325
2017    8       0       0.1466702       41.75876
2017    8       1       0.1127663       33.4667
2017    8       2       0.1044472       31.39815
2017    8       3       0.1139066       33.8026
2017    8       4       0.1449023       41.32557
2017    8       5       0.1651476       46.08199
2017    8       6       0.1586287       44.60203
2017    8       7       0.1138331       33.80662
2017    9       0       0.1103921       33.01422
2017    9       1       0.1118388       33.44724
2017    9       2       0.09936357      30.42638
2017    9       3       0.08889258      27.80848
2017    9       4       0.1185836       35.22139
2017    9       5       0.1422469       40.90522
2017    9       6       0.1092609       32.83726
2017    9       7       0.09482963      29.13937
2017    10      0       0.1041077       31.02317
2017    10      1       0.1150346       33.36094
2017    10      2       0.1141643       33.44258
2017    10      3       0.1378197       39.28866
2017    10      4       0.1586762       44.289
2017    10      5       0.1695933       46.87013
2017    10      6       0.1792159       49.18173
2017    10      7       0.1702394       47.24626
2017    11      0       0.1779594       48.99381
2017    11      1       0.1925479       52.30115
2017    11      2       0.1892048       51.61792
2017    11      3       0.178238        49.1385
2017    11      4       0.2097106       56.16706
2017    11      5       0.2692534       68.74967
2017    11      6       0.2838198       71.72787
2017    11      7       0.23383         61.3706
2017    12      0       0.1748358       48.28078
2017    12      1       0.1454056       41.28326
2017    12      2       0.1626469       45.16252
2017    12      3       0.1916205       51.7002
2017    12      4       0.2422202       62.67792
2017    12      5       0.2912085       72.71692
2017    12      6       0.323138        78.97009
2017    12      7       0.3090678       76.47651
2017    13      0       0.2949779       73.67119
2017    13      1       0.3025235       75.00162
2017    13      2       0.2971139       73.82232
2017    13      3       0.3336877       80.91492
2017    13      4       0.4307119       98.63491
2017    13      5       0.5980562       124.8421
2017    13      6       0.7087967       139.802
2017    13      7       0.5882717       123.631
2017    14      0       0.6771469       135.5948
2017    14      1       0.8410883       155.5844
2017    14      2       0.7004143       138.4633
2017    14      3       0.7507019       144.4691
2017    14      4       0.6783893       135.2646
2017    14      5       0.6311474       127.9516
2017    14      6       0.5458246       115.3535
2017    14      7       0.5080513       110.1608
2017    15      0       0.4888019       107.2957
2017    15      1       0.4609525       102.4841
2017    15      2       0.4641923       102.47
2017    15      3       0.3862496       89.74106
2017    15      4       0.3991904       92.3254
2017    15      5       0.4442691       100.4414
2017    15      6       0.4717398       105.1758
2017    15      7       0.3298289       79.87021
2017    16      0       0.3474743       83.07011
2017    16      1       0.324269        78.45818
2017    16      2       0.2757926       68.56341
2017    16      3       0.3382917       80.70402
2017    16      4       0.4252386       96.38886
2017    16      5       0.5151495       111.2826
2017    16      6       0.5078141       110.5771
2017    16      7       0.5351342       115.1476
2017    17      0       0.4777259       106.1614
2017    17      1       0.414174        95.25963
2017    17      2       0.3205699       78.22079
2017    17      3       0.2025345       53.77493
2017    17      4       0.1609801       44.42048
2017    17      5       0.1737797       47.44781
2017    17      6       0.1966891       52.76472
2017    17      7       0.1718385       47.40292
2017    18      0       0.1207667       35.31266
2017    18      1       0.108666        32.22481
2017    18      2       0.09693264      29.44051
2017    18      3       0.08562117      26.64096
2017    18      4       0.08767797      27.1205
2017    18      5       0.1015508       30.57026
2017    18      6       0.1034298       31.11873
2017    18      7       0.08299871      26.02172
2017    19      0       0.09265452      28.4514
2017    19      1       0.1065801       31.88447
2017    19      2       0.1088335       32.42266
2017    19      3       0.1010335       30.48069
2017    19      4       0.1300562       37.52448
2017    19      5       0.1883981       50.70211
2017    19      6       0.2271637       58.96436
2017    19      7       0.2238486       58.30669
2017    20      0       0.2168736       56.63554
2017    20      1       0.2097078       54.94191
2017    20      2       0.1893586       50.56161
2017    20      3       0.1870114       50.10422
2017    20      4       0.2408689       61.67519
2017    20      5       0.3025782       74.11012
2017    20      6       0.3192664       77.45653
2017    20      7       0.3061639       74.92741
2017    21      0       0.3471452       82.07947
2017    21      1       0.3441186       81.56541
2017    21      2       0.3320676       79.38277
2017    21      3       0.3124382       75.88438
2017    21      4       0.3115767       75.61258
2017    21      5       0.3350124       79.87316
2017    21      6       0.3553324       83.4217
2017    21      7       0.3780866       87.08344
2017    22      0       0.4134723       93.17044
2017    22      1       0.4802979       104.4129
2017    22      2       0.4762358       104.21
2017    22      3       0.4802167       105.2456
2017    22      4       0.4915631       107.5098
2017    22      5       0.6517808       131.5647
2017    22      6       0.8182905       152.3749
2017    22      7       0.5886173       122.5406
2017    23      0       0.4370982       98.79555
2017    23      1       0.3780861       88.47351
2017    23      2       0.350953        83.53348
2017    23      3       0.3221381       78.14185
2017    23      4       0.3719101       87.59688
2017    23      5       0.51323         111.4177
2017    23      6       0.5703615       120.4719
2017    23      7       0.4816786       106.965
2017    24      0       0.4119898       95.36014
2017    24      1       0.3473304       83.54166
2017    24      2       0.2632407       66.8862
2017    24      3       0.248551        63.72496
2017    24      4       0.2949681       73.21391
2017    24      5       0.356397        84.93216
2017    24      6       0.3965789       92.17355
2017    24      7       0.3503601       83.87816
2017    25      0       0.3186525       77.71821
2017    25      1       0.2969894       73.34925
2017    25      2       0.2706594       67.87251
2017    25      3       0.2455483       62.39875
2017    25      4       0.3314616       79.58928
2017    25      5       0.4302736       97.31792
2017    25      6       0.4636632       102.6913
2017    25      7       0.4225509       95.86647
2017    26      0       0.4753057       104.7117
2017    26      1       0.5113281       110.3906
2017    26      2       0.5474985       116.0015
2017    26      3       0.6044227       124.6856
2017    26      4       0.8437729       154.9517
2017    26      5       1.164369        187.7285
2017    26      6       0.922984        165.2074
2017    26      7       0.6903556       137.3099
2017    27      0       0.6277557       128.5994
2017    27      1       0.6546112       132.1959
2017    27      2       0.6563526       132.7492
2017    27      3       0.5447169       117.0948
2017    27      4       0.6585014       133.7553
2017    27      5       0.820048        154.2227
2017    27      6       0.7549517       146.9496
2017    27      7       0.4271008       98.31775
2017    28      0       0.3550713       85.17115
2017    28      1       0.3101085       76.50769
2017    28      2       0.2422817       62.54086
2017    28      3       0.2129556       56.00254
2017    28      4       0.2718593       68.35957
2017    28      5       0.372377        87.8574
2017    28      6       0.4415443       100.2105
2017    28      7       0.3901265       91.25761
2017    29      0       0.3239613       78.95264
2017    29      1       0.2673757       67.51559
2017    29      2       0.24091         61.91472
2017    29      3       0.2179025       56.99911
2017    29      4       0.2721938       68.63049
2017    29      5       0.3635733       86.63618
2017    29      6       0.3750879       88.98851
2017    29      7       0.2930949       73.3335
2017    30      0       0.2427576       62.77507
2017    30      1       0.2111172       55.80449
2017    30      2       0.1740292       47.44347
2017    30      3       0.1465973       41.0918
2017    30      4       0.214209        56.62242
2017    30      5       0.301234        74.76326
2017    30      6       0.3236419       79.17426
2017    30      7       0.2987847       74.39554
2018    1       0       0.3638399       87.21323
2018    1       1       0.415595        96.50515
2018    1       2       0.4265732       98.44845
2018    1       3       0.4253349       98.31482
2018    1       4       0.5173227       113.2895
2018    1       5       0.6168474       128.063
2018    1       6       0.6457358       132.1704
2018    1       7       0.606562        126.7241
2018    2       0       0.5542613       119.1778
2018    2       1       0.5119585       112.5745
2018    2       2       0.5267815       114.7404
2018    2       3       0.5225283       114.1134
2018    2       4       0.581588        123.2834
2018    2       5       0.7555383       146.9793
2018    2       6       0.6851003       138.0749
2018    2       7       0.4623703       104.7829
2018    3       0       0.5093924       112.1862
2018    3       1       0.6701979       135.5279
2018    3       2       0.5789844       122.5073
2018    3       3       0.5360268       116.0945
2018    3       4       0.622523        128.9053
2018    3       5       0.6604726       133.994
2018    3       6       0.517123        112.9439
2018    3       7       0.338224        81.98199
2018    4       0       0.2869567       72.12791
2018    4       1       0.2784898       70.45598
2018    4       2       0.3300032       80.37026
2018    4       3       0.3616437       86.30941
2018    4       4       0.4133047       95.72797
2018    4       5       0.4882916       108.4603
2018    4       6       0.4730542       106.0194
2018    4       7       0.4703896       105.6306
2018    5       0       0.4890725       108.7615
2018    5       1       0.4487728       102.0819
2018    5       2       0.4890602       108.6016
2018    5       3       0.518078        113.254
2018    5       4       0.543203        117.0825
2018    5       5       0.6594786       133.8174
2018    5       6       0.6946781       138.7702
2018    5       7       0.5832801       123.3111
2018    6       0       0.6077513       126.7315
2018    6       1       0.7438576       144.502
2018    6       2       0.7615426       145.9318
2018    6       3       0.8077128       150.8836
2018    6       4       0.7934474       150.1307
2018    6       5       1.017248        174.7842
2018    6       6       0.7927922       149.7476
2018    6       7       0.6938287       138.2377
2018    7       0       0.3240145       79.21868
2018    7       1       0.2589318       66.18748
2018    7       2       0.2371529       61.61478
2018    7       3       0.1939649       52.03688
2018    7       4       0.2704579       67.7363
2018    7       5       0.2912203       71.76932
2018    7       6       0.2407108       61.11946
2018    7       7       0.2718111       68.26391
2018    8       0       0.2541515       65.05686
2018    8       1       0.1303905       37.67611
2018    8       2       0.0909141       27.70021
2018    8       3       0.1148758       33.5122
2018    8       4       0.1469845       41.38986
2018    8       5       0.1694638       46.80797
2018    8       6       0.1685289       46.75515
2018    8       7       0.1234755       36.08091
2018    9       0       0.1086378       32.50155
2018    9       1       0.09396489      28.82071
2018    9       2       0.08316722      26.00356
2018    9       3       0.0835735       26.0857
2018    9       4       0.09384266      28.68745
2018    9       5       0.1209472       35.43658
2018    9       6       0.1287778       37.29295
2018    9       7       0.117145        34.23028
2018    10      0       0.1220285       35.39879
2018    10      1       0.1132061       33.26856
2018    10      2       0.1147959       33.52262
2018    10      3       0.140541        39.30443
2018    10      4       0.2392307       60.86028
2018    10      5       0.3212399       77.83962
2018    10      6       0.361561        85.80223
2018    10      7       0.4018604       93.1624
2018    11      0       0.5715384       120.2735
2018    11      1       0.5677601       119.9103
2018    11      2       0.4841851       107.2301
2018    11      3       0.5068542       110.74
2018    11      4       0.6388474       130.6267
2018    11      5       1.161063        188.681
2018    11      6       0.9314503       165.5595
2018    11      7       0.8805038       160.9873
2018    12      0       0.6571553       132.5888
2018    12      1       0.6112419       125.9957
2018    12      2       0.7037746       139.0782
2018    12      3       0.7512931       144.658
2018    12      4       0.8208532       153.4614
2018    12      5       1.015644        174.3559
2018    12      6       0.8106785       152.4631
2018    12      7       0.6607045       133.7176
2018    13      0       0.5503826       117.7794
2018    13      1       0.4891689       107.9404
2018    13      2       0.3937745       91.46989
2018    13      3       0.5078962       109.226
2018    13      4       0.455986        100.0049
2018    13      5       0.4034565       91.91942
2018    13      6       0.4228578       95.72103
2018    13      7       0.3516445       82.86461
2018    14      0       0.3453965       81.75555
2018    14      1       0.3634455       85.40396
2018    14      2       0.3274783       79.12406
2018    14      3       0.2904371       72.31084
2018    14      4       0.3442583       83.04601
2018    14      5       0.6554034       134.0925
2018    14      6       0.4777671       106.9428
2018    14      7       0.2119755       55.90427
2018    15      0       0.1865466       50.05025
2018    15      1       0.1760353       47.69526
2018    15      2       0.1633355       44.80164
2018    15      3       0.1629638       44.86039
2018    15      4       0.3181862       77.81843
2018    15      5       0.5767511       121.4235
2018    15      6       0.7719765       148.7375
2018    15      7       0.5010325       110.5527
2018    16      0       0.4569363       102.8704
2018    16      1       0.4186793       96.10418
2018    16      2       0.3762838       88.6841
2018    16      3       0.5280466       114.395
2018    16      4       0.8153406       153.4074
2018    16      5       0.9082346       163.4978
2018    16      6       0.7730314       148.1919
2018    16      7       0.5177479       112.955
2018    17      0       0.3319759       80.63535
2018    17      1       0.2063446       54.86846
2018    17      2       0.2226732       58.53697
2018    17      3       0.276963        70.08242
2018    17      4       0.4997649       110.3641
2018    17      5       0.6922386       138.1962
2018    17      6       0.7204338       141.8901
2018    17      7       0.4773792       106.9522
2018    18      0       0.2183495       57.87104
2018    18      1       0.2101298       56.00134
2018    18      2       0.2547204       65.57283
2018    18      3       0.3582625       85.71238
2018    18      4       0.5001394       110.4454
2018    18      5       0.8479333       157.0837
2018    18      6       1.192532        190.6911
2018    18      7       0.6352744       130.8396
2018    19      0       0.3988598       93.29206
2018    19      1       0.2956856       73.66802
2018    19      2       0.1789819       48.61667
2018    19      3       0.1738166       47.29893
2018    19      4       0.3089741       75.97689
2018    19      5       0.3860682       90.64679
2018    19      6       0.4515087       102.1716
2018    19      7       0.4119166       95.5089
2018    20      0       0.4131516       95.83884
2018    20      1       0.3636835       86.96811
2018    20      2       0.3058465       75.83132
2018    20      3       0.3206678       78.63901
2018    20      4       0.4414844       100.7087
2018    20      5       0.4775783       106.6809
2018    20      6       0.568306        121.2218
2018    20      7       0.4701831       105.9845
2018    21      0       0.3993013       93.65418
2018    21      1       0.4383701       100.417
2018    21      2       0.4213251       97.42885
2018    21      3       0.4397185       100.7148
2018    21      4       0.7290529       143.7885
2018    21      5       1.144358        187.1666
2018    21      6       1.151402        188.6143
2018    21      7       0.8368312       156.9274
2018    22      0       0.8799181       161.7725
2018    22      1       0.7486385       145.7686
2018    22      2       0.5764881       121.9881
2018    22      3       0.5517699       117.9136
2018    22      4       0.6886822       137.4648
2018    22      5       0.8362393       155.8195
2018    22      6       0.8724424       160.0485
2018    22      7       0.6388631       130.8724
2018    23      0       0.518555        112.9526
2018    23      1       0.4889954       108.1526
2018    23      2       0.4763908       106.056
2018    23      3       0.4702729       104.9179
2018    23      4       0.5534747       117.3942
2018    23      5       0.7074161       138.6826
2018    23      6       0.7371948       142.6992
2018    23      7       0.6274513       127.8657
2018    24      0       0.5066829       109.5961
2018    24      1       0.5073368       109.7464
2018    24      2       0.5631254       118.5293
2018    24      3       0.6265919       127.9036
2018    24      4       0.592596        122.7875
2018    24      5       0.8037123       149.8463
2018    24      6       0.7942747       149.645
2018    24      7       0.6593456       132.7559
2018    25      0       0.6169906       126.5901
2018    25      1       0.6343486       128.9465
2018    25      2       0.6155655       126.3906
2018    25      3       0.6898738       136.4635
2018    25      4       0.9580232       167.3079
2018    25      5       0.9541456       166.8066
2018    25      6       0.9405225       165.7957
2018    25      7       0.8458488       156.1906
2018    26      0       0.6774078       135.456
2018    26      1       0.6551375       132.1344
2018    26      2       0.6564722       132.1663
2018    26      3       0.7188079       140.3973
2018    26      4       1.028105        175.3212
2018    26      5       1.003561        172.5629
2018    26      6       0.8404045       155.2709
2018    26      7       0.8164113       152.3885
2018    27      0       0.8594792       157.2906
2018    27      1       0.8955011       160.9279
2018    27      2       0.8164355       152.1156
2018    27      3       0.7175153       139.8376
2018    27      4       1.019555        173.7848
2018    27      5       0.9105043       162.8223
2018    27      6       0.7428212       142.8714
2018    27      7       0.7087456       138.5951
2018    28      0       0.7641274       145.0945
2018    28      1       0.7834537       147.0749
2018    28      2       0.8041044       149.6604
2018    28      3       0.9700102       168.3963
2018    28      4       1.116613        182.5778
2018    28      5       1.106897        181.0392
2018    28      6       0.7943215       148.0345
2018    28      7       0.7351205       140.0764
2018    29      0       0.7165001       138.1795
2018    29      1       0.7799257       146.6919
2018    29      2       0.6956672       136.6668
2018    29      3       0.6256732       127.1826
2018    29      4       0.8471812       154.9503
2018    29      5       1.038207        175.2719
2018    29      6       0.9209101       163.5605
2018    29      7       0.6784815       134.8282
2018    30      0       0.61184         125.4612
2018    30      1       0.5882657       122.1432
2018    30      2       0.6243983       127.3605
2018    30      3       0.6250834       126.7608
2018    30      4       0.7768068       145.6661
2018    30      5       0.8537638       154.1191
2018    30      6       0.718988        138.8756
2018    30      7       0.526911        112.7224
