####################################################################################################
# Month: 01Jan                                                                                     #
# Station: JELM                                                                                    #
# Frequency: 345 GHz                                                                               #
# Columns are: year    day     segment         tau     Tb (K)                                      #
####################################################################################################
2009    1       0       0.4387831       97.52102
2009    1       1       0.4207946       94.84479
2009    1       2       0.65203         128.128
2009    1       3       0.773668        142.2901
2009    1       4       0.8115919       146.3595
2009    1       5       0.8726193       152.753
2009    1       6       0.8412231       149.5814
2009    1       7       0.8801454       154.4752
2009    2       0       0.9712034       164.771
2009    2       1       0.9459636       162.7169
2009    2       2       0.7521582       142.0951
2009    2       3       0.5156956       110.4039
2009    2       4       0.3604738       84.21556
2009    2       5       0.3819909       87.90656
2009    2       6       0.6791304       133.2693
2009    2       7       0.9669302       166.1103
2009    3       0       1.182673        185.2243
2009    3       1       1.017792        170.2776
2009    3       2       0.8915431       157.6705
2009    3       3       0.8513403       152.7761
2009    3       4       0.9753231       164.4102
2009    3       5       0.6922425       131.6983
2009    3       6       0.4265321       93.51818
2009    3       7       0.3074827       72.44341
2009    4       0       0.2322237       57.70615
2009    4       1       0.1873896       48.61784
2009    4       2       0.1331121       37.2048
2009    4       3       0.1083836       31.67409
2009    4       4       0.1028275       30.44949
2009    4       5       0.08820206      27.13253
2009    4       6       0.09705813      29.08002
2009    4       7       0.1326207       36.94995
2009    5       0       0.1301445       36.4786
2009    5       1       0.1268682       35.91847
2009    5       2       0.1176685       33.98022
2009    5       3       0.10862         32.08336
2009    5       4       0.1022246       30.66949
2009    5       5       0.1181282       34.06703
2009    5       6       0.2701161       64.32115
2009    5       7       0.6118926       120.1471
2009    6       0       0.6505698       125.7408
2009    6       1       0.6238877       121.5157
2009    6       2       0.5860295       116.6707
2009    6       3       0.5342855       109.4112
2009    6       4       0.5203322       107.3807
2009    6       5       0.4561037       97.72996
2009    6       6       0.4473071       95.8035
2009    6       7       0.5809309       115.4858
2009    7       0       0.7650043       139.0982
2009    7       1       0.828228        146.5729
2009    7       2       0.9043561       155.7107
2009    7       3       1.125278        177.7419
2009    7       4       1.23877         186.9884
2009    7       5       1.241886        187.1637
2009    7       6       1.19457         183.5231
2009    7       7       1.180336        182.8856
2009    8       0       1.171468        182.5575
2009    8       1       1.063897        173.7439
2009    8       2       1.124603        179.6366
2009    8       3       0.9806755       167.6316
2009    8       4       0.9650177       166.3028
2009    8       5       0.6719347       132.7364
2009    8       6       0.6970797       136.4734
2009    8       7       0.6623431       131.2455
2009    9       0       0.6524941       130.3554
2009    9       1       0.8390265       153.0109
2009    9       2       1.166247        182.9707
2009    9       3       1.249795        187.4109
2009    9       4       0.9409479       159.3988
2009    9       5       0.8342243       147.8581
2009    9       6       0.6967462       131.7743
2009    9       7       0.7278807       135.072
2009    10      0       0.4228092       92.44922
2009    10      1       0.2434058       60.63753
2009    10      2       0.2801976       67.65446
2009    10      3       0.301482        71.33837
2009    10      4       0.2188136       55.45312
2009    10      5       0.2804098       67.1692
2009    10      6       0.5916034       118.66
2009    10      7       0.643255        125.2557
2009    11      0       0.6759018       129.229
2009    11      1       0.6335428       124.1129
2009    11      2       0.598429        119.515
2009    11      3       0.5884743       118.1621
2009    11      4       0.6062877       120.5853
2009    11      5       0.7700138       140.9247
2009    11      6       0.8961551       154.3446
2009    11      7       0.5917343       119.2826
2009    12      0       0.5178447       108.2221
2009    12      1       0.4827541       101.9974
2009    12      2       0.740634        136.502
2009    12      3       0.8728918       151.0858
2009    12      4       0.7103409       132.1527
2009    12      5       0.6672359       126.5702
2009    12      6       0.4185378       90.23541
2009    12      7       0.3902473       85.68674
2009    13      0       0.4588052       97.53602
2009    13      1       0.5533611       112.65
2009    13      2       0.7295222       136.4893
2009    13      3       0.7364037       138.7496
2009    13      4       0.4568068       99.9298
2009    13      5       0.3864719       87.08903
2009    13      6       0.4314357       94.17664
2009    13      7       0.6386662       125.4986
2009    14      0       0.6627204       129.325
2009    14      1       0.6087571       122.2948
2009    14      2       0.6649973       129.2571
2009    14      3       0.6154746       123.197
2009    14      4       0.6071892       120.8808
2009    14      5       0.5928349       118.7044
2009    14      6       0.6828282       130.4821
2009    14      7       0.8309206       148.3938
2009    15      0       0.9342315       159.5807
2009    15      1       0.9396966       160.4262
2009    15      2       0.8228364       148.0291
2009    15      3       0.7345913       137.743
2009    15      4       0.6502782       127.5776
2009    15      5       0.5975671       120.6179
2009    15      6       0.6337387       125.4741
2009    15      7       0.7111943       135.471
2009    16      0       0.7151099       136.4953
2009    16      1       0.7499793       141.2469
2009    16      2       0.6102306       123.3488
2009    16      3       0.5695748       117.1493
2009    16      4       0.6450808       127.9814
2009    16      5       0.5375638       112.484
2009    16      6       0.4997343       106.8205
2009    16      7       0.4445612       98.95405
2009    17      0       0.4617446       102.0997
2009    17      1       0.3959819       90.34777
2009    17      2       0.2571724       63.68779
2009    17      3       0.2566334       63.92349
2009    17      4       0.2212615       57.2474
2009    17      5       0.2708911       67.84266
2009    17      6       0.2344645       60.45059
2009    17      7       0.2482992       63.13849
2009    18      0       0.2311021       59.25289
2009    18      1       0.1942623       51.5099
2009    18      2       0.195879        51.78969
2009    18      3       0.175181        47.43738
2009    18      4       0.1634634       45.05265
2009    18      5       0.1528162       42.24874
2009    18      6       0.3248404       76.15208
2009    18      7       0.4473194       97.40571
2009    19      0       0.498221        106.5586
2009    19      1       0.6368184       125.9476
2009    19      2       0.4827724       103.94
2009    19      3       0.721767        138.5913
2009    19      4       0.7060406       137.3572
2009    19      5       0.3325699       79.52413
2009    19      6       0.2392441       61.80096
2009    19      7       0.2683967       68.12075
2009    20      0       0.2873005       71.76018
2009    20      1       0.3129562       76.58817
2009    20      2       0.2166832       56.79513
2009    20      3       0.128504        37.90095
2009    20      4       0.1148083       34.68406
2009    20      5       0.1204863       35.93152
2009    20      6       0.1256279       36.99058
2009    20      7       0.1283893       37.47812
2009    21      0       0.1204499       35.56466
2009    21      1       0.1206879       35.55809
2009    21      2       0.1270738       37.06655
2009    21      3       0.1304351       37.84817
2009    21      4       0.1171963       34.76731
2009    21      5       0.09931499      30.57267
2009    21      6       0.1239524       36.7352
2009    21      7       0.2448681       63.02451
2009    22      0       0.5023341       108.4046
2009    22      1       0.6136143       125.6517
2009    22      2       0.6095335       125.2713
2009    22      3       0.692553        136.3923
2009    22      4       0.9264332       162.9025
2009    22      5       1.05987         176.2947
2009    22      6       1.080627        178.4594
2009    22      7       1.271383        193.6597
2009    23      0       1.456094        206.151
2009    23      1       1.448818        205.1071
2009    23      2       1.392459        201.0488
2009    23      3       1.370848        199.1408
2009    23      4       1.601539        212.3322
2009    23      5       1.428188        202.1784
2009    23      6       1.183259        184.9437
2009    23      7       1.340012        195.0498
2009    24      0       1.067105        173.944
2009    24      1       0.7897438       146.2274
2009    24      2       0.7117042       136.6691
2009    24      3       0.6499641       128.5186
2009    24      4       0.8676928       154.7016
2009    24      5       1.068322        174.9096
2009    24      6       1.124885        180.0211
2009    24      7       1.541564        208.2061
2009    25      0       1.06143         174.0321
2009    25      1       1.218297        186.7869
2009    25      2       0.8844588       155.8896
2009    25      3       0.8434277       151.1206
2009    25      4       0.9067365       157.2286
2009    25      5       1.094734        174.5813
2009    25      6       1.062792        171.8703
2009    25      7       0.9715721       163.8546
2009    26      0       0.9883372       165.2944
2009    26      1       1.035488        169.6744
2009    26      2       0.9788943       164.7491
2009    26      3       0.8624414       151.6381
2009    26      4       0.7761441       141.5805
2009    26      5       0.6365727       123.9728
2009    26      6       0.5221911       107.7704
2009    26      7       0.6612429       126.6912
2009    27      0       0.6312081       122.6203
2009    27      1       0.5821119       115.9338
2009    27      2       0.6083098       119.275
2009    27      3       0.5391199       109.186
2009    27      4       0.37841         83.99253
2009    27      5       0.3057811       71.17319
2009    27      6       0.1554388       41.98945
2009    27      7       0.1102129       32.41134
2009    28      0       0.1614506       43.13888
2009    28      1       0.6062412       119.5399
2009    28      2       0.5614161       113.9978
2009    28      3       0.6020753       119.2337
2009    28      4       0.6032493       118.2519
2009    28      5       0.514074        105.0918
2009    28      6       0.4245256       91.25624
2009    28      7       0.5085409       103.7951
2009    29      0       0.4800924       99.54691
2009    29      1       0.4260267       91.29213
2009    29      2       0.3942954       85.96683
2009    29      3       0.3781027       83.39269
2009    29      4       0.3702106       82.12617
2009    29      5       0.2865114       67.18247
2009    29      6       0.2769568       65.5212
2009    29      7       0.4260622       92.13598
2009    30      0       0.5574455       113.3057
2009    30      1       0.5614055       114.8773
2009    30      2       0.623935        123.6985
2009    30      3       0.5677053       116.3535
2009    30      4       0.5147499       109.1985
2009    30      5       0.5067488       107.7207
2009    30      6       0.4460908       98.29312
2009    30      7       0.3638999       84.68411
2009    31      0       0.3161729       75.85418
2009    31      1       0.3100706       74.48508
2009    31      2       0.2872548       70.18141
2009    31      3       0.2492715       62.97093
2009    31      4       0.2253466       58.04501
2009    31      5       0.2452465       61.95991
2009    31      6       0.2607137       64.90246
2009    31      7       0.390384        88.28769
2010    1       0       0.2874088       68.28074
2010    1       1       0.4201073       91.51698
2010    1       2       0.7299377       136.9266
2010    1       3       0.8779127       154.9174
2010    1       4       0.8726739       154.5647
2010    1       5       0.8551205       152.716
2010    1       6       0.9325683       161.5592
2010    1       7       0.9950274       167.8163
2010    2       0       1.001791        168.1299
2010    2       1       0.9186659       159.7515
2010    2       2       0.9595842       163.6579
2010    2       3       0.8895481       157.0111
2010    2       4       0.8545018       152.6194
2010    2       5       0.6260426       124.8528
2010    2       6       0.9624032       161.3026
2010    2       7       0.6686265       129.1749
2010    3       0       0.5166328       108.289
2010    3       1       0.558557        114.4151
2010    3       2       0.6270223       123.0464
2010    3       3       0.7380171       136.4257
2010    3       4       0.7628139       139.4543
2010    3       5       0.6899085       130.5096
2010    3       6       0.6495678       124.7998
2010    3       7       0.6849269       129.5175
2010    4       0       0.5773624       115.5095
2010    4       1       0.5093432       105.7089
2010    4       2       0.4867366       102.573
2010    4       3       0.4771123       101.2117
2010    4       4       0.5003753       104.851
2010    4       5       0.5410431       110.7924
2010    4       6       0.6409289       124.748
2010    4       7       0.7592546       140.3173
2010    5       0       0.8131603       146.7979
2010    5       1       0.8312485       149.1093
2010    5       2       0.8427623       150.3548
2010    5       3       0.7920736       144.9538
2010    5       4       0.7982242       145.6031
2010    5       5       0.8731306       154.1146
2010    5       6       0.7954015       145.9333
2010    5       7       0.8691519       154.3891
2010    6       0       0.9099989       158.3712
2010    6       1       1.027075        170.3358
2010    6       2       1.079103        175.1616
2010    6       3       1.083426        175.298
2010    6       4       0.9457287       162.7056
2010    6       5       0.8259709       149.9396
2010    6       6       0.8355555       149.5064
2010    6       7       0.7091669       133.6561
2010    7       0       0.4606908       98.05852
2010    7       1       0.2290888       57.03953
2010    7       2       0.1171216       33.76409
2010    7       3       0.09376239      28.54837
2010    7       4       0.09710441      29.27299
2010    7       5       0.1032378       30.60832
2010    7       6       0.1066059       31.34751
2010    7       7       0.1221452       34.90048
2010    8       0       0.1106841       32.28696
2010    8       1       0.1159829       33.42869
2010    8       2       0.1289666       36.27427
2010    8       3       0.1499161       40.6424
2010    8       4       0.2450779       59.88854
2010    8       5       0.3656812       82.22157
2010    8       6       0.3399178       78.43894
2010    8       7       0.294905        70.2055
2010    9       0       0.3180149       74.49904
2010    9       1       0.3563249       81.62288
2010    9       2       0.3629905       82.85533
2010    9       3       0.3307035       77.42325
2010    9       4       0.3549472       82.05461
2010    9       5       0.3814982       86.78746
2010    9       6       0.3994918       90.0322
2010    9       7       0.4139132       92.59972
2010    10      0       0.4377734       96.37437
2010    10      1       0.4574467       99.25574
2010    10      2       0.4682213       100.9103
2010    10      3       0.4584954       99.47397
2010    10      4       0.4602223       99.76175
2010    10      5       0.4733641       101.8146
2010    10      6       0.4873627       104.2934
2010    10      7       0.4929802       105.7961
2010    11      0       0.4230836       95.3778
2010    11      1       0.3921881       90.38481
2010    11      2       0.3469142       82.4664
2010    11      3       0.2468898       63.22802
2010    11      4       0.2028622       54.00898
2010    11      5       0.1976937       52.85154
2010    11      6       0.1548838       43.35707
2010    11      7       0.1453818       41.33027
2010    12      0       0.1514938       42.82903
2010    12      1       0.1546389       43.5865
2010    12      2       0.1571164       44.1519
2010    12      3       0.1580513       44.2926
2010    12      4       0.1635238       45.53739
2010    12      5       0.1786257       48.81813
2010    12      6       0.1978999       52.96282
2010    12      7       0.2180755       57.34582
2010    13      0       0.2328155       60.4456
2010    13      1       0.2583975       65.58349
2010    13      2       0.3085635       74.481
2010    13      3       0.5991479       121.4149
2010    13      4       0.6028872       122.508
2010    13      5       0.6041805       121.976
2010    13      6       0.5189807       109.9102
2010    13      7       0.4259975       95.63787
2010    14      0       0.3924613       90.11596
2010    14      1       0.3947384       90.64634
2010    14      2       0.5660889       117.1623
2010    14      3       0.7308818       138.2377
2010    14      4       0.7702606       142.5893
2010    14      5       0.7790912       143.3269
2010    14      6       0.8164982       147.4553
2010    14      7       0.8715083       153.5607
2010    15      0       0.8186637       148.1821
2010    15      1       0.7640241       141.9095
2010    15      2       0.75278         140.1494
2010    15      3       0.5739685       117.5182
2010    15      4       0.2853119       69.88461
2010    15      5       0.1798718       48.27902
2010    15      6       0.2338467       59.10345
2010    15      7       0.4326339       96.02339
2010    16      0       0.6141334       124.0197
2010    16      1       0.6616685       130.7468
2010    16      2       0.6221095       125.366
2010    16      3       0.5014332       107.3922
2010    16      4       0.5360975       112.0837
2010    16      5       0.5807846       118.236
2010    16      6       0.554205        114.7283
2010    16      7       0.5231312       110.3369
2010    17      0       0.6490447       127.8708
2010    17      1       0.8339857       150.6935
2010    17      2       1.044846        172.6737
2010    17      3       1.008372        169.0633
2010    17      4       0.8655531       153.6429
2010    17      5       0.8437417       150.7391
2010    17      6       0.8349839       150.2236
2010    17      7       0.8579344       153.119
2010    18      0       0.8573127       153.2454
2010    18      1       0.8336998       150.704
2010    18      2       0.7839703       145.273
2010    18      3       0.6920452       134.282
2010    18      4       0.6771685       131.4919
2010    18      5       0.6722554       130.2413
2010    18      6       0.746505        139.3603
2010    18      7       0.8947387       156.9239
2010    19      0       0.735003        139.37
2010    19      1       0.7420232       140.2561
2010    19      2       0.9345769       162.0292
2010    19      3       1.151992        181.539
2010    19      4       1.144089        180.7396
2010    19      5       1.075413        174.1919
2010    19      6       1.026106        168.7217
2010    19      7       0.9659936       162.6097
2010    20      0       0.4765912       102.2074
2010    20      1       0.340288        79.59618
2010    20      2       0.3434286       79.8744
2010    20      3       0.3369277       78.45893
2010    20      4       0.5260302       109.0253
2010    20      5       0.8240889       147.3995
2010    20      6       0.8612959       151.4436
2010    20      7       0.9492734       160.5178
2010    21      0       0.7801028       143.1887
2010    21      1       0.7003975       133.6208
2010    21      2       0.5210227       109.6894
2010    21      3       0.3662467       84.28848
2010    21      4       0.7014764       133.323
2010    21      5       0.7095715       134.156
2010    21      6       0.6805223       131.0649
2010    21      7       0.7211421       136.3402
2010    22      0       1.069445        172.8765
2010    22      1       1.012574        168.9319
2010    22      2       1.174835        183.7626
2010    22      3       1.377607        200.2366
2010    22      4       1.182159        185.3637
2010    22      5       0.8744413       155.6034
2010    22      6       0.8336973       150.6327
2010    22      7       0.9201632       158.3732
2010    23      0       0.8418057       149.9091
2010    23      1       0.6184869       122.7683
2010    23      2       0.668804        129.1214
2010    23      3       0.5169707       108.0596
2010    23      4       0.4497606       97.66761
2010    23      5       0.521253        108.4099
2010    23      6       0.6311576       122.8615
2010    23      7       0.6631118       126.6207
2010    24      0       0.6222815       121.4367
2010    24      1       0.5324721       108.9352
2010    24      2       0.5299271       108.2788
2010    24      3       0.5675648       113.2459
2010    24      4       0.5854222       115.3332
2010    24      5       0.5719732       113.4895
2010    24      6       0.5492695       110.5716
2010    24      7       0.5035713       104.5433
2010    25      0       0.447786        96.05
2010    25      1       0.451324        96.76461
2010    25      2       0.3555172       81.02926
2010    25      3       0.2768485       66.93545
2010    25      4       0.3345749       77.29007
2010    25      5       0.4306827       93.56378
2010    25      6       0.5697712       114.6326
2010    25      7       0.6357965       124.6336
2010    26      0       0.5604157       115.015
2010    26      1       0.425727        94.46164
2010    26      2       0.3651102       83.8798
2010    26      3       0.3991467       89.90355
2010    26      4       0.4127234       92.02465
2010    26      5       0.475469        101.5984
2010    26      6       0.7358091       137.4781
2010    26      7       0.9276501       160.0028
2010    27      0       0.8616782       153.4589
2010    27      1       0.6987223       134.2341
2010    27      2       0.6968391       133.3316
2010    27      3       0.691015        132.4623
2010    27      4       0.6010413       120.7018
2010    27      5       0.5351298       110.933
2010    27      6       0.6271016       123.2992
2010    27      7       0.8409864       149.5723
2010    28      0       1.012918        166.3388
2010    28      1       0.956539        161.8271
2010    28      2       0.9546212       162.2371
2010    28      3       1.022928        169.2283
2010    28      4       1.04775         171.5213
2010    28      5       1.05327         172.242
2010    28      6       0.9856173       165.9847
2010    28      7       0.9648242       163.6029
2010    29      0       0.7853707       144.5329
2010    29      1       0.4756471       103.1615
2010    29      2       0.2970108       71.99792
2010    29      3       0.2438258       61.04227
2010    29      4       0.228156        57.5852
2010    29      5       0.2682582       65.34962
2010    29      6       0.3616512       82.38248
2010    29      7       0.5707359       115.5302
2010    30      0       0.6614264       128.5742
2010    30      1       0.731141        137.6222
2010    30      2       0.8401712       150.5474
2010    30      3       0.8860644       155.9882
2010    30      4       0.8951516       156.9489
2010    30      5       0.9433521       161.4399
2010    30      6       0.8066229       147.3342
2010    30      7       0.6005782       121.5035
2010    31      0       0.465687        101.4241
2010    31      1       0.4396431       97.30002
2010    31      2       0.4678293       101.6273
2010    31      3       0.485599        104.0221
2010    31      4       0.5605065       115.6667
2010    31      5       0.6212233       124.061
2010    31      6       0.5745852       117.1742
2010    31      7       0.6796915       130.71
2011    1       0       0.2750362       63.85837
2011    1       1       0.293817        67.36178
2011    1       2       0.2974221       68.21148
2011    1       3       0.3094322       70.43445
2011    1       4       0.314743        71.48242
2011    1       5       0.2971552       68.46903
2011    1       6       0.2772654       64.81467
2011    1       7       0.2843498       66.20277
2011    2       0       0.2427114       59.18807
2011    2       1       0.2168544       54.43624
2011    2       2       0.3233161       74.42392
2011    2       3       0.3620297       81.5785
2011    2       4       0.3741886       84.09471
2011    2       5       0.3569804       81.5547
2011    2       6       0.32162         75.34824
2011    2       7       0.3386535       78.17108
2011    3       0       0.4096431       90.2601
2011    3       1       0.4363157       94.34488
2011    3       2       0.5133017       106.0233
2011    3       3       0.4919843       103.4861
2011    3       4       0.3224149       75.73728
2011    3       5       0.3297704       76.61224
2011    3       6       0.3280344       76.25678
2011    3       7       0.3354658       77.68176
2011    4       0       0.2700841       65.82329
2011    4       1       0.1921322       50.54484
2011    4       2       0.1586958       43.58748
2011    4       3       0.1668787       45.32488
2011    4       4       0.1980234       51.7727
2011    4       5       0.2288758       57.94576
2011    4       6       0.2703554       65.67608
2011    4       7       0.3816801       85.17578
2011    5       0       0.426257        92.72493
2011    5       1       0.4796692       101.3624
2011    5       2       0.4730474       100.6341
2011    5       3       0.6108322       121.0402
2011    5       4       0.7131004       135.0241
2011    5       5       0.753301        139.4656
2011    5       6       0.7051571       133.3185
2011    5       7       0.6529631       127.2057
2011    6       0       0.5183639       109.0434
2011    6       1       0.4248726       94.08634
2011    6       2       0.4734651       101.5452
2011    6       3       0.6217769       124.36
2011    6       4       0.8038744       148.3775
2011    6       5       0.7527794       143.1001
2011    6       6       0.6246267       126.4925
2011    6       7       0.6776385       133.5653
2011    7       0       0.7883102       147.619
2011    7       1       0.8571703       155.3897
2011    7       2       0.9941083       169.1277
2011    7       3       1.150248        183.0314
2011    7       4       1.092663        177.7436
2011    7       5       0.89043         157.8812
2011    7       6       0.7522538       141.8948
2011    7       7       0.7933828       146.7414
2011    8       0       0.8001631       147.8599
2011    8       1       0.8338038       151.7641
2011    8       2       0.9766889       166.6985
2011    8       3       1.038863        173.1991
2011    8       4       1.012094        170.6223
2011    8       5       0.9799585       166.958
2011    8       6       1.070951        174.556
2011    8       7       1.082962        174.8432
2011    9       0       1.036625        169.7171
2011    9       1       0.8998901       156.6848
2011    9       2       0.9425042       160.5348
2011    9       3       0.933812        158.8895
2011    9       4       0.8546623       150.1818
2011    9       5       0.8335742       147.0351
2011    9       6       0.6722228       127.1266
2011    9       7       0.5174908       105.6028
2011    10      0       0.3651297       81.34356
2011    10      1       0.3151072       72.33779
2011    10      2       0.336213        75.67087
2011    10      3       0.3616491       79.76051
2011    10      4       0.3250765       73.2381
2011    10      5       0.2460863       58.85436
2011    10      6       0.2246362       54.72094
2011    10      7       0.2950058       67.77917
2011    11      0       0.2423309       58.24352
2011    11      1       0.2408213       58.01086
2011    11      2       0.2637925       62.47789
2011    11      3       0.2653215       62.89321
2011    11      4       0.2384073       58.01961
2011    11      5       0.1957872       49.89125
2011    11      6       0.1759683       46.02127
2011    11      7       0.1880714       48.63111
2011    12      0       0.2067784       52.66468
2011    12      1       0.2266675       56.68314
2011    12      2       0.2647776       63.97759
2011    12      3       0.3228583       74.96621
2011    12      4       0.4543479       97.51272
2011    12      5       0.6574498       127.3555
2011    12      6       0.7114937       135.1741
2011    12      7       0.6017795       121.2697
2011    13      0       0.6244033       124.3286
2011    13      1       0.8241117       148.8384
2011    13      2       0.8464189       151.6091
2011    13      3       0.7570009       141.6297
2011    13      4       0.9627855       163.9297
2011    13      5       0.9361523       161.9386
2011    13      6       0.8314092       151.3701
2011    13      7       0.7824397       146.233
2011    14      0       0.806773        149.1236
2011    14      1       0.9902958       167.2905
2011    14      2       1.194038        183.6933
2011    14      3       1.046684        171.2055
2011    14      4       0.9589497       163.182
2011    14      5       0.7319631       139.1109
2011    14      6       0.5743082       118.0573
2011    14      7       0.531247        111.5796
2011    15      0       0.6240271       124.9233
2011    15      1       0.8256312       149.9641
2011    15      2       0.8818705       156.6803
2011    15      3       1.043887        173.0139
2011    15      4       0.9358562       162.7349
2011    15      5       0.7498251       141.6856
2011    15      6       0.761627        142.6429
2011    15      7       0.8359927       149.9704
2011    16      0       0.7263062       137.0589
2011    16      1       0.741272        138.7988
2011    16      2       0.9867583       165.3169
2011    16      3       0.7435189       139.6784
2011    16      4       0.6853333       132.3003
2011    16      5       1.124374        179.2315
2011    16      6       1.308889        194.1327
2011    16      7       1.388878        200.7103
2011    17      0       1.298273        194.4335
2011    17      1       1.509811        208.6048
2011    17      2       1.590829        213.3733
2011    17      3       1.786059        221.7984
2011    17      4       1.497575        207.395
2011    17      5       1.122443        179.8828
2011    17      6       0.9078256       159.4985
2011    17      7       1.350169        195.5485
2011    18      0       1.309721        192.8823
2011    18      1       1.229747        186.2978
2011    18      2       1.125239        177.5676
2011    18      3       0.9686362       163.7164
2011    18      4       0.785262        143.9615
2011    18      5       0.6594578       128.3179
2011    18      6       0.5003891       105.2631
2011    18      7       0.5711739       115.6487
2011    19      0       0.7771435       142.2693
2011    19      1       0.7560961       140.0857
2011    19      2       0.7605601       140.1563
2011    19      3       0.8435974       149.364
2011    19      4       1.040261        169.8353
2011    19      5       1.085678        173.3233
2011    19      6       0.9845666       163.2597
2011    19      7       0.8189353       145.6759
2011    20      0       0.551003        111.6325
2011    20      1       0.4005792       88.32474
2011    20      2       0.3578919       81.00547
2011    20      3       0.3745388       83.83054
2011    20      4       0.3054766       71.60263
2011    20      5       0.2760371       66.38337
2011    20      6       0.3393737       78.2884
2011    20      7       0.5060813       106.5304
2011    21      0       0.6985232       133.8157
2011    21      1       0.9552499       162.4563
2011    21      2       0.9191174       158.2739
2011    21      3       0.8733626       152.7193
2011    21      4       0.7224814       135.1121
2011    21      5       0.4895624       103.2879
2011    21      6       0.3694907       83.94975
2011    21      7       0.2366422       59.59498
2011    22      0       0.2340146       58.56836
2011    22      1       0.4062788       89.79062
2011    22      2       0.6842677       131.3404
2011    22      3       1.088867        174.9366
2011    22      4       1.024566        168.4697
2011    22      5       0.6067556       120.184
2011    22      6       0.5813794       115.6059
2011    22      7       0.6176125       120.4056
2011    23      0       0.5846229       115.5754
2011    23      1       0.6935171       129.7428
2011    23      2       0.4793807       100.4463
2011    23      3       0.3363413       77.67681
2011    23      4       0.2841114       68.63866
2011    23      5       0.3565779       81.1399
2011    23      6       0.2853421       68.51842
2011    23      7       0.5164309       107.4867
2011    24      0       0.6489747       126.9012
2011    24      1       0.5462332       112.2463
2011    24      2       0.6931827       130.855
2011    24      3       0.7565118       137.8201
2011    24      4       0.5782924       114.9293
2011    24      5       0.1773866       47.04172
2011    24      6       0.2198612       55.43757
2011    24      7       0.2400378       59.32023
2011    25      0       0.1728574       45.7105
2011    25      1       0.1886039       49.18115
2011    25      2       0.2776047       66.61936
2011    25      3       0.2855853       68.36106
2011    25      4       0.23925         58.98764
2011    25      5       0.362163        81.52438
2011    25      6       0.7739593       140.6343
2011    25      7       0.9321611       158.2348
2011    26      0       0.8545781       150.7784
2011    26      1       0.7072159       133.8858
2011    26      2       0.7241492       135.3195
2011    26      3       0.7027206       132.3509
2011    26      4       0.7554087       138.9838
2011    26      5       0.4235735       93.55173
2011    26      6       0.2245503       57.01414
2011    26      7       0.3107402       72.7386
2011    27      0       0.303792        71.77146
2011    27      1       0.5942298       118.6698
2011    27      2       0.8502647       151.4736
2011    27      3       0.971853        164.5391
2011    27      4       1.01922         169.3816
2011    27      5       0.9197201       159.9794
2011    27      6       0.8379536       151.1237
2011    27      7       0.7390531       139.9314
2011    28      0       0.6626468       130.7381
2011    28      1       0.4683732       102.793
2011    28      2       0.6172608       124.5145
2011    28      3       0.6653015       131.5681
2011    28      4       0.6694602       132.1401
2011    28      5       0.7243484       139.1802
2011    28      6       0.8131516       150.2167
2011    28      7       0.7763123       146.0725
2011    29      0       0.6685588       132.4695
2011    29      1       0.6286139       126.7691
2011    29      2       0.5660903       117.607
2011    29      3       0.5064646       108.6736
2011    29      4       0.5308346       112.6022
2011    29      5       0.4092953       93.10294
2011    29      6       0.4307159       96.64231
2011    29      7       0.4608618       101.3434
2011    30      0       0.5947947       120.8143
2011    30      1       0.7294195       138.1821
2011    30      2       0.6705913       130.4866
2011    30      3       0.5934394       120.4414
2011    30      4       0.555176        114.6597
2011    30      5       0.5270767       110.7817
2011    30      6       0.5567938       115.1609
2011    30      7       0.6160991       122.7776
2011    31      0       0.8066998       146.1358
2011    31      1       0.7098003       135.0197
2011    31      2       0.6336568       124.9792
2011    31      3       0.7094207       134.1322
2011    31      4       0.8487027       149.927
2011    31      5       0.9329276       158.2622
2011    31      6       0.853166        149.1332
2011    31      7       0.6882297       128.9613
2012    1       0       0.2792815       67.04113
2012    1       1       0.2336266       58.22681
2012    1       2       0.280897        67.34761
2012    1       3       0.3859672       86.93198
2012    1       4       0.539426        111.8766
2012    1       5       0.6027098       121.531
2012    1       6       0.7151562       136.3611
2012    1       7       0.8493734       151.9979
2012    2       0       0.8598879       153.6118
2012    2       1       0.6945286       134.804
2012    2       2       0.4686834       102.7997
2012    2       3       0.3397255       80.48953
2012    2       4       0.3290009       78.4179
2012    2       5       0.3812739       87.82693
2012    2       6       0.4891137       105.9187
2012    2       7       0.5506307       115.6463
2012    3       0       0.5178054       111.0924
2012    3       1       0.4703877       103.75
2012    3       2       0.4629378       102.8866
2012    3       3       0.4450911       100.1174
2012    3       4       0.3631798       84.85767
2012    3       5       0.4163152       92.93978
2012    3       6       0.7380556       139.3652
2012    3       7       0.4538542       100.0419
2012    4       0       0.6402082       126.671
2012    4       1       0.2592761       65.58832
2012    4       2       0.163763        45.15322
2012    4       3       0.1570775       43.60831
2012    4       4       0.2023723       53.03868
2012    4       5       0.3021826       72.60527
2012    4       6       0.583826        119.1348
2012    4       7       0.7794121       145.6337
2012    5       0       0.9187542       163.2457
2012    5       1       0.8698866       158.6893
2012    5       2       0.8360985       154.7179
2012    5       3       0.7168153       140.3969
2012    5       4       0.6147141       126.5973
2012    5       5       0.5655069       119.1768
2012    5       6       0.6258221       127.5995
2012    5       7       0.6706286       133.7025
2012    6       0       0.6737215       134.0182
2012    6       1       0.8820407       157.8752
2012    6       2       1.024538        171.3046
2012    6       3       0.859363        153.3473
2012    6       4       0.4379969       96.39975
2012    6       5       0.3398236       78.86118
2012    6       6       0.2463204       61.05171
2012    6       7       0.1934399       50.84732
2012    7       0       0.1599245       43.67909
2012    7       1       0.1570461       42.78999
2012    7       2       0.2249493       56.19694
2012    7       3       0.6501081       125.5211
2012    7       4       0.9646022       161.8448
2012    7       5       1.042744        169.2822
2012    7       6       0.9657783       161.8017
2012    7       7       0.8709362       151.4964
2012    8       0       0.703574        131.6746
2012    8       1       0.5179756       106.5844
2012    8       2       0.4067414       89.52022
2012    8       3       0.3498603       80.14919
2012    8       4       0.274663        66.70449
2012    8       5       0.2551927       62.91185
2012    8       6       0.2318649       58.35932
2012    8       7       0.2838254       68.05598
2012    9       0       0.603728        119.3878
2012    9       1       0.8371169       149.7372
2012    9       2       1.051683        173.6077
2012    9       3       1.043444        173.6025
2012    9       4       0.9212843       162.1269
2012    9       5       0.8097642       150.235
2012    9       6       0.7318941       141.6166
2012    9       7       0.6383683       129.6366
2012    10      0       0.4389953       99.51742
2012    10      1       0.4096496       94.09886
2012    10      2       0.3235672       78.28819
2012    10      3       0.2627246       65.98286
2012    10      4       0.2486588       63.0753
2012    10      5       0.226867        58.44366
2012    10      6       0.2178858       56.71704
2012    10      7       0.2616264       65.32929
2012    11      0       0.2897738       70.6353
2012    11      1       0.4346851       96.18719
2012    11      2       0.7897143       144.319
2012    11      3       0.7267943       136.4724
2012    11      4       0.6448678       124.7166
2012    11      5       0.5443831       109.2487
2012    11      6       0.3504097       78.69182
2012    11      7       0.2840526       66.90577
2012    12      0       0.2057326       51.96513
2012    12      1       0.09987649      29.67345
2012    12      2       0.1467313       39.67102
2012    12      3       0.2917106       68.52865
2012    12      4       0.3754791       83.78494
2012    12      5       0.3310754       76.29125
2012    12      6       0.3549054       80.28466
2012    12      7       0.3677523       82.11277
2012    13      0       0.49056         101.7416
2012    13      1       0.3303103       76.31849
2012    13      2       0.3538619       79.8558
2012    13      3       0.5136869       105.6179
2012    13      4       0.4030232       88.30863
2012    13      5       0.3914197       86.52318
2012    13      6       0.5733259       115.707
2012    13      7       0.2932152       70.92601
2012    14      0       0.2287875       57.51703
2012    14      1       0.2493552       61.42134
2012    14      2       0.276262        66.634
2012    14      3       0.4667521       99.99557
2012    14      4       0.6565689       127.6005
2012    14      5       0.7408717       138.8134
2012    14      6       0.6195902       123.6802
2012    14      7       0.4949739       105.7925
2012    15      0       0.489432        105.067
2012    15      1       0.407532        91.97265
2012    15      2       0.3120052       74.87104
2012    15      3       0.3328292       78.7846
2012    15      4       0.3004362       72.59358
2012    15      5       0.2660468       65.85865
2012    15      6       0.2850537       69.36627
2012    15      7       0.3524605       81.2388
2012    16      0       0.405116        90.07759
2012    16      1       0.4504143       97.51141
2012    16      2       0.5287968       109.7505
2012    16      3       0.5202695       108.7974
2012    16      4       0.6429531       126.0575
2012    16      5       0.8131498       145.8795
2012    16      6       0.8905512       154.0457
2012    16      7       0.8955117       153.5898
2012    17      0       0.5771359       114.0285
2012    17      1       0.2800805       65.82381
2012    17      2       0.1623206       42.81506
2012    17      3       0.1269615       35.42215
2012    17      4       0.136475        37.54347
2012    17      5       0.1604944       42.50377
2012    17      6       0.1657671       43.66807
2012    17      7       0.1975279       50.31819
2012    18      0       0.1910694       49.08643
2012    18      1       0.2543718       61.33795
2012    18      2       0.2688997       63.98604
2012    18      3       0.3418467       77.06506
2012    18      4       0.5630213       112.037
2012    18      5       0.6236736       120.9494
2012    18      6       0.6677925       127.4776
2012    18      7       0.8403388       148.7295
2012    19      0       0.8979155       156.5249
2012    19      1       1.074004        174.0356
2012    19      2       1.154605        180.3361
2012    19      3       1.123582        177.9024
2012    19      4       1.049875        172.175
2012    19      5       1.1037          177.1256
2012    19      6       1.099468        177.6717
2012    19      7       1.077735        176.9999
2012    20      0       1.130419        181.2041
2012    20      1       1.019191        170.3119
2012    20      2       1.02995         170.8849
2012    20      3       1.025181        169.9933
2012    20      4       0.9330727       160.638
2012    20      5       0.725318        137.3677
2012    20      6       0.733757        137.2515
2012    20      7       0.6691747       130.2629
2012    21      0       0.5243138       110.6139
2012    21      1       0.4313661       95.543
2012    21      2       0.6984323       133.0057
2012    21      3       1.066913        175.1374
2012    21      4       1.058038        175.8551
2012    21      5       1.048786        175.9293
2012    21      6       1.192566        187.1496
2012    21      7       1.344475        198.9255
2012    22      0       1.259935        191.8115
2012    22      1       0.8838945       156.408
2012    22      2       0.8973136       157.2656
2012    22      3       0.8372368       150.3608
2012    22      4       0.9589919       160.5343
2012    22      5       0.6475769       124.8123
2012    22      6       0.5167208       107.0166
2012    22      7       0.416664        91.33616
2012    23      0       0.1845749       48.61005
2012    23      1       0.2853321       68.11395
2012    23      2       0.4096602       90.66406
2012    23      3       0.5090234       106.9659
2012    23      4       0.4872211       104.0635
2012    23      5       0.4497712       97.94244
2012    23      6       0.4873579       103.6971
2012    23      7       0.5545293       114.0404
2012    24      0       0.5577836       114.7164
2012    24      1       0.7125294       134.8677
2012    24      2       0.9039019       156.4256
2012    24      3       0.9638108       161.9924
2012    24      4       0.9386634       158.8779
2012    24      5       0.7492076       138.2826
2012    24      6       0.7473042       137.9319
2012    24      7       0.7024473       132.4516
2012    25      0       0.4629222       99.2659
2012    25      1       0.2060279       53.3148
2012    25      2       0.1493056       41.05062
2012    25      3       0.2893456       69.89041
2012    25      4       0.5794144       118.7327
2012    25      5       0.6848857       134.0187
2012    25      6       0.3236651       76.40686
2012    25      7       0.4717724       102.0581
2012    26      0       0.4164146       92.8386
2012    26      1       0.4701572       101.2915
2012    26      2       0.5381606       110.8541
2012    26      3       0.4793141       101.7108
2012    26      4       0.4530875       97.68261
2012    26      5       0.5248986       109.0746
2012    26      6       0.692007        132.9738
2012    26      7       0.856161        152.3679
2012    27      0       1.082181        174.4466
2012    27      1       1.239373        186.8099
2012    27      2       0.7176522       135.2708
2012    27      3       0.5490526       112.7291
2012    27      4       0.6860542       129.703
2012    27      5       0.4597331       97.36258
2012    27      6       0.4052573       88.43655
2012    27      7       0.3721756       82.83044
2012    28      0       0.2529          61.27993
2012    28      1       0.1962593       50.19125
2012    28      2       0.1628019       43.14783
2012    28      3       0.1689702       44.44942
2012    28      4       0.2275511       56.20141
2012    28      5       0.2665822       63.58763
2012    28      6       0.3157021       72.63769
2012    28      7       0.3865098       85.46967
2012    29      0       0.4531587       96.6621
2012    29      1       0.5118103       106.4546
2012    29      2       0.5840473       117.7666
2012    29      3       0.5992322       120.5033
2012    29      4       0.6804358       131.7445
2012    29      5       0.6682309       130.302
2012    29      6       0.6842098       132.3664
2012    29      7       0.7257159       137.247
2012    30      0       0.6128961       122.3852
2012    30      1       0.5107617       107.2891
2012    30      2       0.5952773       120.0202
2012    30      3       0.5318502       111.6357
2012    30      4       0.4740226       103.3163
2012    30      5       0.4278804       95.7065
2012    30      6       0.5760118       117.0079
2012    30      7       0.6607371       128.4545
2012    31      0       0.6827366       131.1063
2012    31      1       0.6350463       125.115
2012    31      2       0.4912184       104.2973
2012    31      3       0.2109819       54.40998
2012    31      4       0.1942497       51.05935
2012    31      5       0.1719669       46.4608
2012    31      6       0.1879304       49.64379
2012    31      7       0.2425683       60.68192
2013    1       0       0.505807        104.888
2013    1       1       0.3897895       86.399
2013    1       2       0.3127355       72.76635
2013    1       3       0.3540434       79.66054
2013    1       4       0.4666071       97.48805
2013    1       5       0.4271891       91.55162
2013    1       6       0.3598168       80.71473
2013    1       7       0.3660169       82.19443
2013    2       0       0.3104358       72.56739
2013    2       1       0.57555         114.88
2013    2       2       0.5793363       115.1204
2013    2       3       0.3989858       87.7719
2013    2       4       0.3367405       76.97174
2013    2       5       0.3720166       82.59537
2013    2       6       0.4379414       93.15303
2013    2       7       0.449297        95.01093
2013    3       0       0.3734862       82.9483
2013    3       1       0.3114386       72.35338
2013    3       2       0.2709069       65.10004
2013    3       3       0.270376        64.86627
2013    3       4       0.2609088       63.2681
2013    3       5       0.2691496       65.02809
2013    3       6       0.3649084       82.95391
2013    3       7       0.4627164       99.5976
2013    4       0       0.5927633       119.2608
2013    4       1       0.551337        114.3166
2013    4       2       0.4473521       98.69732
2013    4       3       0.3604555       83.83404
2013    4       4       0.262822        65.60346
2013    4       5       0.1802043       48.73875
2013    4       6       0.1480192       41.78371
2013    4       7       0.1368328       39.2128
2013    5       0       0.1186425       34.91086
2013    5       1       0.1189327       34.96327
2013    5       2       0.156382        43.48998
2013    5       3       0.2310982       59.21476
2013    5       4       0.2548084       63.91488
2013    5       5       0.2958555       71.55074
2013    5       6       0.2461342       61.94062
2013    5       7       0.1866772       49.29956
2013    6       0       0.1659402       44.93621
2013    6       1       0.1329592       37.71077
2013    6       2       0.1305337       37.06391
2013    6       3       0.1287469       36.72299
2013    6       4       0.1407222       39.63138
2013    6       5       0.1653412       45.43471
2013    6       6       0.1498782       41.98976
2013    6       7       0.1602347       44.32666
2013    7       0       0.1888757       50.27605
2013    7       1       0.4143144       91.74292
2013    7       2       0.6900847       132.5451
2013    7       3       0.3985367       89.46223
2013    7       4       0.2940577       70.95794
2013    7       5       0.2989958       71.46155
2013    7       6       0.3021909       71.90053
2013    7       7       0.2998731       71.92854
2013    8       0       0.2948213       71.05967
2013    8       1       0.325941        76.41329
2013    8       2       0.8795598       155.0221
2013    8       3       0.8602053       153.5956
2013    8       4       0.7602076       141.51
2013    8       5       0.805843        146.5651
2013    8       6       0.6961354       133.2422
2013    8       7       0.6609477       128.7676
2013    9       0       0.5838655       118.9394
2013    9       1       0.5510299       114.7063
2013    9       2       0.5632104       116.7317
2013    9       3       0.5645426       117.2463
2013    9       4       0.4827651       105.1579
2013    9       5       0.3196274       77.32738
2013    9       6       0.3278705       78.90682
2013    9       7       0.3110132       75.44205
2013    10      0       0.2752727       68.49157
2013    10      1       0.2553708       64.70609
2013    10      2       0.2489279       63.41417
2013    10      3       0.2720707       68.11884
2013    10      4       0.2622239       66.01805
2013    10      5       0.353073        82.28335
2013    10      6       0.5479851       113.274
2013    10      7       0.7550456       140.2148
2013    11      0       0.8637854       153.9196
2013    11      1       0.8217849       149.2418
2013    11      2       0.6880157       133.4008
2013    11      3       0.6603227       129.1082
2013    11      4       0.8224074       147.8902
2013    11      5       0.5217866       107.1625
2013    11      6       0.4177039       90.75329
2013    11      7       0.4082655       88.09139
2013    12      0       0.3091779       71.20344
2013    12      1       0.3209894       73.2766
2013    12      2       0.3237081       73.52088
2013    12      3       0.2791137       65.58671
2013    12      4       0.2759541       64.86878
2013    12      5       0.2727836       64.12503
2013    12      6       0.2705458       63.65501
2013    12      7       0.3176725       71.94995
2013    13      0       0.2998407       68.73756
2013    13      1       0.3000914       68.61302
2013    13      2       0.2776648       64.4208
2013    13      3       0.2674774       62.42742
2013    13      4       0.2547421       60.13696
2013    13      5       0.2337518       56.28376
2013    13      6       0.2389954       57.18328
2013    13      7       0.2709445       63.18403
2013    14      0       0.2469206       58.90346
2013    14      1       0.241232        57.9382
2013    14      2       0.2280821       55.48434
2013    14      3       0.2146765       52.9151
2013    14      4       0.2061856       51.22613
2013    14      5       0.1957889       49.17954
2013    14      6       0.1888493       47.96678
2013    14      7       0.2053592       51.363
2013    15      0       0.1981586       49.90912
2013    15      1       0.1848413       47.12696
2013    15      2       0.2240378       54.78943
2013    15      3       0.3647374       80.61756
2013    15      4       0.5128166       104.727
2013    15      5       0.6075806       118.8602
2013    15      6       0.6279565       122.5915
2013    15      7       0.6853649       130.3705
2013    16      0       0.8872048       153.5341
2013    16      1       0.9730856       163.548
2013    16      2       0.9556725       162.6035
2013    16      3       0.8786767       155.6156
2013    16      4       0.7448905       140.7257
2013    16      5       0.5730623       117.4208
2013    16      6       0.611346        122.8495
2013    16      7       0.4945483       106.2695
2013    17      0       0.4909898       105.8796
2013    17      1       0.5491065       114.8314
2013    17      2       0.4815405       104.4799
2013    17      3       0.3429672       80.94155
2013    17      4       0.283162        69.45601
2013    17      5       0.2706301       66.88778
2013    17      6       0.2888053       70.15047
2013    17      7       0.327702        77.32582
2013    18      0       0.3181046       75.91807
2013    18      1       0.2604154       65.15388
2013    18      2       0.2195804       56.95962
2013    18      3       0.218668        56.86313
2013    18      4       0.2624431       65.42599
2013    18      5       0.3272326       77.42
2013    18      6       0.314452        74.79738
2013    18      7       0.3815136       87.00586
2013    19      0       0.4293334       95.26378
2013    19      1       0.403115        90.56385
2013    19      2       0.3947661       88.91065
2013    19      3       0.2969638       71.63834
2013    19      4       0.1910626       50.91769
2013    19      5       0.1729262       46.51176
2013    19      6       0.1971132       51.50851
2013    19      7       0.2104977       54.15921
2013    20      0       0.2514002       61.75569
2013    20      1       0.3394906       78.32234
2013    20      2       0.3652986       83.76503
2013    20      3       0.2214337       56.99614
2013    20      4       0.2380092       59.84537
2013    20      5       0.353996        81.15718
2013    20      6       0.5018249       104.8047
2013    20      7       0.5168772       107.6107
2013    21      0       0.5048333       106.5707
2013    21      1       0.4794201       103.5751
2013    21      2       0.4092969       92.6732
2013    21      3       0.4623728       101.2173
2013    21      4       0.5864662       119.549
2013    21      5       0.6288896       125.5823
2013    21      6       0.5745644       117.295
2013    21      7       0.5478185       113.1606
2013    22      0       0.45779         99.54252
2013    22      1       0.4674105       100.9573
2013    22      2       0.3444484       79.78205
2013    22      3       0.2400846       60.24422
2013    22      4       0.1857236       49.54047
2013    22      5       0.1612382       44.52403
2013    22      6       0.1428829       40.48044
2013    22      7       0.1306093       37.78421
2013    23      0       0.1256502       36.62652
2013    23      1       0.1390623       39.12842
2013    23      2       0.1748783       46.45596
2013    23      3       0.1893627       49.58458
2013    23      4       0.2474142       62.12378
2013    23      5       0.2554057       64.21722
2013    23      6       0.2404958       61.20309
2013    23      7       0.2096702       55.00731
2013    24      0       0.2048564       53.66398
2013    24      1       0.2015185       52.88002
2013    24      2       0.4359584       94.69898
2013    24      3       0.3943326       88.83539
2013    24      4       0.7051645       135.0893
2013    24      5       1.0791          175.8336
2013    24      6       1.255294        190.7712
2013    24      7       1.331915        196.3005
2013    25      0       1.22728         188.377
2013    25      1       0.9861601       167.6931
2013    25      2       0.5138762       111.0439
2013    25      3       0.3935719       91.2583
2013    25      4       0.4013405       92.60684
2013    25      5       0.4191734       95.34245
2013    25      6       0.5112097       109.7436
2013    25      7       0.8261136       150.9524
2013    26      0       1.111639        178.9423
2013    26      1       1.146302        182.2214
2013    26      2       0.9920126       168.7805
2013    26      3       0.8454183       154.1266
2013    26      4       0.7302466       140.8078
2013    26      5       0.7154296       138.3917
2013    26      6       0.8265337       150.9471
2013    26      7       1.203619        185.0286
2013    27      0       1.377565        197.7664
2013    27      1       1.584973        210.2509
2013    27      2       1.64626         213.9973
2013    27      3       1.589121        210.9441
2013    27      4       1.267773        190.7933
2013    27      5       0.893144        158.7389
2013    27      6       0.6052168       124.0264
2013    27      7       0.645378        129.4013
2013    28      0       0.6804805       133.8107
2013    28      1       0.81434         149.0392
2013    28      2       0.8397565       152.3521
2013    28      3       1.050797        173.1428
2013    28      4       0.9576731       163.6468
2013    28      5       0.9388819       161.0372
2013    28      6       1.106787        176.0756
2013    28      7       0.9303768       158.4989
2013    29      0       0.6044049       119.6533
2013    29      1       0.5250276       107.9638
2013    29      2       0.5032871       103.9805
2013    29      3       0.4801646       99.78605
2013    29      4       0.3331738       75.5198
2013    29      5       0.2708096       64.40818
2013    29      6       0.3313946       75.26499
2013    29      7       0.399123        86.54941
2013    30      0       0.4548941       95.52026
2013    30      1       0.4349669       92.14004
2013    30      2       0.3203558       72.9586
2013    30      3       0.319323        72.59301
2013    30      4       0.4599973       96.21578
2013    30      5       0.5389547       108.9095
2013    30      6       0.6422241       123.4034
2013    30      7       0.7166595       133.1614
2013    31      0       0.6645601       127.0587
2013    31      1       0.6487649       125.3705
2013    31      2       0.7299974       135.3273
2013    31      3       0.6825098       129.2659
2013    31      4       0.5860214       116.7795
2013    31      5       0.5645433       113.826
2013    31      6       0.6238407       122.2052
2013    31      7       0.6769697       129.6211
2014    1       0       0.6784925       131.9536
2014    1       1       0.8294269       150.0718
2014    1       2       1.008046        167.2045
2014    1       3       1.004363        165.709
2014    1       4       0.8383279       149.1442
2014    1       5       0.599968        119.5986
2014    1       6       0.5984223       118.6074
2014    1       7       0.633947        122.784
2014    2       0       0.49221         103.2932
2014    2       1       0.346713        79.67578
2014    2       2       0.4359914       94.85598
2014    2       3       0.4828729       103.2063
2014    2       4       0.53            111.0646
2014    2       5       0.6284749       125.396
2014    2       6       0.7277546       138.0871
2014    2       7       0.8752323       155.0705
2014    3       0       0.9014936       157.952
2014    3       1       0.7266502       138.8046
2014    3       2       0.7059616       136.9247
2014    3       3       0.64684         129.5013
2014    3       4       0.5309919       112.7511
2014    3       5       0.5979901       122.9346
2014    3       6       0.716027        138.6617
2014    3       7       0.8354744       152.5989
2014    4       0       1.02393         170.6241
2014    4       1       0.8779167       155.7285
2014    4       2       0.8499222       150.7875
2014    4       3       0.9133745       156.0131
2014    4       4       0.6672873       127.6171
2014    4       5       0.645889        123.7932
2014    4       6       0.619683        119.4142
2014    4       7       0.4989566       102.1711
2014    5       0       0.3412743       76.91855
2014    5       1       0.3751986       82.81273
2014    5       2       0.3523325       78.83841
2014    5       3       0.3363137       75.97207
2014    5       4       0.298188        69.08369
2014    5       5       0.2970266       68.68731
2014    5       6       0.2658234       62.73319
2014    5       7       0.2501029       59.66487
2014    6       0       0.19705         49.68616
2014    6       1       0.1558275       41.2534
2014    6       2       0.1884843       48.13154
2014    6       3       0.2525946       61.1908
2014    6       4       0.3457029       78.82944
2014    6       5       0.4788739       101.5298
2014    6       6       0.6536739       127.1628
2014    6       7       0.7242236       136.8198
2014    7       0       0.5809883       117.9809
2014    7       1       0.6556074       128.6346
2014    7       2       0.7008          134.6752
2014    7       3       0.6713341       130.6726
2014    7       4       0.6795973       131.6002
2014    7       5       0.774154        143.0766
2014    7       6       0.8294987       149.201
2014    7       7       0.8933947       155.9724
2014    8       0       0.7571685       140.3886
2014    8       1       0.8607993       151.4826
2014    8       2       0.8599124       150.9515
2014    8       3       0.7579214       139.7192
2014    8       4       0.6626216       128.2958
2014    8       5       0.6598538       127.7146
2014    8       6       0.6830454       130.3769
2014    8       7       0.6955109       132.0512
2014    9       0       0.727318        136.2323
2014    9       1       0.7795893       142.7752
2014    9       2       0.7119712       134.8015
2014    9       3       0.6185412       122.907
2014    9       4       0.4053189       90.88838
2014    9       5       0.3887474       87.79136
2014    9       6       0.5235377       108.3058
2014    9       7       0.7217498       135.7508
2014    10      0       0.7267693       136.1739
2014    10      1       0.8670206       150.9767
2014    10      2       0.419434        91.52595
2014    10      3       0.5479473       111.0754
2014    10      4       0.4063469       88.92656
2014    10      5       0.5697598       113.7234
2014    10      6       0.6149733       120.4954
2014    10      7       0.6319123       122.6966
2014    11      0       0.6481197       124.559
2014    11      1       0.6203899       121.5602
2014    11      2       0.6987198       131.9964
2014    11      3       0.6946168       132.4773
2014    11      4       0.8197542       149.0835
2014    11      5       0.9325736       162.6684
2014    11      6       0.9267249       163.2092
2014    11      7       0.9043753       160.9156
2014    12      0       0.7548385       143.8338
2014    12      1       0.7403055       141.6335
2014    12      2       0.9673773       165.3904
2014    12      3       1.282955        190.7748
2014    12      4       1.078659        173.4536
2014    12      5       1.026517        166.9664
2014    12      6       0.4655099       98.87441
2014    12      7       0.5742706       114.3332
2014    13      0       0.5674347       113.2252
2014    13      1       0.4653046       98.07283
2014    13      2       0.4253607       91.81558
2014    13      3       0.5991022       117.847
2014    13      4       0.7815186       141.6619
2014    13      5       0.7821793       141.9639
2014    13      6       0.7306657       136.6345
2014    13      7       0.6253561       123.7112
2014    14      0       0.7576725       140.4764
2014    14      1       0.7693032       141.2597
2014    14      2       0.8441553       149.1185
2014    14      3       0.6152322       120.9404
2014    14      4       0.7329825       135.2435
2014    14      5       0.6298053       122.2144
2014    14      6       0.5922664       117.0
2014    14      7       0.6604235       126.5277
2014    15      0       0.6848883       130.3612
2014    15      1       0.7474216       138.9066
2014    15      2       0.7988025       145.9714
2014    15      3       0.8089344       148.654
2014    15      4       0.7922385       147.2035
2014    15      5       0.8260116       150.8751
2014    15      6       0.6771934       132.0949
2014    15      7       0.4197959       93.81681
2014    16      0       0.4794073       102.8101
2014    16      1       0.4490232       98.33088
2014    16      2       0.2864476       69.97026
2014    16      3       0.4735475       101.9735
2014    16      4       0.4540174       98.18103
2014    16      5       0.474858        100.802
2014    16      6       0.5719796       115.3465
2014    16      7       0.6161346       121.5566
2014    17      0       0.5679378       114.9891
2014    17      1       0.5693425       115.1851
2014    17      2       0.5891026       117.8924
2014    17      3       0.5837922       117.5338
2014    17      4       0.6179216       122.9822
2014    17      5       0.7402502       139.0887
2014    17      6       0.7372491       139.0888
2014    17      7       0.712512        136.5178
2014    18      0       0.3708554       85.25715
2014    18      1       0.4926958       104.1861
2014    18      2       0.6527258       127.3721
2014    18      3       0.658665        128.617
2014    18      4       0.469166        102.4486
2014    18      5       0.3047096       73.90573
2014    18      6       0.304656        73.47653
2014    18      7       0.3089505       74.67271
2014    19      0       0.2824814       69.76059
2014    19      1       0.2335466       60.19667
2014    19      2       0.2006313       53.60824
2014    19      3       0.1752004       48.28681
2014    19      4       0.2027355       54.36888
2014    19      5       0.2780433       69.51895
2014    19      6       0.2552231       64.53509
2014    19      7       0.2028229       53.69058
2014    20      0       0.1954736       51.64156
2014    20      1       0.1883947       50.07084
2014    20      2       0.2337143       60.00209
2014    20      3       0.3023291       73.25519
2014    20      4       0.4883027       104.1383
2014    20      5       0.719172        136.2245
2014    20      6       0.2233327       57.67767
2014    20      7       0.2381109       60.27337
2014    21      0       0.1847519       49.59364
2014    21      1       0.169552        45.96114
2014    21      2       0.1930069       50.88755
2014    21      3       0.169059        45.52958
2014    21      4       0.1973707       51.47444
2014    21      5       0.201974        52.56299
2014    21      6       0.2178948       55.99253
2014    21      7       0.1958974       52.04647
2014    22      0       0.1815888       49.22533
2014    22      1       0.1983343       53.05929
2014    22      2       0.3151792       75.73685
2014    22      3       0.4901132       105.4507
2014    22      4       0.4980882       106.622
2014    22      5       0.5322313       111.5693
2014    22      6       0.6678429       129.8641
2014    22      7       0.7454151       138.8071
2014    23      0       0.8435099       149.9895
2014    23      1       0.9442073       159.3948
2014    23      2       0.9136841       155.335
2014    23      3       0.5008038       104.1769
2014    23      4       0.1326872       37.62132
2014    23      5       0.09722563      29.35395
2014    23      6       0.1117092       32.48444
2014    23      7       0.1535924       41.63394
2014    24      0       0.1884726       49.15568
2014    24      1       0.1807833       47.91873
2014    24      2       0.2297891       57.70998
2014    24      3       0.2955453       69.92073
2014    24      4       0.3217897       74.47605
2014    24      5       0.7136395       135.073
2014    24      6       1.062806        174.6458
2014    24      7       0.9724187       167.5863
2014    25      0       0.732301        141.5699
2014    25      1       0.766472        145.4709
2014    25      2       0.8932765       159.4726
2014    25      3       0.8576158       155.9895
2014    25      4       0.6976618       137.1495
2014    25      5       0.5836111       121.6172
2014    25      6       0.5387187       114.7774
2014    25      7       0.5433469       115.1599
2014    26      0       0.5767128       119.792
2014    26      1       0.603285        123.4508
2014    26      2       0.6259148       126.0891
2014    26      3       0.5865319       120.5042
2014    26      4       0.5343693       112.9203
2014    26      5       0.5522452       115.3905
2014    26      6       0.7247141       137.9782
2014    26      7       0.8512127       151.8037
2014    27      0       0.948997        161.3859
2014    27      1       0.9236484       158.3136
2014    27      2       0.9610131       161.0845
2014    27      3       0.9613419       160.3768
2014    27      4       0.8895853       153.3056
2014    27      5       0.8698192       150.9856
2014    27      6       0.7661609       138.8175
2014    27      7       0.6387685       122.8706
2014    28      0       0.5051227       103.5852
2014    28      1       0.2973769       69.38139
2014    28      2       0.2043452       51.65955
2014    28      3       0.1256195       35.31271
2014    28      4       0.1113245       32.19393
2014    28      5       0.1303175       36.14679
2014    28      6       0.2055078       51.53547
2014    28      7       0.3167556       73.24569
2014    29      0       0.290587        69.0829
2014    29      1       0.3129333       73.22915
2014    29      2       0.282643        67.67959
2014    29      3       0.3004186       71.05451
2014    29      4       0.4201677       92.88735
2014    29      5       0.6027867       121.2326
2014    29      6       0.7719904       143.1645
2014    29      7       1.079977        175.3024
2014    30      0       1.289179        192.8372
2014    30      1       1.360079        198.2178
2014    30      2       1.443098        201.445
2014    30      3       1.09945         174.0078
2014    30      4       0.8506112       149.3135
2014    30      5       0.7913336       142.6795
2014    30      6       0.7982884       143.5036
2014    30      7       0.8585483       150.1553
2014    31      0       0.8551661       149.4556
2014    31      1       0.8400901       147.4838
2014    31      2       0.7378445       136.0603
2014    31      3       0.617054        120.8713
2014    31      4       0.4381545       94.74142
2014    31      5       0.3533102       80.48056
2014    31      6       0.3749123       83.89171
2014    31      7       0.5992253       117.9034
2015    1       0       0.3604331       81.96277
2015    1       1       0.3880972       87.2463
2015    1       2       0.3409383       79.85462
2015    1       3       0.3056825       73.68055
2015    1       4       0.2636081       65.66688
2015    1       5       0.2731265       67.39511
2015    1       6       0.3876016       87.72172
2015    1       7       0.4493532       97.78874
2015    2       0       0.465707        100.4463
2015    2       1       0.5230525       108.8823
2015    2       2       0.6475254       125.6055
2015    2       3       0.7146597       134.3946
2015    2       4       0.746527        138.8603
2015    2       5       0.7065479       134.5697
2015    2       6       0.6575378       128.621
2015    2       7       0.585045        119.2002
2015    3       0       0.4757625       103.6749
2015    3       1       0.4347746       97.44537
2015    3       2       0.5435585       114.5243
2015    3       3       0.7463683       140.776
2015    3       4       0.9573249       162.7253
2015    3       5       0.9924986       166.0866
2015    3       6       0.8176625       146.8843
2015    3       7       0.6612454       126.5087
2015    4       0       0.4616409       98.13894
2015    4       1       0.378045        84.16404
2015    4       2       0.4244792       91.69587
2015    4       3       0.467356        98.5087
2015    4       4       0.5409854       109.7331
2015    4       5       0.6728317       128.5737
2015    4       6       0.738916        137.2775
2015    4       7       0.8305138       148.0021
2015    5       0       0.7750126       142.9173
2015    5       1       0.7130721       136.0833
2015    5       2       0.6493381       129.1857
2015    5       3       0.7818887       145.6666
2015    5       4       1.115041        179.2373
2015    5       5       1.308963        195.2638
2015    5       6       1.399966        201.6497
2015    5       7       1.389884        201.1949
2015    6       0       1.305632        195.8472
2015    6       1       1.150304        184.7291
2015    6       2       1.132641        183.5243
2015    6       3       1.11795         182.4202
2015    6       4       1.079182        178.8504
2015    6       5       1.133896        182.8907
2015    6       6       1.172591        186.3036
2015    6       7       1.227744        190.2822
2015    7       0       1.203895        187.5389
2015    7       1       1.006683        170.2732
2015    7       2       0.804376        149.0344
2015    7       3       0.6546878       129.7651
2015    7       4       0.7117951       137.0377
2015    7       5       0.8661036       155.3587
2015    7       6       0.9004414       159.5043
2015    7       7       0.7563895       143.6577
2015    8       0       0.4977178       107.4167
2015    8       1       0.5460879       114.6869
2015    8       2       0.8119802       150.4783
2015    8       3       0.9104079       160.8168
2015    8       4       1.001244        171.0249
2015    8       5       0.6910612       137.1015
2015    8       6       0.567429        119.8041
2015    8       7       0.4642196       103.1964
2015    9       0       0.4908502       106.5795
2015    9       1       0.4619477       101.4545
2015    9       2       0.669051        130.2076
2015    9       3       0.5828984       118.4631
2015    9       4       0.4365571       96.46756
2015    9       5       0.3875147       88.34638
2015    9       6       0.3673585       85.02294
2015    9       7       0.3916487       89.33457
2015    10      0       0.3875157       88.33201
2015    10      1       0.4374579       96.89839
2015    10      2       0.4473291       98.68963
2015    10      3       0.4048607       91.27832
2015    10      4       0.4581478       100.5032
2015    10      5       0.4781926       103.5639
2015    10      6       0.5088529       107.9308
2015    10      7       0.5865792       119.8838
2015    11      0       0.575501        118.436
2015    11      1       0.5524342       115.1544
2015    11      2       0.6221109       124.7727
2015    11      3       0.8033826       147.0972
2015    11      4       1.064878        173.1921
2015    11      5       1.15462         180.7973
2015    11      6       1.077312        173.9907
2015    11      7       1.091712        174.7497
2015    12      0       1.161134        180.3471
2015    12      1       1.06223         171.8616
2015    12      2       0.9843334       164.5936
2015    12      3       0.8895044       154.8944
2015    12      4       0.8051822       145.9459
2015    12      5       0.782263        143.2201
2015    12      6       0.7843776       143.6594
2015    12      7       0.7934028       145.0092
2015    13      0       0.8293578       148.9374
2015    13      1       0.842564        150.2958
2015    13      2       0.8000753       145.7323
2015    13      3       0.7801964       143.6419
2015    13      4       0.8334868       149.615
2015    13      5       0.8332496       149.763
2015    13      6       0.8629046       152.8421
2015    13      7       0.762994        141.7205
2015    14      0       0.5306132       111.1459
2015    14      1       0.3384008       79.77818
2015    14      2       0.264306        65.5704
2015    14      3       0.2358538       59.64936
2015    14      4       0.2724146       66.41505
2015    14      5       0.3697263       83.7985
2015    14      6       0.5174144       107.3761
2015    14      7       0.4146112       92.99869
2015    15      0       0.3324265       78.62242
2015    15      1       0.2814078       68.62341
2015    15      2       0.3805201       86.27152
2015    15      3       0.4563966       99.25599
2015    15      4       0.4773513       102.9138
2015    15      5       0.3986668       90.3985
2015    15      6       0.3493461       82.33399
2015    15      7       0.3305755       79.41719
2015    16      0       0.2059139       54.86508
2015    16      1       0.1414635       40.45971
2015    16      2       0.1407944       39.8946
2015    16      3       0.1566522       43.15693
2015    16      4       0.328284        76.3462
2015    16      5       0.5353851       110.5181
2015    16      6       0.9201383       160.6355
2015    16      7       0.7558673       143.9954
2015    17      0       0.7877637       146.2653
2015    17      1       0.8774991       155.9975
2015    17      2       0.7435996       139.5541
2015    17      3       0.480051        102.5791
2015    17      4       0.3568497       82.23032
2015    17      5       0.1614754       43.95175
2015    17      6       0.2059918       53.02243
2015    17      7       0.2271031       57.33903
2015    18      0       0.2514785       61.61934
2015    18      1       0.317704        73.96394
2015    18      2       0.4601612       99.55929
2015    18      3       0.910509        160.2359
2015    18      4       0.8385387       151.7408
2015    18      5       0.8047483       148.3479
2015    18      6       0.9102271       160.2464
2015    18      7       0.7996191       148.4547
2015    19      0       0.5744989       119.3726
2015    19      1       0.472393        103.4906
2015    19      2       0.6243735       126.4075
2015    19      3       0.6219917       126.2845
2015    19      4       0.6896212       133.8954
2015    19      5       0.5934049       120.9477
2015    19      6       0.4827827       104.1525
2015    19      7       0.5264129       110.5557
2015    20      0       0.5021492       106.0792
2015    20      1       0.5246106       108.6531
2015    20      2       0.4148687       91.56804
2015    20      3       0.2858054       68.96066
2015    20      4       0.2778789       67.2494
2015    20      5       0.2904887       69.30942
2015    20      6       0.3650398       82.31363
2015    20      7       0.4313278       93.39027
2015    21      0       0.3878027       86.1696
2015    21      1       0.334509        76.96417
2015    21      2       0.3285812       75.67405
2015    21      3       0.322225        74.37161
2015    21      4       0.309276        72.20089
2015    21      5       0.3554085       80.20518
2015    21      6       0.4169241       89.92596
2015    21      7       0.3919263       85.84066
2015    22      0       0.3002307       70.01915
2015    22      1       0.2275254       56.40643
2015    22      2       0.1891524       49.01297
2015    22      3       0.1254999       35.81946
2015    22      4       0.1113054       32.49922
2015    22      5       0.1360826       37.26594
2015    22      6       0.207382        51.83175
2015    22      7       0.2732381       65.08491
2015    23      0       0.4541276       97.34304
2015    23      1       0.7540936       140.9348
2015    23      2       0.8425286       151.6334
2015    23      3       0.8360885       150.688
2015    23      4       0.8407151       150.5436
2015    23      5       1.035744        169.5483
2015    23      6       1.115911        176.7718
2015    23      7       1.105873        175.9417
2015    24      0       0.9317874       160.1868
2015    24      1       0.6086425       122.7279
2015    24      2       0.2634683       65.44279
2015    24      3       0.1921722       50.70589
2015    24      4       0.2784772       67.97007
2015    24      5       0.5376099       111.6301
2015    24      6       1.052807        174.4268
2015    24      7       1.068791        175.0217
2015    25      0       0.9875071       167.3147
2015    25      1       0.8049593       147.5063
2015    25      2       0.7802554       143.3321
2015    25      3       0.6822747       132.0689
2015    25      4       0.8350011       151.146
2015    25      5       0.9454312       163.3381
2015    25      6       0.9741936       166.5231
2015    25      7       0.8965723       158.9288
2015    26      0       0.8293931       152.3295
2015    26      1       0.7981616       149.2158
2015    26      2       0.7027303       138.3356
2015    26      3       0.7794863       148.1681
2015    26      4       0.6778593       135.7065
2015    26      5       0.6894581       137.0491
2015    26      6       0.6779384       135.4079
2015    26      7       0.6862848       136.5966
2015    27      0       0.6971333       138.4829
2015    27      1       0.6772121       136.1336
2015    27      2       0.6621546       133.9096
2015    27      3       0.5704503       120.5514
2015    27      4       0.5041311       110.5757
2015    27      5       0.4549808       102.5766
2015    27      6       0.47978         106.2321
2015    27      7       0.5417117       115.473
2015    28      0       0.530926        114.0284
2015    28      1       0.9241772       164.1764
2015    28      2       0.5408546       115.0248
2015    28      3       0.7773053       146.5434
2015    28      4       0.7565488       143.1633
2015    28      5       0.6796191       132.1811
2015    28      6       0.8829755       156.0104
2015    28      7       1.012515        169.4112
2015    29      0       1.008672        169.2323
2015    29      1       1.069971        174.0205
2015    29      2       1.164243        181.6671
2015    29      3       1.022624        169.6782
2015    29      4       0.7895983       145.8211
2015    29      5       0.5458911       114.111
2015    29      6       0.4212558       94.54363
2015    29      7       0.2642827       65.99155
2015    30      0       0.270665        67.33148
2015    30      1       0.3332148       79.26875
2015    30      2       0.5142021       109.6757
2015    30      3       0.768976        143.6741
2015    30      4       1.143246        179.9922
2015    30      5       1.259533        188.7927
2015    30      6       1.195164        184.2472
2015    30      7       1.247818        188.2134
2015    31      0       1.27355         189.8321
2015    31      1       1.103932        176.2741
2015    31      2       1.280354        189.6493
2015    31      3       1.339401        194.6452
2015    31      4       1.415628        200.0036
2015    31      5       1.48894         203.9319
2015    31      6       1.417792        198.9792
2015    31      7       0.8072925       147.7578
2016    1       0       0.2973994       69.46028
2016    1       1       0.2510202       61.15374
2016    1       2       0.1889641       49.19294
2016    1       3       0.1360826       38.24164
2016    1       4       0.1087541       32.10363
2016    1       5       0.1118566       32.7243
2016    1       6       0.1854715       48.73058
2016    1       7       0.28089         67.66808
2016    5       0       0.5762392       117.3502
2016    5       1       0.639944        125.9558
2016    5       2       0.7059585       134.3359
2016    5       3       0.7506157       139.7832
2016    5       4       0.9046802       156.9969
2016    5       5       0.9929266       165.8011
2016    5       6       0.8931054       156.1331
2016    5       7       0.7862672       144.7749
2016    6       0       0.7054191       134.8992
2016    6       1       0.6896019       132.4951
2016    6       2       0.6955436       133.2341
2016    6       3       0.6827165       131.7114
2016    6       4       0.7115214       134.9642
2016    6       5       0.6525629       127.7597
2016    6       6       0.6125246       122.6695
2016    6       7       0.7191708       136.3425
2016    7       0       0.7307069       137.4204
2016    7       1       0.7650389       141.205
2016    7       2       0.8251995       147.9953
2016    7       3       0.8753535       153.4412
2016    7       4       0.9588879       161.9882
2016    7       5       1.022225        167.7306
2016    7       6       0.9296557       158.8817
2016    7       7       1.007666        166.4078
2016    8       0       0.9926649       164.5711
2016    8       1       0.8911291       154.4652
2016    8       2       0.9244433       157.5395
2016    8       3       0.9160607       156.5198
2016    8       4       0.8232908       146.4979
2016    8       5       0.8090832       144.6954
2016    8       6       0.7553976       138.3186
2016    8       7       0.7053134       132.2874
2016    9       0       0.6252521       122.2707
2016    9       1       0.5875077       117.11
2016    9       2       0.6066359       119.5092
2016    9       3       0.5953513       117.9106
2016    9       4       0.5564571       112.3905
2016    9       5       0.4552926       97.19156
2016    9       6       0.418679        91.3874
2016    9       7       0.4784527       100.8181
2016    10      0       0.4173917       91.44537
2016    10      1       0.3430566       79.06378
2016    10      2       0.3226979       75.21632
2016    10      3       0.3239774       75.34125
2016    10      4       0.3090774       72.67521
2016    10      5       0.2599559       63.72318
2016    10      6       0.2089552       53.77058
2016    10      7       0.1946166       50.74919
2016    11      0       0.2499355       61.2718
2016    11      1       0.2921375       68.94103
2016    11      2       0.3246477       74.77837
2016    11      3       0.3001639       70.48376
2016    11      4       0.4220954       91.72155
2016    11      5       0.5779881       115.5275
2016    11      6       0.4915689       103.5123
2016    11      7       0.3703414       84.48537
2016    12      0       0.2694533       65.96757
2016    12      1       0.2053539       53.05795
2016    12      2       0.168334        45.54186
2016    12      3       0.1764872       47.30626
2016    12      4       0.1697333       46.07757
2016    12      5       0.3536648       82.64124
2016    12      6       0.4625832       100.8699
2016    12      7       0.6112452       122.714
2016    13      0       0.6776129       130.7822
2016    13      1       0.6022448       120.5591
2016    13      2       0.53054         111.0003
2016    13      3       0.6248238       125.0155
2016    13      4       0.7224673       137.9141
2016    13      5       0.6792475       132.4299
2016    13      6       0.5179187       109.2177
2016    13      7       0.2014399       53.03107
2016    14      0       0.1788455       48.13665
2016    14      1       0.1619837       44.62052
2016    14      2       0.307001        74.02323
2016    14      3       0.3629045       83.97588
2016    14      4       0.3811753       86.44458
2016    14      5       0.4829851       102.1987
2016    14      6       0.6712226       128.3873
2016    14      7       0.6068613       120.1275
2016    15      0       0.6320526       123.3105
2016    15      1       0.4663201       99.35497
2016    15      2       0.3365405       77.71338
2016    15      3       0.2757746       65.91211
2016    15      4       0.4698564       98.72878
2016    15      5       0.5293329       107.7815
2016    15      6       0.5985757       117.0868
2016    15      7       0.6133896       119.4797
2016    16      0       0.6295447       121.6461
2016    16      1       0.5285104       107.6177
2016    16      2       0.4653368       97.9095
2016    16      3       0.4074082       88.58097
2016    16      4       0.3647367       81.34791
2016    16      5       0.3026669       70.47893
2016    16      6       0.4219367       90.97585
2016    16      7       0.5994754       117.9816
2016    17      0       0.8034367       144.0702
2016    17      1       0.8344489       147.9138
2016    17      2       0.8374048       148.5074
2016    17      3       0.852639        150.2299
2016    17      4       0.8330957       147.7472
2016    17      5       0.6870224       130.5135
2016    17      6       0.6254802       122.8331
2016    17      7       0.5632219       114.7163
2016    18      0       0.431503        94.90033
2016    18      1       0.3036411       72.4835
2016    18      2       0.5251439       109.898
2016    18      3       0.8563811       153.2298
2016    18      4       0.975169        165.8851
2016    18      5       0.9380118       161.5765
2016    18      6       0.8667396       154.0795
2016    18      7       0.902464        156.9472
2016    19      0       0.9274145       159.1665
2016    19      1       0.9414449       159.9817
2016    19      2       1.049213        169.8161
2016    19      3       0.9279771       158.4313
2016    19      4       0.5411397       111.8746
2016    19      5       0.2564526       63.59142
2016    19      6       0.1705113       46.12942
2016    19      7       0.2385956       59.65476
2016    20      0       0.2515058       62.01149
2016    20      1       0.2615312       63.36731
2016    20      2       0.5815416       116.3613
2016    20      3       0.9607517       161.7918
2016    20      4       0.6763556       129.6618
2016    20      5       0.5684996       115.8942
2016    20      6       0.6316529       124.6308
2016    20      7       0.5917168       117.8282
2016    21      0       0.6061972       120.3363
2016    21      1       0.6408639       124.4178
2016    21      2       0.6755209       128.3435
2016    21      3       0.5738712       115.0269
2016    21      4       0.4418914       95.62545
2016    21      5       0.3345237       77.46111
2016    21      6       0.271615        65.74668
2016    21      7       0.3474771       80.17997
2016    22      0       0.5061434       107.4738
2016    22      1       0.6864071       133.3719
2016    22      2       0.8062928       148.4653
2016    22      3       0.8259843       150.9764
2016    22      4       0.8096113       149.0772
2016    22      5       0.771598        144.6725
2016    22      6       0.7266955       138.9068
2016    22      7       0.7223672       138.0354
2016    23      0       0.7329204       139.7033
2016    23      1       0.616584        124.2368
2016    23      2       0.5599492       115.6164
2016    23      3       0.7512174       141.7649
2016    23      4       0.6338198       127.1692
2016    23      5       0.5985672       121.8115
2016    23      6       0.7035413       135.0743
2016    23      7       0.7858053       145.1426
2016    24      0       0.8335209       150.6345
2016    24      1       0.8082786       147.4704
2016    24      2       0.8081387       147.464
2016    24      3       0.8055335       147.2443
2016    24      4       0.6776116       131.371
2016    24      5       0.6519411       127.4127
2016    24      6       0.7978571       144.6684
2016    24      7       0.8560238       151.352
2016    25      0       0.9586621       160.9817
2016    25      1       0.7572804       138.3514
2016    25      2       0.7170743       133.3612
2016    25      3       0.7359219       135.5563
2016    25      4       0.5608163       112.3977
2016    25      5       0.4613677       97.63854
2016    25      6       0.5243738       107.5447
2016    25      7       0.6272344       121.6256
2016    26      0       0.4895792       102.3739
2016    26      1       0.3540124       80.24184
2016    26      2       0.2823701       67.43933
2016    26      3       0.279782        67.06982
2016    26      4       0.3118983       72.90089
2016    26      5       0.3200003       74.47407
2016    26      6       0.4156932       90.66773
2016    26      7       0.6375154       124.3128
2016    27      0       0.7873692       144.6749
2016    27      1       0.8059235       148.2877
2016    27      2       0.7901146       147.1925
2016    27      3       0.797892        148.2278
2016    27      4       0.8654266       155.2002
2016    27      5       0.8332157       150.9985
2016    27      6       0.9472268       163.6619
2016    27      7       0.7768302       145.2918
2016    28      0       0.4277525       95.98614
2016    28      1       0.2989738       72.93553
2016    28      2       0.3212845       76.84311
2016    28      3       0.4180911       94.54199
2016    28      4       0.4774182       104.6056
2016    28      5       0.5079834       109.687
2016    28      6       0.5535004       116.6887
2016    28      7       0.53879         115.0937
2016    29      0       0.4818789       106.5962
2016    29      1       0.5010697       109.3346
2016    29      2       0.6075053       124.7708
2016    29      3       0.6505291       129.6989
2016    29      4       1.059223        172.9915
2016    29      5       0.483706        104.5293
2016    29      6       0.2554403       63.60633
2016    29      7       0.3810405       86.44218
2016    30      0       1.114275        178.6804
2016    30      1       0.9908015       169.3268
2016    30      2       0.8381875       153.4603
2016    30      3       0.9364939       163.4972
2016    30      4       0.9746245       166.9397
2016    30      5       0.9534495       165.2103
2016    30      6       1.008346        169.8027
2016    30      7       1.124526        178.3639
2016    31      0       1.124166        176.8559
2016    31      1       0.8932863       153.55
2016    31      2       0.5257413       108.1282
2016    31      3       0.3930701       86.91573
2016    31      4       0.3268497       75.41934
2016    31      5       0.3298769       75.12664
2016    31      6       0.389147        85.56002
2016    31      7       0.530795        107.9999
2017    1       0       0.4235277       94.8596
2017    1       1       0.4043854       91.64875
2017    1       2       0.4238182       94.73285
2017    1       3       0.450861        98.84081
2017    1       4       0.4221112       93.99828
2017    1       5       0.4005617       90.30515
2017    1       6       0.4369909       95.97867
2017    1       7       0.5261917       109.827
2017    2       0       0.6007035       121.0566
2017    2       1       0.7937669       145.672
2017    2       2       0.7336892       138.8354
2017    2       3       0.6898052       132.7414
2017    2       4       0.5612509       115.2546
2017    2       5       0.7125102       134.904
2017    2       6       0.8092759       145.7395
2017    2       7       0.8541603       150.5915
2017    3       0       0.9292793       157.9109
2017    3       1       0.8457474       149.296
2017    3       2       0.8821428       152.8248
2017    3       3       0.735782        136.0208
2017    3       4       0.8030727       143.5984
2017    3       5       0.6640055       125.7973
2017    3       6       0.5769579       113.7893
2017    3       7       0.5844555       114.8283
2017    4       0       0.6267934       121.1785
2017    4       1       0.7238248       134.1575
2017    4       2       0.813445        145.1402
2017    4       3       0.83653         147.8141
2017    4       4       0.992305        163.9573
2017    4       5       1.016435        166.8332
2017    4       6       1.115704        175.6952
2017    4       7       1.156574        178.795
2017    5       0       1.100561        174.186
2017    5       1       0.8601385       150.3755
2017    5       2       0.8943176       153.0246
2017    5       3       0.83345         146.4591
2017    5       4       0.6939434       128.7362
2017    5       5       0.441681        93.11378
2017    5       6       0.2614662       62.00983
2017    5       7       0.1868924       47.48115
2017    6       0       0.1513088       40.19873
2017    6       1       0.1149616       32.7448
2017    6       2       0.106568        31.14504
2017    6       3       0.1182323       33.65458
2017    6       4       0.1342186       36.93759
2017    6       5       0.1493392       40.13635
2017    6       6       0.1990437       50.54744
2017    6       7       0.240405        58.70733
2017    7       0       0.27113         64.86929
2017    7       1       0.2638497       63.77355
2017    7       2       0.2597271       62.9583
2017    7       3       0.2374904       58.72527
2017    7       4       0.2324754       57.49956
2017    7       5       0.230521        57.27491
2017    7       6       0.260325        63.0042
2017    7       7       0.3323319       76.31913
2017    8       0       0.6694825       129.2486
2017    8       1       0.975207        164.7006
2017    8       2       0.9087717       158.9112
2017    8       3       0.8002606       146.5845
2017    8       4       0.8919784       155.802
2017    8       5       0.8667879       153.7695
2017    8       6       0.8509499       152.8012
2017    8       7       1.1616          182.7396
2017    9       0       1.378796        199.6381
2017    9       1       1.484718        206.8998
2017    9       2       1.473724        206.4549
2017    9       3       1.321193        196.9538
2017    9       4       1.18953         186.7552
2017    9       5       1.332801        197.2809
2017    9       6       1.560841        210.9285
2017    9       7       1.384593        199.5793
2017    10      0       1.171846        183.5341
2017    10      1       1.132719        179.4255
2017    10      2       0.9966453       165.1429
2017    10      3       0.5843376       116.3807
2017    10      4       0.4584232       98.36233
2017    10      5       0.5442175       111.531
2017    10      6       0.8900739       154.3466
2017    10      7       1.041412        169.8208
2017    11      0       1.035653        169.5426
2017    11      1       0.9179128       158.8781
2017    11      2       0.8952052       157.5531
2017    11      3       0.9708433       164.8037
2017    11      4       1.137293        179.202
2017    11      5       1.257098        188.8323
2017    11      6       1.047411        173.0952
2017    11      7       1.226858        184.8157
2017    12      0       0.7117745       134.979
2017    12      1       0.6950798       132.4854
2017    12      2       0.6358669       124.8367
2017    12      3       0.6398168       124.7256
2017    12      4       0.7308237       136.4822
2017    12      5       0.6762719       129.615
2017    12      6       0.6555162       127.0304
2017    12      7       1.118281        175.0129
2017    13      0       1.061158        171.1582
2017    13      1       1.108572        175.8851
2017    13      2       0.9602363       162.7037
2017    13      3       0.8694567       153.4046
2017    13      4       0.8074681       146.5662
2017    13      5       0.8593883       152.4706
2017    13      6       0.9649226       162.8918
2017    13      7       1.114391        176.6917
2017    14      0       1.118665        177.2366
2017    14      1       1.084706        174.5809
2017    14      2       0.9931818       166.2313
2017    14      3       0.876729        154.6927
2017    14      4       0.8160929       147.7701
2017    14      5       0.6941301       133.3538
2017    14      6       0.6838232       131.8753
2017    14      7       0.762396        141.9363
2017    15      0       0.7705104       143.4353
2017    15      1       0.7539241       141.9326
2017    15      2       0.7989158       147.7578
2017    15      3       0.8024787       148.8687
2017    15      4       0.8356065       152.4457
2017    15      5       0.8385019       152.8004
2017    15      6       0.9543342       164.8801
2017    15      7       1.123252        180.2721
2017    16      0       1.331532        195.4434
2017    16      1       1.305046        193.3578
2017    16      2       1.158007        181.7007
2017    16      3       0.8615628       153.3074
2017    16      4       0.692358        132.1044
2017    16      5       0.5759787       116.2517
2017    16      6       0.5548893       112.9963
2017    16      7       0.5161834       107.7666
2017    17      0       0.3865078       87.24758
2017    17      1       0.2868345       69.83326
2017    17      2       0.18698         50.35014
2017    17      3       0.159934        44.55705
2017    17      4       0.1482317       41.99746
2017    17      5       0.137307        39.26895
2017    17      6       0.1815118       48.5529
2017    17      7       0.2640965       65.53478
2017    18      0       0.3279037       78.11291
2017    18      1       0.3620344       84.37332
2017    18      2       0.4268466       95.48251
2017    18      3       0.5026642       107.6756
2017    18      4       0.5305277       112.0316
2017    18      5       0.5432705       114.4321
2017    18      6       0.4682541       103.5742
2017    18      7       0.4477638       100.4763
2017    19      0       0.4985875       108.2879
2017    19      1       0.5073563       109.8603
2017    19      2       0.4800605       105.5976
2017    19      3       0.4261481       96.73249
2017    19      4       0.3895871       90.64624
2017    19      5       0.4086801       94.05221
2017    19      6       0.4178539       95.53991
2017    19      7       0.5006455       109.2742
2017    20      0       0.7315246       141.488
2017    20      1       0.7548794       143.2167
2017    20      2       0.9201565       160.0087
2017    20      3       1.006054        167.1366
2017    20      4       0.9982345       165.577
2017    20      5       1.001967        165.4415
2017    20      6       0.9033188       156.1049
2017    20      7       0.7540653       139.7505
2017    21      0       0.6329438       125.3244
2017    21      1       0.6309818       125.2454
2017    21      2       0.5598711       114.2121
2017    21      3       0.6944761       132.2741
2017    21      4       0.6432755       126.4862
2017    21      5       0.799681        145.0509
2017    21      6       0.9497634       160.741
2017    21      7       1.064295        171.3583
2017    22      0       0.9888292       164.3556
2017    22      1       0.9150371       156.8377
2017    22      2       0.7365248       137.0751
2017    22      3       0.613929        121.1612
2017    22      4       0.3760176       84.81811
2017    22      5       0.2408253       60.20256
2017    22      6       0.2366521       59.10499
2017    22      7       0.3583952       81.339
2017    23      0       0.561656        114.0754
2017    23      1       0.943169        161.0376
2017    23      2       0.9523767       163.4797
2017    23      3       0.9268039       160.6338
2017    23      4       0.947931        162.219
2017    23      5       0.9427825       161.7552
2017    23      6       0.8275117       149.3758
2017    23      7       0.9246071       159.1568
2017    24      0       0.9824198       163.5927
2017    24      1       1.089019        172.4214
2017    24      2       0.8929255       153.7504
2017    24      3       0.6637717       127.216
2017    24      4       0.3662389       83.17342
2017    24      5       0.2517298       61.69964
2017    24      6       0.3424281       78.296
2017    24      7       0.507942        105.1674
2017    25      0       0.5474325       110.5691
2017    25      1       0.5062378       103.6607
2017    25      2       0.4634684       97.11981
2017    25      3       0.4670679       97.78336
2017    25      4       0.4472377       94.51939
2017    25      5       0.4142269       89.10314
2017    25      6       0.4170785       89.3865
2017    25      7       0.4870616       100.3966
2017    26      0       0.4570744       95.94374
2017    26      1       0.3831024       83.99556
2017    26      2       0.36013         79.95204
2017    26      3       0.3395679       76.35864
2017    26      4       0.3092361       71.05156
2017    26      5       0.2836596       66.39408
2017    26      6       0.321636        72.96392
2017    26      7       0.3647571       80.3437
2017    27      0       0.294597        68.27389
2017    27      1       0.2957739       68.3732
2017    27      2       0.2828471       66.48507
2017    27      3       0.3137846       71.85201
2017    27      4       0.4706669       98.34821
2017    27      5       0.4910605       101.8761
2017    27      6       0.4518648       97.07874
2017    27      7       0.441131        95.42715
2017    28      0       0.3700324       83.16292
2017    28      1       0.4544637       97.4494
2017    28      2       0.4345859       94.29583
2017    28      3       0.4105505       90.50947
2017    28      4       0.4416295       96.00208
2017    28      5       0.6414635       125.5854
2017    28      6       0.780242        142.8812
2017    28      7       0.8737957       153.1909
2017    29      0       0.8340821       149.2121
2017    29      1       0.6539653       128.5202
2017    29      2       0.632408        125.7889
2017    29      3       0.7223242       137.3228
2017    29      4       0.6776309       131.7395
2017    29      5       0.6845414       132.7031
2017    29      6       0.6814552       131.9895
2017    29      7       0.7088608       135.3065
2017    30      0       0.733031        138.3485
2017    30      1       0.7086182       135.565
2017    30      2       0.6677282       130.3963
2017    30      3       0.6219203       124.2061
2017    30      4       0.4505071       99.04051
2017    30      5       0.4614136       100.679
2017    30      6       0.6188387       124.8427
2017    30      7       0.7241477       138.6905
2017    31      0       0.8501477       153.3873
2017    31      1       0.755832        142.2797
2017    31      2       0.7821222       145.4219
2017    31      3       0.783396        145.4406
2017    31      4       0.6598839       129.7617
2017    31      5       0.4639798       101.0739
2017    31      6       0.5325586       111.2182
2017    31      7       0.7403981       139.0133
2018    1       0       0.2005062       51.95546
2018    1       1       0.2272572       56.98067
2018    1       2       0.2539058       61.95817
2018    1       3       0.2841804       67.99786
2018    1       4       0.3493865       80.01649
2018    1       5       0.4082028       89.79437
2018    1       6       0.3948709       87.56497
2018    1       7       0.4726613       100.9679
2018    2       0       0.4770387       101.6131
2018    2       1       0.3518378       81.69864
2018    2       2       0.2556579       63.39987
2018    2       3       0.2175789       55.35408
2018    2       4       0.1066264       31.9159
2018    2       5       0.07878206      25.34251
2018    2       6       0.133451        37.28514
2018    2       7       0.1437574       39.71559
2018    3       0       0.1411465       39.43157
2018    3       1       0.2407633       60.9496
2018    3       2       0.397812        90.80304
2018    3       3       0.4636631       101.9199
2018    3       4       0.4214112       94.97076
2018    3       5       0.3700181       85.36802
2018    3       6       0.3600028       82.53959
2018    3       7       0.4311412       94.16578
2018    4       0       0.5352488       110.3423
2018    4       1       0.6433997       125.5781
2018    4       2       0.7484694       139.584
2018    4       3       0.7360601       139.6968
2018    4       4       0.6656514       131.42
2018    4       5       0.5560535       116.4552
2018    4       6       0.4536929       101.0785
2018    4       7       0.3809353       88.87425
2018    5       0       0.3364806       80.77634
2018    5       1       0.2887707       71.61345
2018    5       2       0.3466583       81.66649
2018    5       3       0.5812931       119.4344
2018    5       4       0.8229862       150.1218
2018    5       5       0.9457137       163.5518
2018    5       6       1.000214        168.4911
2018    5       7       0.9763494       166.0243
2018    6       0       0.896058        158.3231
2018    6       1       0.8255724       150.9897
2018    6       2       0.6342883       127.7091
2018    6       3       0.6659735       131.4905
2018    6       4       0.6724516       131.7929
2018    6       5       0.6871386       133.1218
2018    6       6       0.8985456       157.5216
2018    6       7       1.107348        177.6816
2018    7       0       1.201116        185.3055
2018    7       1       1.21783         186.1269
2018    7       2       1.084048        175.2547
2018    7       3       1.009687        168.6038
2018    7       4       0.7543759       141.369
2018    7       5       0.4672425       101.2835
2018    7       6       0.621796        124.0388
2018    7       7       0.7956711       147.6183
2018    8       0       0.8184616       150.9018
2018    8       1       0.8850436       158.6242
2018    8       2       0.9857094       169.1431
2018    8       3       0.9452792       165.7816
2018    8       4       0.6826939       136.4173
2018    8       5       0.5966247       123.6181
2018    8       6       0.4893073       105.977
2018    8       7       0.6244168       125.3965
2018    9       0       0.5913499       120.451
2018    9       1       1.032167        170.8364
2018    9       2       1.551522        211.1005
2018    9       3       1.375783        201.8995
2018    9       4       1.453151        206.5049
2018    9       5       1.259722        193.9799
2018    9       6       1.173764        187.0359
2018    9       7       1.04177         175.3629
2018    10      0       1.15005         185.3507
2018    10      1       1.043342        175.5199
2018    10      2       1.216128        189.9979
2018    10      3       1.258655        192.8311
2018    10      4       1.548662        211.6012
2018    10      5       1.296622        194.295
2018    10      6       1.54648         209.0031
2018    10      7       1.324102        193.4438
2018    11      0       0.9062388       156.8324
2018    11      1       0.6397492       125.658
2018    11      2       0.5691722       115.3278
2018    11      3       0.4538537       97.62637
2018    11      4       0.33407         77.26804
2018    11      5       0.3191512       74.31298
2018    11      6       0.3457156       79.025
2018    11      7       0.4953474       103.5352
2018    12      0       0.5220076       108.4184
2018    12      1       0.8194165       147.3948
2018    12      2       0.8264777       149.3409
2018    12      3       0.851019        151.593
2018    12      4       0.8036854       145.521
2018    12      5       0.8343109       148.6692
2018    12      6       0.8046512       145.2488
2018    12      7       0.9076883       155.7787
2018    13      0       0.6121969       121.7788
2018    13      1       0.592525        118.8589
2018    13      2       0.6142777       121.523
2018    13      3       0.5496148       112.4701
2018    13      4       0.581729        117.0776
2018    13      5       0.6933807       132.1953
2018    13      6       0.763899        141.0188
2018    13      7       0.8820594       154.6999
2018    14      0       0.7187634       137.3259
2018    14      1       0.6237018       124.3894
2018    14      2       0.5653559       115.4984
2018    14      3       0.5345131       111.0252
2018    14      4       0.4684617       101.4482
2018    14      5       0.4567622       99.64369
2018    14      6       0.5478175       113.7177
2018    14      7       0.5969961       121.1071
2018    15      0       0.7189758       137.2004
2018    15      1       0.7498284       141.0788
2018    15      2       0.7675518       143.0202
2018    15      3       0.8408728       150.6788
2018    15      4       0.8369058       149.7263
2018    15      5       0.3569862       82.28886
2018    15      6       0.1357004       38.38322
2018    15      7       0.08421454      26.46907
2018    16      0       0.07404393      23.90747
2018    16      1       0.091796        27.83452
2018    16      2       0.1220484       34.63894
2018    16      3       0.1594134       42.85063
2018    16      4       0.1932858       50.02254
2018    16      5       0.215174        54.73015
2018    16      6       0.2297258       57.86559
2018    16      7       0.2599373       63.91652
2018    17      0       0.2946506       70.77369
2018    17      1       0.2947399       70.83844
2018    17      2       0.2737006       66.808
2018    17      3       0.3010012       72.25002
2018    17      4       0.298079        71.61621
2018    17      5       0.2637857       64.97635
2018    17      6       0.2502213       62.12505
2018    17      7       0.3115755       73.77827
2018    18      0       0.5118225       108.7535
2018    18      1       0.521479        111.5109
2018    18      2       0.3250261       78.09671
2018    18      3       0.2382          60.10824
2018    18      4       0.4857092       104.5855
2018    18      5       0.7045888       136.6776
2018    18      6       0.6266769       126.5448
2018    18      7       0.5944793       121.91
2018    19      0       0.7864595       148.5738
2018    19      1       0.8484712       155.5538
2018    19      2       1.035576        173.8373
2018    19      3       0.9077723       161.4838
2018    19      4       0.8666719       158.7412
2018    19      5       0.6487781       131.5782
2018    19      6       0.6918605       135.8052
2018    19      7       0.8131765       150.4396
2018    20      0       0.8088592       149.6798
2018    20      1       0.7770035       145.4417
2018    20      2       0.9918383       168.329
2018    20      3       1.073281        175.9791
2018    20      4       1.104258        178.4287
2018    20      5       1.115977        179.0599
2018    20      6       1.094659        177.1584
2018    20      7       1.106398        178.2027
2018    21      0       0.9579719       164.2778
2018    21      1       1.060233        173.9982
2018    21      2       1.326205        193.316
2018    21      3       1.201898        182.6956
2018    21      4       0.9516971       159.6015
2018    21      5       0.8275479       145.3423
2018    21      6       0.7224777       132.5581
2018    21      7       0.6316928       121.1457
2018    22      0       0.6047905       117.6058
2018    22      1       0.5631421       112.0179
2018    22      2       0.4659416       97.92779
2018    22      3       0.2408574       59.61611
2018    22      4       0.1411402       39.27471
2018    22      5       0.1908561       49.3491
2018    22      6       0.185523        48.23359
2018    22      7       0.194511        49.96842
2018    23      0       0.2350197       57.59846
2018    23      1       0.5534162       112.1521
2018    23      2       0.5684308       114.327
2018    23      3       0.4057339       89.52644
2018    23      4       0.3003589       70.86298
2018    23      5       0.2947358       69.79873
2018    23      6       0.287689        68.42866
2018    23      7       0.3451455       79.02406
2018    24      0       0.3444549       79.41976
2018    24      1       0.3570267       81.66581
2018    24      2       0.3474794       80.4785
2018    24      3       0.3976894       89.58718
2018    24      4       0.5658453       116.2066
2018    24      5       0.543645        113.6214
2018    24      6       0.4876324       104.6618
2018    24      7       0.3835024       87.46749
2018    25      0       0.3256347       77.27575
2018    25      1       0.2787339       68.75646
2018    25      2       0.2035849       53.21112
2018    25      3       0.1759281       47.23371
2018    25      4       0.1904354       50.25755
2018    25      5       0.237785        59.83077
2018    25      6       0.302001        71.97853
2018    25      7       0.2863358       69.07416
2018    26      0       0.3450745       79.99995
2018    26      1       0.4293773       94.35147
2018    26      2       0.6021315       120.1676
2018    26      3       0.6643378       128.1576
2018    26      4       0.6989379       131.213
2018    26      5       0.3380929       77.14607
2018    26      6       0.2429517       59.8084
2018    26      7       0.3464389       78.5878
2018    27      0       0.3106404       72.14844
2018    27      1       0.2830575       67.06716
2018    27      2       0.35865         80.76078
2018    27      3       0.3291202       75.81408
2018    27      4       0.317891        73.6369
2018    27      5       0.4146871       90.18372
2018    27      6       0.5330575       108.4388
2018    27      7       0.6215586       121.3957
2018    28      0       0.6549138       126.316
2018    28      1       0.6654744       128.376
2018    28      2       0.6517114       126.5207
2018    28      3       0.6775092       130.0737
2018    28      4       0.729992        137.0847
2018    28      5       0.7651695       141.0013
2018    28      6       0.7978374       144.6895
2018    28      7       0.8959558       155.614
2018    29      0       0.8220138       148.147
2018    29      1       0.8192421       148.2038
2018    29      2       0.8990483       157.0246
2018    29      3       0.7625619       142.4916
2018    29      4       0.7822873       144.969
2018    29      5       0.7849606       145.613
2018    29      6       0.7203104       137.5356
2018    29      7       0.7924635       145.9723
2018    30      0       0.7439994       140.2676
2018    30      1       0.7003268       134.3731
2018    30      2       0.6888354       132.6744
2018    30      3       0.6239406       124.8798
2018    30      4       0.6350066       127.9758
2018    30      5       0.7587253       144.2332
2018    30      6       0.7360998       140.0948
2018    30      7       0.6794398       133.2552
2018    31      0       0.708787        136.6669
2018    31      1       0.5935916       121.9636
2018    31      2       0.7290612       139.4234
2018    31      3       0.8400071       151.5569
2018    31      4       0.9720728       165.1417
2018    31      5       0.8855978       155.3475
2018    31      6       0.7389222       138.1478
2018    31      7       0.8103391       145.9702
2019    1       0       0.4581908       95.83737
2019    1       1       0.4043411       87.63282
2019    1       2       0.3905497       85.57202
2019    1       3       0.3954241       86.65912
2019    1       4       0.4311095       92.69533
2019    1       5       0.3799275       84.75837
2019    1       6       0.305723        72.07433
2019    1       7       0.2396312       59.76197
