####################################################################################################
# Month: 06Jun                                                                                     #
# Station: SKS                                                                                     #
# Frequency: 230 GHz                                                                               #
# Columns are: year    day     segment         tau     Tb (K)                                      #
####################################################################################################
2009    1       0       0.2400073       62.2244
2009    1       1       0.2977782       74.09383
2009    1       2       0.2970567       74.34288
2009    1       3       0.4036568       94.30585
2009    1       4       0.5635778       121.5748
2009    1       5       0.6982506       140.788
2009    1       6       0.7853473       152.4177
2009    1       7       0.8667898       163.0215
2009    2       0       0.8305466       158.3186
2009    2       1       0.7803432       151.5544
2009    2       2       0.744949        147.27
2009    2       3       0.6797702       138.2044
2009    2       4       0.7865367       150.3097
2009    2       5       0.9697068       171.5005
2009    2       6       0.8050031       155.2949
2009    2       7       0.6350605       133.1511
2009    3       0       0.5173543       115.1715
2009    3       1       0.3236113       79.47161
2009    3       2       0.2894642       70.27865
2009    3       3       0.1680991       46.72003
2009    3       4       0.2492465       64.34957
2009    3       5       0.3618596       87.19676
2009    3       6       0.2130003       56.69907
2009    3       7       0.2529417       65.30115
2009    4       0       0.3552752       86.01884
2009    4       1       0.3393718       82.76902
2009    4       2       0.3254807       80.05487
2009    4       3       0.2299174       60.43083
2009    4       4       0.2858993       71.93555
2009    4       5       0.2477179       64.01688
2009    4       6       0.1727673       47.55688
2009    4       7       0.153208        43.12868
2009    5       0       0.151022        42.63893
2009    5       1       0.162851        45.41832
2009    5       2       0.1885734       51.32359
2009    5       3       0.2046322       54.73454
2009    5       4       0.3177132       78.4716
2009    5       5       0.3696092       88.6325
2009    5       6       0.2676034       68.69239
2009    5       7       0.2644555       68.02107
2009    6       0       0.2694417       68.96879
2009    6       1       0.247025        63.99892
2009    6       2       0.2246874       59.02733
2009    6       3       0.2538054       65.29765
2009    6       4       0.291235        73.11567
2009    6       5       0.320314        79.12123
2009    6       6       0.3190894       78.83625
2009    6       7       0.2890487       72.89268
2009    7       0       0.3090114       76.99542
2009    7       1       0.3565124       86.3815
2009    7       2       0.3993287       94.56161
2009    7       3       0.4223747       98.99445
2009    7       4       0.4489718       103.9042
2009    7       5       0.4851738       110.0022
2009    7       6       0.5010426       112.5543
2009    7       7       0.449261        103.94
2009    8       0       0.4335978       101.0221
2009    8       1       0.4334039       100.7239
2009    8       2       0.4323867       100.2099
2009    8       3       0.4026113       94.71574
2009    8       4       0.3880493       91.89208
2009    8       5       0.4304202       99.73325
2009    8       6       0.4356557       101.1939
2009    8       7       0.4213251       98.83293
2009    9       0       0.4424118       102.2891
2009    9       1       0.4506796       103.5278
2009    9       2       0.4326834       100.2208
2009    9       3       0.765177        151.721
2009    9       4       0.41414         97.20547
2009    9       5       0.3876418       92.62344
2009    9       6       0.3727423       89.88888
2009    9       7       0.3932346       93.66096
2009    10      0       0.3836409       91.60596
2009    10      1       0.3813591       90.85322
2009    10      2       0.4199419       97.68659
2009    10      3       0.4531473       103.5927
2009    10      4       0.4277085       99.30783
2009    10      5       0.3333443       81.83605
2009    10      6       0.3311267       80.99897
2009    10      7       0.3400277       82.72594
2009    11      0       0.2838674       71.68043
2009    11      1       0.2180791       58.00368
2009    11      2       0.2282074       60.32747
2009    11      3       0.193158        52.7474
2009    11      4       0.1611658       45.23794
2009    11      5       0.2608578       67.60327
2009    11      6       0.3518884       86.05342
2009    11      7       0.4849683       110.3036
2009    12      0       0.5182904       115.8956
2009    12      1       0.531254        117.9029
2009    12      2       0.43899         102.3235
2009    12      3       0.3096418       77.88677
2009    12      4       0.3016701       76.23675
2009    12      5       0.3094842       78.0207
2009    12      6       0.2700371       69.87574
2009    12      7       0.2478245       65.14864
2009    13      0       0.2934725       74.78001
2009    13      1       0.3768918       91.14276
2009    13      2       0.3995589       95.26972
2009    13      3       0.398237        94.84807
2009    13      4       0.4948775       111.8349
2009    13      5       0.5295524       117.6119
2009    13      6       0.5629614       122.9219
2009    13      7       0.6261673       132.5736
2009    14      0       0.6780554       140.041
2009    14      1       0.6742176       139.4671
2009    14      2       0.6515536       136.2132
2009    14      3       0.5049112       113.4743
2009    14      4       0.2591952       67.01858
2009    14      5       0.1675709       46.42408
2009    14      6       0.1386293       39.56765
2009    14      7       0.1392072       39.81153
2009    15      0       0.1257632       36.65806
2009    15      1       0.0908297       28.04003
2009    15      2       0.07282556      23.55233
2009    15      3       0.08445994      26.59532
2009    15      4       0.07767117      24.90579
2009    15      5       0.06306047      21.08295
2009    15      6       0.06248988      20.78014
2009    15      7       0.07881681      24.89743
2009    16      0       0.1191196       34.93442
2009    16      1       0.1717175       47.51243
2009    16      2       0.2014985       54.18774
2009    16      3       0.2606733       66.69939
2009    16      4       0.245964        63.803
2009    16      5       0.250876        65.52421
2009    16      6       0.2355495       62.27687
2009    16      7       0.2441991       64.20883
2009    17      0       0.248741        65.16628
2009    17      1       0.2630423       68.21099
2009    17      2       0.2843103       72.66891
2009    17      3       0.3339549       82.64307
2009    17      4       0.3440942       84.81325
2009    17      5       0.3561108       87.71608
2009    17      6       0.3474822       86.13579
2009    17      7       0.4419699       103.483
2009    18      0       0.5070599       114.1596
2009    18      1       0.5250875       117.094
2009    18      2       0.5508203       121.3178
2009    18      3       0.5985016       128.7452
2009    18      4       0.6806527       140.7426
2009    18      5       0.731125        147.6798
2009    18      6       0.6824024       140.714
2009    18      7       0.5659107       123.3684
2009    19      0       0.556906        122.0028
2009    19      1       0.6072575       129.9997
2009    19      2       0.5517928       121.4061
2009    19      3       0.5300473       118.0716
2009    19      4       0.5205268       116.7532
2009    19      5       0.483961        110.68
2009    19      6       0.4128797       97.9801
2009    19      7       0.3551049       87.07007
2009    20      0       0.340569        84.14089
2009    20      1       0.3451538       84.8382
2009    20      2       0.3578157       86.57336
2009    20      3       0.3332283       81.54606
2009    20      4       0.416662        97.42414
2009    20      5       0.4931699       110.9771
2009    20      6       0.5128807       114.6175
2009    20      7       0.564345        122.4592
2009    21      0       0.5372754       117.9261
2009    21      1       0.5455408       119.2594
2009    21      2       0.5485583       120.0753
2009    21      3       0.5440603       119.3027
2009    21      4       0.5443037       118.9989
2009    21      5       0.6740609       137.627
2009    21      6       0.8388107       159.3308
2009    21      7       0.7695153       151.8504
2009    22      0       0.7434198       148.3903
2009    22      1       0.7790382       151.8348
2009    22      2       0.8753518       163.2335
2009    22      3       0.7205117       144.9691
2009    22      4       0.6175446       130.6689
2009    22      5       0.951019        171.0817
2009    22      6       0.72842         145.9947
2009    22      7       0.8132795       156.7842
2009    23      0       0.9105143       168.046
2009    23      1       0.8626515       162.0617
2009    23      2       0.8327195       158.7187
2009    23      3       0.8293726       158.8993
2009    23      4       0.7749837       152.6843
2009    23      5       0.6767222       140.1056
2009    23      6       0.6526757       137.2027
2009    23      7       0.6643341       138.7526
2009    24      0       0.5890153       127.0602
2009    24      1       0.3674013       88.32852
2009    24      2       0.2689272       68.37275
2009    24      3       0.2289386       59.50296
2009    24      4       0.2783137       70.08907
2009    24      5       0.426963        99.41133
2009    24      6       0.6457608       134.6534
2009    24      7       0.7222637       145.3084
2009    25      0       0.6842281       139.5213
2009    25      1       0.7163608       142.8462
2009    25      2       0.6439647       132.9634
2009    25      3       0.5531324       119.2358
2009    25      4       0.642455        132.7309
2009    25      5       0.6145638       128.9417
2009    25      6       0.4391534       101.191
2009    25      7       0.4038497       94.83128
2009    26      0       0.4186402       97.66578
2009    26      1       0.4463996       102.486
2009    26      2       0.4392542       101.2486
2009    26      3       0.4615713       105.0122
2009    26      4       0.64769         133.9996
2009    26      5       0.7066626       141.8994
2009    26      6       0.697801        140.6934
2009    26      7       0.6815821       138.3374
2009    27      0       0.5471345       119.0985
2009    27      1       0.487239        109.5229
2009    27      2       0.4806931       108.8214
2009    27      3       0.4213342       98.88353
2009    27      4       0.5409974       118.6428
2009    27      5       0.6739648       138.4911
2009    27      6       0.6100194       129.5633
2009    27      7       0.5892334       125.1948
2009    28      0       0.6657996       137.6289
2009    28      1       0.5748309       124.4048
2009    28      2       0.5676038       122.8528
2009    28      3       0.5668355       122.5193
2009    28      4       0.6338652       133.121
2009    28      5       0.6386402       134.6293
2009    28      6       0.4765725       108.7112
2009    28      7       0.4290425       100.1664
2009    29      0       0.530363        117.0987
2009    29      1       0.6227861       130.726
2009    29      2       0.6812684       138.3215
2009    29      3       0.7250786       144.6088
2009    29      4       0.692403        140.7272
2009    29      5       0.7066609       142.8319
2009    29      6       0.740401        147.2578
2009    29      7       0.7132399       143.8377
2009    30      0       0.687924        140.5145
2009    30      1       0.7027556       142.5896
2009    30      2       0.6094881       129.4997
2009    30      3       0.6033308       128.7273
2009    30      4       0.6217949       131.7783
2009    30      5       0.6600116       137.386
2009    30      6       0.6224403       132.076
2009    30      7       0.5681544       123.6426
2010    1       0       0.5531983       120.0003
2010    1       1       0.5967343       126.6893
2010    1       2       0.5735147       123.1283
2010    1       3       0.4800423       108.3516
2010    1       4       0.5355907       116.7578
2010    1       5       0.4944818       110.6342
2010    1       6       0.5742395       123.4447
2010    1       7       0.7142823       143.4357
2010    2       0       0.5567575       121.4909
2010    2       1       0.4370962       101.7584
2010    2       2       0.3958921       94.07744
2010    2       3       0.4277139       99.54746
2010    2       4       0.738816        148.6728
2010    2       5       0.7560499       149.9008
2010    2       6       0.5363746       116.4295
2010    2       7       0.4571084       102.0801
2010    3       0       0.4517568       101.822
2010    3       1       0.3643645       86.76091
2010    3       2       0.294303        73.75118
2010    3       3       0.3434217       84.04407
2010    3       4       0.2539904       65.99236
2010    3       5       0.17753         48.92585
2010    3       6       0.1608145       44.88227
2010    3       7       0.29694         74.29098
2010    4       0       0.3083904       76.78089
2010    4       1       0.5116471       114.2906
2010    4       2       0.422704        98.86564
2010    4       3       0.5034054       112.349
2010    4       4       0.6605251       135.9979
2010    4       5       0.8746407       162.5947
2010    4       6       0.916566        167.0179
2010    4       7       0.901295        165.1674
2010    5       0       1.168621        190.564
2010    5       1       1.349928        204.83
2010    5       2       0.9957188       175.0522
2010    5       3       0.8385051       158.5349
2010    5       4       0.8158935       156.2689
2010    5       5       0.5499517       119.7933
2010    5       6       0.2691776       68.59598
2010    5       7       0.4770146       107.5492
2010    6       0       1.133493        189.4718
2010    6       1       1.068961        183.474
2010    6       2       1.007018        177.3557
2010    6       3       0.9392462       170.335
2010    6       4       0.982165        174.7471
2010    6       5       0.7442638       147.2248
2010    6       6       0.625521        130.6206
2010    6       7       0.6169135       129.0401
2010    7       0       0.6341322       131.451
2010    7       1       0.6281142       130.5798
2010    7       2       0.8429306       158.6937
2010    7       3       0.9796597       173.8139
2010    7       4       0.8504835       159.9282
2010    7       5       0.6686663       136.7508
2010    7       6       0.5901881       125.089
2010    7       7       0.5605963       120.535
2010    8       0       0.540826        117.7405
2010    8       1       0.3876265       91.97352
2010    8       2       0.2956957       74.33239
2010    8       3       0.3637642       87.56338
2010    8       4       0.3921315       92.73736
2010    8       5       0.3804449       90.62597
2010    8       6       0.3779032       90.17541
2010    8       7       0.37334         88.98528
2010    9       0       0.3982497       93.09749
2010    9       1       0.4042346       94.07953
2010    9       2       0.3998429       93.49819
2010    9       3       0.4756052       106.8119
2010    9       4       0.601618        126.8861
2010    9       5       0.7068155       141.5902
2010    9       6       0.7628182       149.0531
2010    9       7       0.7349119       145.5335
2010    10      0       0.4816906       107.5805
2010    10      1       0.3876798       90.76597
2010    10      2       0.5300464       115.5042
2010    10      3       0.5306172       115.6296
2010    10      4       0.7683529       149.752
2010    10      5       0.8057102       154.3059
2010    10      6       0.7042727       141.2605
2010    10      7       0.4644244       104.6708
2010    11      0       0.4959057       110.4646
2010    11      1       0.4661421       106.0095
2010    11      2       0.3684049       88.86624
2010    11      3       0.4776791       108.05
2010    11      4       0.6057646       128.1104
2010    11      5       0.5795116       124.1487
2010    11      6       0.552404        120.0994
2010    11      7       0.5457472       119.1218
2010    12      0       0.6535052       135.1712
2010    12      1       0.7716409       150.8672
2010    12      2       0.7826768       152.5722
2010    12      3       0.7364234       147.1423
2010    12      4       0.7771955       152.3309
2010    12      5       0.7682181       151.3548
2010    12      6       0.6843975       140.146
2010    12      7       0.6603001       136.403
2010    13      0       0.6190407       130.2579
2010    13      1       0.6628849       136.632
2010    13      2       0.7265251       145.6475
2010    13      3       0.5573835       121.6992
2010    13      4       0.5457059       120.1921
2010    13      5       0.4792822       108.8613
2010    13      6       0.4100981       95.7758
2010    13      7       0.5968232       127.3748
2010    14      0       0.759415        150.3091
2010    14      1       0.7175926       144.4109
2010    14      2       0.5437722       118.8175
2010    14      3       0.4759639       107.958
2010    14      4       0.5538816       121.0516
2010    14      5       0.6183126       131.0948
2010    14      6       0.5058989       113.8048
2010    14      7       0.4911357       111.044
2010    15      0       0.5382834       118.5995
2010    15      1       0.6256975       131.9996
2010    15      2       0.7533465       148.9548
2010    15      3       0.7645371       150.3242
2010    15      4       0.7947388       154.6629
2010    15      5       0.8426492       160.6817
2010    15      6       0.8301199       159.5479
2010    15      7       0.8421422       161.3428
2010    16      0       0.7554626       150.297
2010    16      1       0.7776241       152.5367
2010    16      2       0.7780272       152.3194
2010    16      3       0.7030581       142.948
2010    16      4       0.6123044       130.9931
2010    16      5       0.5862956       127.4242
2010    16      6       0.9350018       173.9401
2010    16      7       0.6044557       130.3943
2010    17      0       0.5970152       129.5662
2010    17      1       0.4970063       113.4588
2010    17      2       0.3737566       91.27259
2010    17      3       0.3027192       77.12753
2010    17      4       0.323772        81.19831
2010    17      5       0.3452735       85.03794
2010    17      6       0.2582584       67.21223
2010    17      7       0.2526253       66.85529
2010    18      0       0.2795608       72.68103
2010    18      1       0.2999611       76.80832
2010    18      2       0.2972564       76.11462
2010    18      3       0.2953861       75.59886
2010    18      4       0.4786261       109.9615
2010    18      5       0.5869511       127.2782
2010    18      6       0.5396577       119.4122
2010    18      7       0.5944249       128.0356
2010    19      0       0.541867        119.6946
2010    19      1       0.5461004       120.167
2010    19      2       0.5628179       122.5909
2010    19      3       0.5722928       124.3894
2010    19      4       0.5833613       125.5901
2010    19      5       0.6432778       134.1333
2010    19      6       0.5682667       123.0231
2010    19      7       0.5297022       117.0642
2010    20      0       0.4558195       105.0891
2010    20      1       0.3261127       81.49197
2010    20      2       0.362213        87.57827
2010    20      3       0.4941777       109.813
2010    20      4       0.6311975       131.3489
2010    20      5       0.5062246       112.9093
2010    20      6       0.397422        94.62841
2010    20      7       0.3068412       77.53591
2010    21      0       0.3126126       78.63755
2010    21      1       0.3483827       86.06063
2010    21      2       0.3546896       87.40843
2010    21      3       0.2148282       57.89955
2010    21      4       0.2506033       65.67516
2010    21      5       0.2431922       64.15098
2010    21      6       0.2196301       59.00942
2010    21      7       0.3778633       91.04629
2010    22      0       0.3509261       85.90606
2010    22      1       0.2045733       55.24847
2010    22      2       0.1386318       39.37716
2010    22      3       0.1257711       36.19707
2010    22      4       0.1570963       43.81658
2010    22      5       0.2123577       56.42076
2010    22      6       0.2484841       64.02536
2010    22      7       0.2511218       64.10012
2010    23      0       0.2738147       68.53125
2010    23      1       0.2718389       68.60112
2010    23      2       0.2496023       64.87165
2010    23      3       0.4493941       103.326
2010    23      4       0.6496277       133.6999
2010    23      5       0.5492307       118.9567
2010    23      6       0.4528116       103.6023
2010    23      7       0.4677764       106.5024
2010    24      0       0.4761397       107.9763
2010    24      1       0.4942963       111.0578
2010    24      2       0.4410729       102.3621
2010    24      3       0.4041036       95.82943
2010    24      4       0.5413705       119.1393
2010    24      5       0.6914779       141.2831
2010    24      6       0.5466676       119.8756
2010    24      7       0.5787378       124.6478
2010    25      0       0.6779692       138.758
2010    25      1       0.7624615       149.4726
2010    25      2       0.9047723       164.8193
2010    25      3       1.589944        219.5995
2010    25      4       1.216027        195.1963
2010    25      5       1.091109        185.3957
2010    25      6       0.75638         149.3997
2010    25      7       0.5871715       125.8591
2010    26      0       0.5396178       118.5372
2010    26      1       0.5223218       115.6539
2010    26      2       0.530065        116.8579
2010    26      3       0.5965028       127.2076
2010    26      4       0.6385823       133.561
2010    26      5       0.5623179       122.1829
2010    26      6       0.4062227       95.70767
2010    26      7       0.3076752       76.46394
2010    27      0       0.2672189       68.26263
2010    27      1       0.2610916       66.91188
2010    27      2       0.2943552       73.42544
2010    27      3       0.2986932       74.27017
2010    27      4       0.4494614       102.6362
2010    27      5       0.4951891       110.4558
2010    27      6       0.4099353       94.90102
2010    27      7       0.3658949       87.49729
2010    28      0       0.3952516       92.56959
2010    28      1       0.4373157       99.61531
2010    28      2       0.3768137       89.08567
2010    28      3       0.4094995       95.11922
2010    28      4       0.5488855       118.8143
2010    28      5       0.559111        120.5412
2010    28      6       0.4138357       96.41938
2010    28      7       0.3085776       76.64038
2010    29      0       0.3065294       76.17468
2010    29      1       0.3704307       88.49231
2010    29      2       0.4406584       101.4422
2010    29      3       0.4620171       105.2608
2010    29      4       0.5073367       112.951
2010    29      5       0.5306704       116.8458
2010    29      6       0.4972999       111.4884
2010    29      7       0.447522        103.1798
2010    30      0       0.4676576       106.6648
2010    30      1       0.5167854       114.7737
2010    30      2       0.5583105       121.4256
2010    30      3       0.5796992       124.8081
2010    30      4       0.6270079       132.0611
2010    30      5       0.6643989       137.5579
2010    30      6       0.5903139       126.8914
2010    30      7       0.5260901       116.7129
2011    1       0       0.4855848       108.1757
2011    1       1       0.4712586       105.7192
2011    1       2       0.4861328       108.3349
2011    1       3       0.4665824       105.1741
2011    1       4       0.5022833       111.4208
2011    1       5       0.502996        111.8013
2011    1       6       0.3801806       90.49637
2011    1       7       0.3360469       81.91947
2011    2       0       0.403791        94.20815
2011    2       1       0.5333336       115.8958
2011    2       2       0.5144132       113.112
2011    2       3       0.5584941       119.878
2011    2       4       0.6788394       137.8678
2011    2       5       0.5877054       125.803
2011    2       6       0.6692714       136.8817
2011    2       7       0.7760725       150.5213
2011    3       0       0.6237518       130.6638
2011    3       1       0.7022551       141.1771
2011    3       2       0.7438411       145.9301
2011    3       3       0.6633515       135.6257
2011    3       4       0.6672295       137.2881
2011    3       5       0.7052096       142.3987
2011    3       6       0.672848        138.5811
2011    3       7       0.7322572       146.1954
2011    4       0       0.8954035       164.3589
2011    4       1       1.204904        195.0907
2011    4       2       0.7818206       151.4938
2011    4       3       0.689635        139.837
2011    4       4       0.6630045       136.4069
2011    4       5       0.6303109       132.1309
2011    4       6       0.5517111       120.6153
2011    4       7       0.6441629       134.3025
2011    5       0       0.5522234       120.6458
2011    5       1       0.4774686       108.8328
2011    5       2       0.557241        121.1869
2011    5       3       0.7228093       144.5756
2011    5       4       0.8659755       162.1272
2011    5       5       0.9103483       167.0792
2011    5       6       0.8679076       162.3261
2011    5       7       0.7832145       151.9057
2011    6       0       0.8990657       165.8632
2011    6       1       0.8437015       159.3397
2011    6       2       0.7272078       145.4622
2011    6       3       0.7459368       148.0636
2011    6       4       0.7568925       149.1717
2011    6       5       0.7587149       149.5973
2011    6       6       0.6051605       129.0716
2011    6       7       0.4747517       108.4253
2011    7       0       0.6780596       138.2647
2011    7       1       0.683259        138.5623
2011    7       2       0.7287284       144.965
2011    7       3       0.8188351       155.9273
2011    7       4       0.9799567       174.393
2011    7       5       1.226188        199.6108
2011    7       6       0.8529939       162.5308
2011    7       7       0.8596882       163.0129
2011    8       0       0.7471148       147.7936
2011    8       1       0.6254408       131.5129
2011    8       2       0.6560332       135.911
2011    8       3       0.7132212       142.789
2011    8       4       0.9842511       174.9605
2011    8       5       1.154497        191.536
2011    8       6       0.9488371       171.5115
2011    8       7       1.036926        179.7559
2011    9       0       0.9262377       169.5046
2011    9       1       0.8271571       158.4223
2011    9       2       0.8706913       161.5042
2011    9       3       1.11332         187.1667
2011    9       4       0.9841489       174.8436
2011    9       5       0.986616        176.4722
2011    9       6       0.7058723       144.1846
2011    9       7       0.5014465       113.6746
2011    10      0       0.2535051       66.67308
2011    10      1       0.1168556       34.97116
2011    10      2       0.2127894       57.08621
2011    10      3       0.2303116       61.16486
2011    10      4       0.2447455       64.36695
2011    10      5       0.2628816       68.18858
2011    10      6       0.3577078       87.47241
2011    10      7       0.4773136       109.2091
2011    11      0       0.487986        110.7642
2011    11      1       0.512264        114.5321
2011    11      2       0.5246186       116.594
2011    11      3       0.5030237       113.1069
2011    11      4       0.5165473       115.2996
2011    11      5       0.5257105       116.4111
2011    11      6       0.4712511       106.7983
2011    11      7       0.4613815       105.0779
2011    12      0       0.4123953       96.58877
2011    12      1       0.3581088       86.62274
2011    12      2       0.3494267       84.74317
2011    12      3       0.4264502       98.76481
2011    12      4       0.4732561       106.7527
2011    12      5       0.5109596       112.5363
2011    12      6       0.4409132       100.623
2011    12      7       0.5844642       124.1355
2011    13      0       0.6480023       133.1943
2011    13      1       0.7514113       146.4886
2011    13      2       0.8316157       155.8879
2011    13      3       0.8247466       156.4166
2011    13      4       0.8497394       160.0383
2011    13      5       0.6094985       128.5378
2011    13      6       0.5794512       123.8921
2011    13      7       0.5914234       125.4493
2011    14      0       0.6407826       132.2621
2011    14      1       0.6739263       136.6823
2011    14      2       0.6770916       136.9095
2011    14      3       0.7205075       142.8112
2011    14      4       0.811731        154.7196
2011    14      5       0.8468167       159.0292
2011    14      6       0.7313048       144.7949
2011    14      7       0.6061931       127.0406
2011    15      0       0.5899079       124.2301
2011    15      1       0.572142        121.4596
2011    15      2       0.6129373       127.2664
2011    15      3       0.7272142       142.892
2011    15      4       0.9826502       171.503
2011    15      5       1.082469        180.4443
2011    15      6       0.9923942       172.2583
2011    15      7       0.8849882       161.5847
2011    16      0       0.7933967       151.6694
2011    16      1       0.7414741       145.429
2011    16      2       0.869894        160.1077
2011    16      3       0.9742134       171.9003
2011    16      4       0.9918704       174.2297
2011    16      5       0.8839296       162.9836
2011    16      6       0.6881805       139.0209
2011    16      7       0.5870921       124.585
2011    17      0       0.5829061       123.7966
2011    17      1       0.6515064       133.437
2011    17      2       0.7244553       143.0834
2011    17      3       0.685805        138.4603
2011    17      4       0.7058577       141.6394
2011    17      5       0.5169107       114.1015
2011    17      6       0.5356572       117.5707
2011    17      7       0.3416208       83.14592
2011    18      0       0.391181        92.71253
2011    18      1       0.402352        95.0384
2011    18      2       0.2594651       67.27426
2011    18      3       0.2350216       61.84554
2011    18      4       0.421231        98.65946
2011    18      5       0.516071        115.1285
2011    18      6       0.5074716       113.7954
2011    18      7       0.4541156       104.8251
2011    19      0       0.431897        100.9936
2011    19      1       0.5006761       112.7961
2011    19      2       0.5558197       121.9033
2011    19      3       0.5779624       125.7399
2011    19      4       0.5925553       128.1608
2011    19      5       0.5899136       127.9895
2011    19      6       0.5353328       119.5408
2011    19      7       0.5099027       115.4225
2011    20      0       0.5166697       116.5022
2011    20      1       0.5420156       120.5363
2011    20      2       0.5157746       116.1367
2011    20      3       0.4746225       109.2246
2011    20      4       0.5125334       115.7301
2011    20      5       0.441513        103.6319
2011    20      6       0.3203037       80.64642
2011    20      7       0.3002117       76.59107
2011    21      0       0.2872696       73.88814
2011    21      1       0.2676834       69.68141
2011    21      2       0.2481051       65.53161
2011    21      3       0.2336851       62.51854
2011    21      4       0.2629242       68.95413
2011    21      5       0.297856        76.34683
2011    21      6       0.3330066       83.49571
2011    21      7       0.301113        77.02292
2011    22      0       0.2814309       73.02366
2011    22      1       0.225132        60.78735
2011    22      2       0.1564608       44.89508
2011    22      3       0.118446        35.59483
2011    22      4       0.1170057       35.2319
2011    22      5       0.1199666       35.99281
2011    22      6       0.1072829       32.84255
2011    22      7       0.1018022       31.4517
2011    23      0       0.09582583      29.85009
2011    23      1       0.09640744      29.84874
2011    23      2       0.1032407       31.43809
2011    23      3       0.1079404       32.62569
2011    23      4       0.1208014       36.06573
2011    23      5       0.1220995       36.59041
2011    23      6       0.1197392       36.03288
2011    23      7       0.1191588       35.91896
2011    24      0       0.124404        37.17289
2011    24      1       0.1395967       40.85411
2011    24      2       0.1377539       40.48442
2011    24      3       0.1209471       36.39534
2011    24      4       0.1104512       33.72365
2011    24      5       0.1124504       34.18332
2011    24      6       0.1221322       36.64001
2011    24      7       0.1299441       38.59745
2011    25      0       0.1434425       41.82098
2011    25      1       0.1610583       45.98416
2011    25      2       0.1602787       45.68946
2011    25      3       0.1452795       42.07632
2011    25      4       0.1737659       48.93075
2011    25      5       0.3324633       83.4078
2011    25      6       0.5078943       115.4199
2011    25      7       0.7030019       145.0629
2011    26      0       0.8751648       166.7681
2011    26      1       0.9115033       170.8904
2011    26      2       0.8374064       162.1103
2011    26      3       0.6715049       140.0667
2011    26      4       0.5381188       119.7181
2011    26      5       0.5539164       122.2924
2011    26      6       0.3941597       94.68247
2011    26      7       0.2004288       54.28887
2011    27      0       0.1084502       32.75472
2011    27      1       0.1399829       40.5709
2011    27      2       0.2292624       61.12134
2011    27      3       0.2515469       65.91967
2011    27      4       0.2458317       64.55322
2011    27      5       0.2327708       61.61047
2011    27      6       0.2230739       59.52512
2011    27      7       0.1705794       47.60974
2011    28      0       0.1441995       41.44998
2011    28      1       0.1849769       50.99868
2011    28      2       0.2586462       67.26313
2011    28      3       0.3124101       78.35309
2011    28      4       0.3596918       87.6149
2011    28      5       0.4499246       103.2261
2011    28      6       0.5058824       112.8217
2011    28      7       0.4855052       109.3944
2011    29      0       0.4887983       110.0262
2011    29      1       0.6015221       127.5364
2011    29      2       0.6477839       134.0421
2011    29      3       0.6301084       131.6557
2011    29      4       0.686184        139.5442
2011    29      5       0.6416647       133.3149
2011    29      6       0.5328563       116.854
2011    29      7       0.533069        117.1327
2011    30      0       0.5244244       116.0207
2011    30      1       0.4916398       111.1029
2011    30      2       0.5376861       118.6121
2011    30      3       0.5409129       119.4647
2011    30      4       0.6097633       130.182
2011    30      5       0.5720379       124.6904
2011    30      6       0.4992693       113.1747
2011    30      7       0.5703337       124.6393
2012    1       0       0.2093563       55.62944
2012    1       1       0.1967099       52.81236
2012    1       2       0.1897681       51.20213
2012    1       3       0.1912779       51.53565
2012    1       4       0.247811        63.64066
2012    1       5       0.2880959       71.99799
2012    1       6       0.2558417       65.279
2012    1       7       0.2486404       63.53001
2012    2       0       0.2425109       61.90386
2012    2       1       0.2337625       60.16464
2012    2       2       0.2378515       60.9998
2012    2       3       0.2457599       62.90233
2012    2       4       0.2961375       73.32567
2012    2       5       0.3633491       86.40238
2012    2       6       0.3012843       74.26534
2012    2       7       0.2933718       72.41402
2012    3       0       0.2950124       72.6588
2012    3       1       0.2962531       72.75561
2012    3       2       0.3152425       76.41136
2012    3       3       0.3525552       83.56416
2012    3       4       0.4436522       100.3552
2012    3       5       0.4310263       98.64402
2012    3       6       0.2923719       72.83934
2012    3       7       0.2665449       68.01363
2012    4       0       0.3194221       79.10123
2012    4       1       0.3719039       89.3199
2012    4       2       0.4177388       97.78047
2012    4       3       0.4370015       101.2877
2012    4       4       0.4891574       110.2259
2012    4       5       0.4477893       103.3417
2012    4       6       0.3162795       78.58213
2012    4       7       0.2299922       60.29829
2012    5       0       0.2146065       56.97176
2012    5       1       0.2614405       66.95445
2012    5       2       0.4008647       93.54989
2012    5       3       0.6205021       128.7568
2012    5       4       0.8269104       156.9935
2012    5       5       0.7577072       149.5232
2012    5       6       0.4943305       111.1142
2012    5       7       0.3168157       78.75264
2012    6       0       0.2108284       56.41912
2012    6       1       0.2242959       59.29726
2012    6       2       0.1981009       53.54413
2012    6       3       0.2213645       58.6868
2012    6       4       0.2942683       74.35046
2012    6       5       0.3358667       82.82025
2012    6       6       0.3144062       78.45624
2012    6       7       0.3999487       94.97498
2012    7       0       0.4645994       106.4245
2012    7       1       0.4972183       112.3004
2012    7       2       0.566289        123.1958
2012    7       3       0.529558        117.1043
2012    7       4       0.4602355       105.0964
2012    7       5       0.3702725       88.55671
2012    7       6       0.3254663       80.09574
2012    7       7       0.3181132       78.98148
2012    8       0       0.3349338       82.7106
2012    8       1       0.3305786       81.86343
2012    8       2       0.3534099       86.50648
2012    8       3       0.374974        90.7637
2012    8       4       0.4192765       98.87904
2012    8       5       0.4401676       102.5932
2012    8       6       0.4158127       98.2123
2012    8       7       0.3808773       91.77588
2012    9       0       0.3575854       87.34704
2012    9       1       0.3579699       87.46273
2012    9       2       0.350188        85.94675
2012    9       3       0.3359771       83.12557
2012    9       4       0.3529827       86.55415
2012    9       5       0.37265         90.41677
2012    9       6       0.3499781       86.17809
2012    9       7       0.3293743       82.20264
2012    10      0       0.3207555       80.32772
2012    10      1       0.3035542       76.74701
2012    10      2       0.2949376       75.02507
2012    10      3       0.2959561       75.22253
2012    10      4       0.3068381       77.49436
2012    10      5       0.2900649       74.18448
2012    10      6       0.2711665       70.25747
2012    10      7       0.2775735       71.60317
2012    11      0       0.296032        75.38355
2012    11      1       0.3209366       80.36192
2012    11      2       0.3156914       79.32037
2012    11      3       0.3133671       78.9684
2012    11      4       0.465645        107.6301
2012    11      5       0.6102629       131.2435
2012    11      6       0.5560994       123.1002
2012    11      7       0.4963818       113.3808
2012    12      0       0.5237473       117.9152
2012    12      1       0.4977206       113.4577
2012    12      2       0.408782        97.61483
2012    12      3       0.3460302       85.5935
2012    12      4       0.3682502       89.94991
2012    12      5       0.4112813       97.95589
2012    12      6       0.3730058       90.46926
2012    12      7       0.3442747       84.73222
2012    13      0       0.3457646       84.84777
2012    13      1       0.3692086       88.88635
2012    13      2       0.3595827       86.53095
2012    13      3       0.3339889       81.45874
2012    13      4       0.3319739       81.20998
2012    13      5       0.3473679       84.36777
2012    13      6       0.3751172       89.93832
2012    13      7       0.4482744       103.5633
2012    14      0       0.5814991       125.842
2012    14      1       0.73474         148.3342
2012    14      2       0.6637246       139.0933
2012    14      3       0.5201053       117.1517
2012    14      4       0.49297         112.6371
2012    14      5       0.486865        111.768
2012    14      6       0.4343758       102.7467
2012    14      7       0.4850777       111.9177
2012    15      0       0.5437294       121.7486
2012    15      1       0.4676717       108.9286
2012    15      2       0.2751698       71.77533
2012    15      3       0.16125         45.84022
2012    15      4       0.1613497       45.51413
2012    15      5       0.1851011       50.96334
2012    15      6       0.1532229       43.43984
2012    15      7       0.1448124       41.59866
2012    16      0       0.1353147       39.40282
2012    16      1       0.1190257       35.26714
2012    16      2       0.249164        65.8605
2012    16      3       0.5169746       117.3309
2012    16      4       0.6609316       139.822
2012    16      5       0.6920725       144.3815
2012    16      6       0.6330647       135.8282
2012    16      7       0.448142        105.2294
2012    17      0       0.3719429       90.44659
2012    17      1       0.4245673       100.2072
2012    17      2       0.4841343       110.7466
2012    17      3       0.6030439       129.9806
2012    17      4       0.891437        168.7361
2012    17      5       0.8874321       167.4811
2012    17      6       0.968762        176.2455
2012    17      7       0.8292467       160.4075
2012    18      0       0.6561302       137.1546
2012    18      1       0.5437361       119.4783
2012    18      2       0.5337709       117.5898
2012    18      3       0.5547612       120.9103
2012    18      4       0.6116581       129.4841
2012    18      5       0.5878119       126.1311
2012    18      6       0.4359354       101.6197
2012    18      7       0.3050473       77.10147
2012    19      0       0.2299589       61.51482
2012    19      1       0.2301288       61.66077
2012    19      2       0.2983336       75.73862
2012    19      3       0.4110645       97.03545
2012    19      4       0.539485        118.6862
2012    19      5       0.5926714       127.0939
2012    19      6       0.4699636       107.3886
2012    19      7       0.3117762       78.10594
2012    20      0       0.2439631       64.22751
2012    20      1       0.2281942       60.81569
2012    20      2       0.3608709       87.93115
2012    20      3       0.4903789       110.4543
2012    20      4       0.6641517       136.9923
2012    20      5       0.5850823       126.11
2012    20      6       0.3422726       84.58254
2012    20      7       0.1793761       50.04433
2012    21      0       0.1664465       46.97436
2012    21      1       0.2202934       58.78289
2012    21      2       0.4825384       108.8345
2012    21      3       0.6220837       131.5846
2012    21      4       0.5919212       127.9008
2012    21      5       0.4186699       99.17213
2012    21      6       0.3064744       77.78043
2012    21      7       0.1519855       43.66658
2012    22      0       0.1240565       36.87154
2012    22      1       0.1057242       32.29121
2012    22      2       0.1038285       31.7917
2012    22      3       0.112908        33.96915
2012    22      4       0.1428452       41.18227
2012    22      5       0.1766876       49.25773
2012    22      6       0.2426895       64.09649
2012    22      7       0.3353374       83.42153
2012    23      0       0.3510926       86.48127
2012    23      1       0.3230833       80.87873
2012    23      2       0.2743156       70.61803
2012    23      3       0.2756766       70.37012
2012    23      4       0.3501872       85.27964
2012    23      5       0.3937172       94.58663
2012    23      6       0.4707437       108.4925
2012    23      7       0.4680185       107.857
2012    24      0       0.4418729       103.1423
2012    24      1       0.4501104       104.5398
2012    24      2       0.403831        96.20002
2012    24      3       0.3147386       78.91262
2012    24      4       0.2818018       72.05683
2012    24      5       0.2790295       71.47515
2012    24      6       0.2741529       70.42641
2012    24      7       0.299106        75.64452
2012    25      0       0.3142917       78.88572
2012    25      1       0.3099518       78.16932
2012    25      2       0.295735        75.30972
2012    25      3       0.2880026       73.68104
2012    25      4       0.3561607       87.5131
2012    25      5       0.462168        107.0677
2012    25      6       0.5082595       114.9569
2012    25      7       0.5318695       119.3788
2012    26      0       0.5340442       119.5706
2012    26      1       0.5605773       123.5166
2012    26      2       0.552393        122.2689
2012    26      3       0.6282856       134.0727
2012    26      4       0.7034763       145.009
2012    26      5       0.6325239       134.8802
2012    26      6       0.4377165       102.9929
2012    26      7       0.354263        87.33784
2012    27      0       0.4268645       100.6772
2012    27      1       0.5230584       117.221
2012    27      2       0.526015        117.7534
2012    27      3       0.5774049       126.0444
2012    27      4       0.6617425       138.6356
2012    27      5       0.6729485       140.7041
2012    27      6       0.6872434       142.8368
2012    27      7       0.6185978       132.6704
2012    28      0       0.884852        167.7687
2012    28      1       0.9845262       178.6074
2012    28      2       0.7769357       154.8661
2012    28      3       0.5511076       122.6858
2012    28      4       0.3708848       90.92272
2012    28      5       0.2492654       65.86279
2012    28      6       0.1713206       48.20702
2012    28      7       0.1662846       47.20512
2012    29      0       0.1660687       47.1728
2012    29      1       0.1722945       48.60948
2012    29      2       0.1795496       50.25091
2012    29      3       0.1846754       51.42125
2012    29      4       0.1841508       51.35958
2012    29      5       0.1762003       49.54396
2012    29      6       0.1745509       49.12197
2012    29      7       0.1759902       49.39228
2012    30      0       0.1819426       50.74676
2012    30      1       0.1876766       51.96868
2012    30      2       0.2113238       57.30428
2012    30      3       0.2426332       64.24782
2012    30      4       0.3061598       77.67332
2012    30      5       0.3315539       82.86709
2012    30      6       0.3023347       76.93802
2012    30      7       0.3242628       81.44541
2013    1       0       0.2642856       66.50847
2013    1       1       0.3475823       82.95636
2013    1       2       0.5417358       117.5411
2013    1       3       0.7109345       141.1631
2013    1       4       0.716187        142.855
2013    1       5       0.6793265       137.4619
2013    1       6       0.7343435       144.6346
2013    1       7       0.7799162       150.1082
2013    2       0       0.818479        155.0525
2013    2       1       0.6903398       139.16
2013    2       2       0.480355        108.8217
2013    2       3       0.1287088       38.01888
2013    2       4       0.08599738      27.22661
2013    2       5       0.1318025       38.59482
2013    2       6       0.1459374       41.93713
2013    2       7       0.1097556       33.23669
2013    3       0       0.1159617       34.6886
2013    3       1       0.1342387       39.06342
2013    3       2       0.1527032       43.49661
2013    3       3       0.1702622       47.647
2013    3       4       0.1897626       52.06078
2013    3       5       0.2054668       55.56611
2013    3       6       0.1777808       49.23613
2013    3       7       0.1782281       49.19423
2013    4       0       0.1946351       52.87368
2013    4       1       0.2052172       55.12595
2013    4       2       0.2102951       55.83612
2013    4       3       0.1766818       48.27937
2013    4       4       0.2339654       60.95391
2013    4       5       0.4257242       98.53209
2013    4       6       0.4767768       107.3885
2013    4       7       0.4620668       104.5411
2013    5       0       0.4628663       104.6584
2013    5       1       0.6243507       127.2589
2013    5       2       0.5058711       110.3286
2013    5       3       0.4937275       108.3625
2013    5       4       0.5866798       123.0536
2013    5       5       0.6914434       138.4733
2013    5       6       0.4393521       100.2619
2013    5       7       0.2366106       61.68957
2013    6       0       0.1183023       34.68682
2013    6       1       0.1114384       32.91777
2013    6       2       0.1232353       35.34256
2013    6       3       0.1679138       45.45698
2013    6       4       0.3167903       76.44638
2013    6       5       0.3916695       91.70823
2013    6       6       0.5682488       121.4966
2013    6       7       0.6361194       130.5494
2013    7       0       0.5429438       116.8755
2013    7       1       0.8402701       155.3565
2013    7       2       0.7557607       146.2444
2013    7       3       0.7566445       146.669
2013    7       4       0.5114279       112.4934
2013    7       5       0.43895         101.2362
2013    7       6       0.4157534       97.27356
2013    7       7       0.4751267       107.9016
2013    8       0       0.4713385       107.2181
2013    8       1       0.4763747       107.7655
2013    8       2       0.4638019       105.656
2013    8       3       0.4445316       102.4568
2013    8       4       0.4847526       109.3781
2013    8       5       0.5025535       112.0322
2013    8       6       0.3613616       86.97549
2013    8       7       0.2979203       74.51221
2013    9       0       0.3528317       85.87612
2013    9       1       0.4214588       98.74708
2013    9       2       0.4076152       95.87676
2013    9       3       0.387886        92.32644
2013    9       4       0.4281719       99.9786
2013    9       5       0.4362118       101.57
2013    9       6       0.3826717       91.97855
2013    9       7       0.4733723       108.3736
2013    10      0       0.5036874       113.3347
2013    10      1       0.4364433       101.7084
2013    10      2       0.358711        87.40127
2013    10      3       0.2987223       75.64328
2013    10      4       0.3219517       80.44817
2013    10      5       0.4202281       98.65844
2013    10      6       0.5327494       117.6012
2013    10      7       0.6286632       131.4003
2013    11      0       0.4431524       102.0014
2013    11      1       0.4210604       98.73066
2013    11      2       0.3667337       89.28089
2013    11      3       0.2833923       73.05136
2013    11      4       0.247162        64.96792
2013    11      5       0.2696289       68.98445
2013    11      6       0.2114474       57.41508
2013    11      7       0.2371154       63.05533
2013    12      0       0.3371935       83.2539
2013    12      1       0.3257447       80.23499
2013    12      2       0.280038        70.60845
2013    12      3       0.3307039       80.72008
2013    12      4       0.4449224       102.0265
2013    12      5       0.3888483       92.40942
2013    12      6       0.3857117       91.77225
2013    12      7       0.3632351       87.367
2013    13      0       0.3964951       93.59738
2013    13      1       0.5445792       118.5469
2013    13      2       0.9419727       169.9258
2013    13      3       0.9285892       168.0146
2013    13      4       0.7883958       151.7349
2013    13      5       0.8733662       161.3715
2013    13      6       0.8946405       163.6128
2013    13      7       0.8356242       157.0399
2013    14      0       0.7825257       150.5895
2013    14      1       0.7638113       148.1138
2013    14      2       1.051379        178.8805
2013    14      3       1.275887        197.3022
2013    14      4       1.538863        215.6569
2013    14      5       1.18305         190.993
2013    14      6       1.042051        179.1668
2013    14      7       1.071687        182.0467
2013    15      0       0.954661        170.465
2013    15      1       0.6867175       138.8884
2013    15      2       0.6397817       132.5206
2013    15      3       0.6833756       138.5552
2013    15      4       0.7136522       142.9303
2013    15      5       0.6836434       139.3464
2013    15      6       0.6878025       140.1454
2013    15      7       0.6146716       130.2641
2013    16      0       0.5229607       116.1104
2013    16      1       0.4865234       110.0204
2013    16      2       0.534058        118.1097
2013    16      3       0.6104298       130.3386
2013    16      4       0.6711872       139.4857
2013    16      5       0.6576348       137.9988
2013    16      6       0.4799614       110.3501
2013    16      7       0.3826364       92.8473
2013    17      0       0.4343503       102.3597
2013    17      1       0.44048         103.5198
2013    17      2       0.4352001       102.6159
2013    17      3       0.4121035       98.39558
2013    17      4       0.4434545       104.1607
2013    17      5       0.4104084       98.30885
2013    17      6       0.3607753       89.01446
2013    17      7       0.3324362       83.43846
2013    18      0       0.361384        89.11758
2013    18      1       0.4053012       97.41834
2013    18      2       0.3623484       89.17262
2013    18      3       0.3059034       78.00085
2013    18      4       0.3576376       88.41174
2013    18      5       0.3986019       96.25189
2013    18      6       0.5880862       128.4724
2013    18      7       0.7231785       147.9622
2013    19      0       0.7529852       152.014
2013    19      1       0.7572097       152.4696
2013    19      2       0.6387816       135.898
2013    19      3       0.4717508       109.3634
2013    19      4       0.3874521       94.2627
2013    19      5       0.3121463       79.52996
2013    19      6       0.2386448       63.85689
2013    19      7       0.2490319       66.06607
2013    20      0       0.320966        81.23177
2013    20      1       0.4001551       96.63104
2013    20      2       0.4403859       104.0102
2013    20      3       0.4946938       113.5805
2013    20      4       0.6306451       135.1307
2013    20      5       0.6467356       137.5517
2013    20      6       0.5375466       120.4129
2013    20      7       0.4576389       106.5512
2013    21      0       0.3715533       90.76512
2013    21      1       0.3665851       89.99306
2013    21      2       0.4943587       113.3387
2013    21      3       0.5678779       125.4861
2013    21      4       0.6062248       131.5815
2013    21      5       0.5717987       126.4111
2013    21      6       0.4433382       104.6608
2013    21      7       0.3193029       80.87791
2013    22      0       0.2393871       63.91222
2013    22      1       0.2018345       55.38361
2013    22      2       0.1977832       54.43277
2013    22      3       0.2084313       56.90126
2013    22      4       0.2488908       65.98587
2013    22      5       0.2977908       76.44222
2013    22      6       0.3053168       77.89718
2013    22      7       0.2747446       71.3959
2013    23      0       0.2733839       70.98163
2013    23      1       0.3175763       80.12034
2013    23      2       0.3485408       86.33998
2013    23      3       0.3303119       82.86691
2013    23      4       0.3260733       82.10333
2013    23      5       0.3228539       81.44865
2013    23      6       0.3225005       81.43179
2013    23      7       0.3286937       82.58146
2013    24      0       0.3078893       78.34017
2013    24      1       0.3046072       77.48516
2013    24      2       0.3384983       83.78481
2013    24      3       0.4474337       103.6798
2013    24      4       0.580657        126.3644
2013    24      5       0.6607274       138.8892
2013    24      6       0.5001854       113.6795
2013    24      7       0.3504672       86.76434
2013    25      0       0.4070568       97.87332
2013    25      1       0.3993686       96.47378
2013    25      2       0.2583368       68.0323
2013    25      3       0.1885396       52.4162
2013    25      4       0.2618987       68.81362
2013    25      5       0.2697766       70.58331
2013    25      6       0.183558        51.31071
2013    25      7       0.1495023       43.17781
2013    26      0       0.1563856       44.73998
2013    26      1       0.1666894       47.11584
2013    26      2       0.1593435       45.43829
2013    26      3       0.1608218       45.90165
2013    26      4       0.2311367       62.05214
2013    26      5       0.2564034       67.58789
2013    26      6       0.1644098       46.81778
2013    26      7       0.1179587       35.61058
2013    27      0       0.1117787       34.09812
2013    27      1       0.1116399       34.08041
2013    27      2       0.1249874       37.43291
2013    27      3       0.1558602       44.96478
2013    27      4       0.267908        70.28577
2013    27      5       0.3277555       82.54039
2013    27      6       0.2158328       58.71792
2013    27      7       0.1518376       43.76851
2013    28      0       0.1869075       51.99927
2013    28      1       0.2646995       69.34155
2013    28      2       0.250014        66.14452
2013    28      3       0.2156313       58.59698
2013    28      4       0.318479        80.47515
2013    28      5       0.2735533       71.11724
2013    28      6       0.1753717       49.21333
2013    28      7       0.2625069       68.87806
2013    29      0       0.3198053       80.79353
2013    29      1       0.3645505       89.48366
2013    29      2       0.3292636       82.46711
2013    29      3       0.2250375       60.33513
2013    29      4       0.3174415       79.85946
2013    29      5       0.3153133       79.11959
2013    29      6       0.5185982       116.0387
2013    29      7       0.457847        106.7563
2013    30      0       0.1202063       35.96304
2013    30      1       0.1457214       41.94441
2013    30      2       0.1459386       41.96311
2013    30      3       0.1260068       37.1333
2013    30      4       0.1953454       53.20667
2013    30      5       0.3226664       79.97045
2013    30      6       0.2968218       75.33486
2013    30      7       0.3378968       83.72544
2014    1       0       0.3524647       84.57165
2014    1       1       0.3379908       81.5813
2014    1       2       0.3353972       80.58969
2014    1       3       0.372162        87.53469
2014    1       4       0.4877216       107.8086
2014    1       5       0.4226667       97.02565
2014    1       6       0.3599202       85.83636
2014    1       7       0.4050607       93.6553
2014    2       0       0.4091534       93.69184
2014    2       1       0.4525485       101.9559
2014    2       2       0.7262011       142.902
2014    2       3       0.9767228       170.7482
2014    2       4       0.8835835       162.1597
2014    2       5       0.8172324       155.173
2014    2       6       1.064149        180.299
2014    2       7       0.8380401       158.5533
2014    3       0       0.7541694       148.7751
2014    3       1       0.812118        155.2904
2014    3       2       1.039658        177.9883
2014    3       3       1.134365        188.0097
2014    3       4       0.9754131       172.8563
2014    3       5       0.7419757       146.3705
2014    3       6       0.7311999       145.4415
2014    3       7       0.6041006       129.2847
2014    4       0       0.3390458       84.16374
2014    4       1       0.2757262       71.05818
2014    4       2       0.2473521       64.8186
2014    4       3       0.3057424       76.58705
2014    4       4       0.4562144       104.3332
2014    4       5       0.7846586       152.5521
2014    4       6       0.9443418       169.4504
2014    4       7       0.8885963       161.9757
2014    5       0       0.8605641       159.1514
2014    5       1       0.6663105       136.313
2014    5       2       0.5062094       112.2397
2014    5       3       0.447718        102.7758
2014    5       4       0.5032659       112.0521
2014    5       5       0.5252797       115.3336
2014    5       6       0.5089579       112.5617
2014    5       7       0.5247052       115.0341
2014    6       0       0.5609494       120.5883
2014    6       1       0.5794719       123.2323
2014    6       2       0.5279942       115.1541
2014    6       3       0.5346575       116.1492
2014    6       4       0.5902409       124.232
2014    6       5       0.5785131       122.8907
2014    6       6       0.5577249       120.3316
2014    6       7       0.5387891       117.6357
2014    7       0       0.5922986       125.6449
2014    7       1       0.659007        135.1936
2014    7       2       0.7001297       140.592
2014    7       3       0.771209        149.4771
2014    7       4       0.7853802       151.0677
2014    7       5       0.7787326       150.5796
2014    7       6       0.7126999       142.1176
2014    7       7       0.5989078       125.8776
2014    8       0       0.5051924       111.2771
2014    8       1       0.5253038       114.6935
2014    8       2       0.6372332       131.8133
2014    8       3       0.7151195       142.1031
2014    8       4       0.8725383       160.5999
2014    8       5       0.9369917       167.2145
2014    8       6       0.6442977       131.9469
2014    8       7       0.5895125       124.4108
2014    9       0       0.59814         125.6061
2014    9       1       0.6542393       133.0528
2014    9       2       0.7611308       146.4681
2014    9       3       0.8332381       155.5442
2014    9       4       0.9531033       169.6361
2014    9       5       0.9424          168.8329
2014    9       6       0.734985        145.0697
2014    9       7       0.6196351       129.4175
2014    10      0       0.5559707       119.8258
2014    10      1       0.5285945       115.349
2014    10      2       0.5640444       120.6566
2014    10      3       0.5200522       114.0879
2014    10      4       0.6313648       131.2405
2014    10      5       0.6972008       140.5031
2014    10      6       0.5577385       120.5658
2014    10      7       0.4608481       104.8546
2014    11      0       0.443252        101.7343
2014    11      1       0.4464344       102.0871
2014    11      2       0.5250127       114.7954
2014    11      3       0.6172435       128.6962
2014    11      4       0.7827414       150.913
2014    11      5       0.8456788       158.4319
2014    11      6       0.7125696       142.0198
2014    11      7       0.5431307       117.372
2014    12      0       0.4422994       100.7546
2014    12      1       0.4094811       95.34508
2014    12      2       0.4533498       103.673
2014    12      3       0.5505982       119.7969
2014    12      4       0.6242502       130.5463
2014    12      5       0.5680431       121.8572
2014    12      6       0.4497079       102.2982
2014    12      7       0.3853344       91.22813
2014    13      0       0.322263        79.84597
2014    13      1       0.2630098       68.09919
2014    13      2       0.2285388       60.79335
2014    13      3       0.1959356       53.55437
2014    13      4       0.167049        46.9382
2014    13      5       0.1289382       37.80793
2014    13      6       0.09595239      29.568
2014    13      7       0.1139686       34.09221
2014    14      0       0.1719227       47.96054
2014    14      1       0.2283084       60.6425
2014    14      2       0.2690237       69.40892
2014    14      3       0.3911244       93.55897
2014    14      4       0.4692704       107.5196
2014    14      5       0.5207556       116.0944
2014    14      6       0.5601358       122.3219
2014    14      7       0.5551115       121.2666
2014    15      0       0.5871165       125.6615
2014    15      1       0.6454962       133.3908
2014    15      2       0.6201563       129.9417
2014    15      3       0.5958955       126.5284
2014    15      4       0.6485049       134.1234
2014    15      5       0.7149649       142.7663
2014    15      6       0.6292975       131.2851
2014    15      7       0.5128004       113.8127
2014    16      0       0.4908858       110.0998
2014    16      1       0.4387169       101.0594
2014    16      2       0.3664168       88.00569
2014    16      3       0.3825581       91.13295
2014    16      4       0.4843963       109.4571
2014    16      5       0.5067968       113.4237
2014    16      6       0.4334878       101.0417
2014    16      7       0.3182311       79.24871
2014    17      0       0.281023        71.67805
2014    17      1       0.3730787       90.06095
2014    17      2       0.4246076       99.64679
2014    17      3       0.5137702       114.6983
2014    17      4       0.6515582       135.227
2014    17      5       0.7186676       144.8008
2014    17      6       0.6814007       139.9652
2014    17      7       0.6106451       129.8167
2014    18      0       0.666003        137.1094
2014    18      1       0.7063089       143.0157
2014    18      2       0.6017074       128.9148
2014    18      3       0.638656        134.5279
2014    18      4       0.7940854       155.3689
2014    18      5       0.8443176       161.3431
2014    18      6       0.7667743       150.8168
2014    18      7       0.647877        134.3699
2014    19      0       0.4977552       112.1873
2014    19      1       0.5843297       125.5934
2014    19      2       0.6269442       131.623
2014    19      3       0.5987167       128.1699
2014    19      4       0.5159319       115.761
2014    19      5       0.3155744       79.47856
2014    19      6       0.139957        40.30615
2014    19      7       0.1366604       39.29098
2014    20      0       0.1710858       47.1808
2014    20      1       0.2131746       57.03903
2014    20      2       0.436991        101.0457
2014    20      3       0.4877733       109.8211
2014    20      4       0.5580349       121.0334
2014    20      5       0.5821938       124.6008
2014    20      6       0.5826763       124.8495
2014    20      7       0.5470609       119.327
2014    21      0       0.5267643       116.056
2014    21      1       0.4956249       111.2364
2014    21      2       0.5040077       112.5228
2014    21      3       0.4984121       111.6171
2014    21      4       0.5281945       116.7473
2014    21      5       0.5109131       113.9928
2014    21      6       0.4236122       99.12665
2014    21      7       0.3217385       79.88792
2014    22      0       0.3481337       85.04349
2014    22      1       0.3708736       89.37284
2014    22      2       0.3831353       91.81368
2014    22      3       0.436956        101.7493
2014    22      4       0.4914689       111.2806
2014    22      5       0.4971198       112.3571
2014    22      6       0.4822025       109.8622
2014    22      7       0.4580697       105.7093
2014    23      0       0.44456         103.2819
2014    23      1       0.3107069       78.01571
2014    23      2       0.1524834       43.54541
2014    23      3       0.1131579       34.05818
2014    23      4       0.1050309       32.01721
2014    23      5       0.1082769       32.85212
2014    23      6       0.1054699       32.14297
2014    23      7       0.1017507       31.18628
2014    24      0       0.1168398       34.77841
2014    24      1       0.1494235       42.37503
2014    24      2       0.1419636       40.69507
2014    24      3       0.1290789       37.84049
2014    24      4       0.1758019       48.93474
2014    24      5       0.2327579       61.74189
2014    24      6       0.3125365       78.82566
2014    24      7       0.4733639       109.4585
2014    25      0       0.40515         97.08623
2014    25      1       0.3516561       86.59566
2014    25      2       0.4034306       96.42166
2014    25      3       0.4680352       108.0951
2014    25      4       0.4488541       104.7791
2014    25      5       0.4144897       98.85172
2014    25      6       0.5114696       115.7416
2014    25      7       1.05066         186.6472
2014    26      0       0.571088        124.6476
2014    26      1       0.6007247       129.0616
2014    26      2       0.6937433       142.2942
2014    26      3       0.6943986       142.5088
2014    26      4       0.652212        136.4745
2014    26      5       0.6121701       130.8414
2014    26      6       0.6023534       129.5956
2014    26      7       0.5998239       129.0918
2014    27      0       0.5775456       125.55
2014    27      1       0.5645913       123.5083
2014    27      2       0.5451482       120.3995
2014    27      3       0.5515839       121.1436
2014    27      4       0.5363766       118.7775
2014    27      5       0.5155563       115.567
2014    27      6       0.4584354       106.2283
2014    27      7       0.4163354       98.85333
2014    28      0       0.3245171       81.21203
2014    28      1       0.282734        72.95636
2014    28      2       0.1903548       52.90716
2014    28      3       0.1498101       43.36991
2014    28      4       0.1524743       43.98232
2014    28      5       0.1981625       54.68987
2014    28      6       0.249698        66.23942
2014    28      7       0.3492794       86.81393
2014    29      0       0.3531135       87.53833
2014    29      1       0.2995421       76.67558
2014    29      2       0.2235759       60.37988
2014    29      3       0.1702731       48.17249
2014    29      4       0.1708334       48.23006
2014    29      5       0.1697816       47.88951
2014    29      6       0.1570745       44.78687
2014    29      7       0.1443622       41.7619
2014    30      0       0.1360544       39.84618
2014    30      1       0.1244512       37.06582
2014    30      2       0.1164523       35.1445
2014    30      3       0.1074397       32.90796
2014    30      4       0.1120458       34.03997
2014    30      5       0.1206206       36.11174
2014    30      6       0.1443989       41.68791
2014    30      7       0.2665542       68.90289
2015    1       0       0.1557904       43.33185
2015    1       1       0.1707021       46.73629
2015    1       2       0.2308809       60.03837
2015    1       3       0.2808352       70.46938
2015    1       4       0.3579          85.6538
2015    1       5       0.4060929       94.59633
2015    1       6       0.3618869       86.41533
2015    1       7       0.3404501       82.22673
2015    2       0       0.2974411       73.63981
2015    2       1       0.2733682       68.63495
2015    2       2       0.3042712       74.85229
2015    2       3       0.3431469       82.40232
2015    2       4       0.4661069       104.5394
2015    2       5       0.6514778       133.396
2015    2       6       0.5901899       124.5965
2015    2       7       0.5261591       114.6998
2015    3       0       0.5147637       112.7912
2015    3       1       0.5347112       116.0191
2015    3       2       0.5665145       120.9872
2015    3       3       0.6903605       137.8338
2015    3       4       0.7227495       141.8698
2015    3       5       0.7271082       141.7487
2015    3       6       0.6684273       134.4973
2015    3       7       0.7388856       143.7875
2015    4       0       0.584152        122.6326
2015    4       1       0.6019395       125.1497
2015    4       2       0.6042302       125.9806
2015    4       3       0.6668504       135.2582
2015    4       4       0.7193524       142.8972
2015    4       5       0.7444074       146.3874
2015    4       6       0.7259777       143.7607
2015    4       7       0.7963158       152.5713
2015    5       0       0.8398152       157.5845
2015    5       1       0.7740495       149.4934
2015    5       2       0.690608        138.4602
2015    5       3       0.5592685       119.6975
2015    5       4       0.524164        114.2562
2015    5       5       0.5236638       114.1442
2015    5       6       0.5658233       120.9344
2015    5       7       0.5853936       124.406
2015    6       0       0.5779395       123.3981
2015    6       1       0.5633123       120.9864
2015    6       2       0.6324495       131.1099
2015    6       3       0.7294835       144.6474
2015    6       4       0.9391098       170.246
2015    6       5       1.044374        180.9541
2015    6       6       0.8731625       162.7079
2015    6       7       0.7773314       150.6678
2015    7       0       0.6859863       138.7991
2015    7       1       0.6316202       131.2909
2015    7       2       0.8484789       159.6389
2015    7       3       0.9235222       167.5216
2015    7       4       1.069324        182.0176
2015    7       5       0.9606445       171.1459
2015    7       6       0.7043499       140.8185
2015    7       7       0.5710329       121.7543
2015    8       0       0.5356974       116.1029
2015    8       1       0.5518768       118.6027
2015    8       2       0.6035824       125.9513
2015    8       3       0.6358815       130.6345
2015    8       4       0.8719787       160.3773
2015    8       5       0.9416382       167.6045
2015    8       6       0.9222297       166.0439
2015    8       7       0.7414645       145.0105
2015    9       0       0.6087003       126.9997
2015    9       1       0.6006946       125.8468
2015    9       2       0.640227        131.1355
2015    9       3       0.5959666       125.055
2015    9       4       0.7391153       145.0607
2015    9       5       0.7502213       146.3526
2015    9       6       0.6627378       134.7496
2015    9       7       0.6282642       129.8145
2015    10      0       0.5718752       121.6815
2015    10      1       0.5139727       112.6835
2015    10      2       0.5556645       119.0845
2015    10      3       0.5750491       122.2829
2015    10      4       0.684704        138.2276
2015    10      5       0.7168342       142.7783
2015    10      6       0.588624        124.7735
2015    10      7       0.591799        124.8148
2015    11      0       0.6637367       134.9198
2015    11      1       0.6634284       134.7137
2015    11      2       0.6454919       132.355
2015    11      3       0.715235        142.5108
2015    11      4       0.7960806       152.8495
2015    11      5       0.7234925       143.6834
2015    11      6       0.6367673       131.9335
2015    11      7       0.675861        137.5591
2015    12      0       0.6384897       132.3201
2015    12      1       0.5618458       120.893
2015    12      2       0.57841         123.5883
2015    12      3       0.6171607       129.583
2015    12      4       0.5978708       126.7454
2015    12      5       0.585912        124.9562
2015    12      6       0.5698086       122.7879
2015    12      7       0.5846333       125.3907
2015    13      0       0.5944817       126.9203
2015    13      1       0.5247163       116.0868
2015    13      2       0.357109        86.60341
2015    13      3       0.2596319       67.01361
2015    13      4       0.2413605       63.24278
2015    13      5       0.2364627       62.31133
2015    13      6       0.2943812       74.6131
2015    13      7       0.3963199       94.49185
2015    14      0       0.458335        105.4185
2015    14      1       0.5044607       112.8712
2015    14      2       0.5104186       113.6382
2015    14      3       0.4754705       107.9272
2015    14      4       0.3630218       87.99715
2015    14      5       0.238286        62.5979
2015    14      6       0.2477822       64.6742
2015    14      7       0.2974586       74.7409
2015    15      0       0.4129498       96.74625
2015    15      1       0.4731078       107.7699
2015    15      2       0.5272858       116.9213
2015    15      3       0.5439325       119.8528
2015    15      4       0.6253607       132.3068
2015    15      5       0.640919        135.0421
2015    15      6       0.4624103       107.0022
2015    15      7       0.3354431       83.4325
2015    16      0       0.2827176       72.67002
2015    16      1       0.3079309       77.86377
2015    16      2       0.4088713       97.59878
2015    16      3       0.4308401       101.5412
2015    16      4       0.4338106       102.4238
2015    16      5       0.4548491       106.5936
2015    16      6       0.4111349       98.72821
2015    16      7       0.3597156       88.98378
2015    17      0       0.3400547       85.05818
2015    17      1       0.3022189       77.22072
2015    17      2       0.2925776       75.0187
2015    17      3       0.370361        90.51885
2015    17      4       0.473659        109.2919
2015    17      5       0.5164576       116.578
2015    17      6       0.4550639       105.735
2015    17      7       0.3621402       88.74998
2015    18      0       0.3483375       86.48589
2015    18      1       0.3583438       88.22817
2015    18      2       0.2334368       62.13449
2015    18      3       0.2586838       67.40558
2015    18      4       0.4875342       110.6909
2015    18      5       0.6598234       136.9569
2015    18      6       0.5305276       117.5604
2015    18      7       0.5191282       115.3315
2015    19      0       0.520763        114.6802
2015    19      1       0.6861115       137.9851
2015    19      2       0.8802019       163.5749
2015    19      3       1.145674        190.7096
2015    19      4       1.02241         179.4261
2015    19      5       0.762061        150.1394
2015    19      6       0.6980711       141.5787
2015    19      7       0.6859432       139.5597
2015    20      0       0.6173305       129.6121
2015    20      1       0.5146415       113.7929
2015    20      2       0.5159858       114.0244
2015    20      3       0.5729289       123.0232
2015    20      4       0.6623998       136.4006
2015    20      5       0.6828864       139.711
2015    20      6       0.6422081       134.0498
2015    20      7       0.5425539       119.0705
2015    21      0       0.493522        111.0013
2015    21      1       0.4797119       108.4096
2015    21      2       0.4096247       96.16271
2015    21      3       0.3638294       87.86759
2015    21      4       0.4571177       104.9142
2015    21      5       0.5070718       113.4143
2015    21      6       0.3731334       89.87783
2015    21      7       0.3322412       81.8915
2015    22      0       0.3530114       85.7862
2015    22      1       0.372825        89.4102
2015    22      2       0.5447698       119.0735
2015    22      3       0.4724552       106.9821
2015    22      4       0.6024114       127.5889
2015    22      5       0.6609543       136.2646
2015    22      6       0.4696945       106.8547
2015    22      7       0.3483434       84.76266
2015    23      0       0.4298346       99.8159
2015    23      1       0.4800492       108.597
2015    23      2       0.4659296       106.4169
2015    23      3       0.4296904       100.2551
2015    23      4       0.3769192       90.72203
2015    23      5       0.2736496       70.47499
2015    23      6       0.3011334       76.22402
2015    23      7       0.2787146       71.64252
2015    24      0       0.2182843       58.68429
2015    24      1       0.2436088       63.99476
2015    24      2       0.242932        63.57569
2015    24      3       0.224719        59.45259
2015    24      4       0.2822432       71.77018
2015    24      5       0.2454542       63.94703
2015    24      6       0.2561909       66.03925
2015    24      7       0.2736263       69.61023
2015    25      0       0.3790609       89.95573
2015    25      1       0.5195138       114.6823
2015    25      2       0.5822044       124.9584
2015    25      3       0.5637696       122.5673
2015    25      4       0.5156604       115.3788
2015    25      5       0.4903514       111.2548
2015    25      6       0.4902556       111.2394
2015    25      7       0.4477623       104.0693
2015    26      0       0.3611665       87.68562
2015    26      1       0.3122945       77.55049
2015    26      2       0.4515265       103.6903
2015    26      3       0.6490249       134.4915
2015    26      4       0.7255835       144.7398
2015    26      5       0.7268423       145.0253
2015    26      6       0.5863381       124.4282
2015    26      7       0.5142951       113.0593
2015    27      0       0.4069624       94.19227
2015    27      1       0.2905187       72.47719
2015    27      2       0.4534114       102.7861
2015    27      3       0.5184333       113.7994
2015    27      4       0.9553479       170.2386
2015    27      5       1.162123        189.5383
2015    27      6       0.8501166       157.2807
2015    27      7       0.7677728       146.7023
2015    28      0       0.6614784       133.6261
2015    28      1       0.4800121       107.3136
2015    28      2       0.6943054       140.448
2015    28      3       0.797384        154.016
2015    28      4       0.4927609       109.9928
2015    28      5       0.4545383       102.8899
2015    28      6       0.4790032       105.929
2015    28      7       0.5551859       117.2712
2015    29      0       0.5639907       119.4733
2015    29      1       0.6291831       128.6737
2015    29      2       0.7532265       144.7706
2015    29      3       0.8236007       153.2855
2015    29      4       0.8081794       151.9852
2015    29      5       0.6839335       137.1885
2015    29      6       0.591757        124.7555
2015    29      7       0.5586956       120.0308
2015    30      0       0.5022842       111.1763
2015    30      1       0.5025617       111.0708
2015    30      2       0.5392617       117.0759
2015    30      3       0.5682631       121.8577
2015    30      4       0.635306        132.1456
2015    30      5       0.6611928       135.9212
2015    30      6       0.5986371       126.6933
2015    30      7       0.5730806       122.5415
2016    1       0       0.7290406       145.9558
2016    1       1       0.675253        137.6126
2016    1       2       0.6113938       128.4627
2016    1       3       0.7619572       148.9683
2016    1       4       0.6745858       137.6302
2016    1       5       0.6223213       131.1336
2016    1       6       0.6077226       129.6209
2016    1       7       0.6066981       128.5324
2016    2       0       0.5374199       118.2754
2016    2       1       0.6466093       134.4277
2016    2       2       0.637898        133.1804
2016    2       3       0.6663505       136.2913
2016    2       4       0.7319864       145.559
2016    2       5       0.7315708       146.2956
2016    2       6       0.7107767       143.7969
2016    2       7       0.7626189       151.467
2016    3       0       1.133026        188.9944
2016    3       1       0.8501852       160.3069
2016    3       2       0.7077265       140.8795
2016    3       3       0.604022        127.4621
2016    3       4       0.416984        98.59141
2016    3       5       0.6381532       131.7097
2016    3       6       0.4593182       106.1007
2016    3       7       0.4324175       101.1371
2016    4       0       0.2945904       74.30539
2016    4       1       0.1808222       49.06527
2016    4       2       0.1770993       48.20487
2016    4       3       0.2235003       57.88584
2016    4       4       0.209805        55.51861
2016    4       5       0.2292955       59.75504
2016    4       6       0.2798454       70.28265
2016    4       7       0.2715011       68.98492
2016    5       0       0.2462217       64.11206
2016    5       1       0.3080945       76.71585
2016    5       2       0.3509534       84.97861
2016    5       3       0.4358751       100.2856
2016    5       4       0.5059544       112.792
2016    5       5       0.5272306       115.986
2016    5       6       0.5140494       113.553
2016    5       7       0.6885851       139.8037
2016    6       0       0.7205598       143.4986
2016    6       1       0.5653076       121.8812
2016    6       2       0.6977178       140.7142
2016    6       3       0.8882036       164.1522
2016    6       4       0.8596541       159.5793
2016    6       5       0.7644698       149.8188
2016    6       6       0.6301204       132.0031
2016    6       7       0.539837        118.0757
2016    7       0       0.4677964       106.0795
2016    7       1       0.37024         88.63575
2016    7       2       0.2781375       70.63854
2016    7       3       0.2699904       69.09105
2016    7       4       0.3790746       90.64707
2016    7       5       0.5119049       113.4291
2016    7       6       0.4340011       100.0206
2016    7       7       0.3869339       91.72505
2016    8       0       0.4528002       103.3572
2016    8       1       0.5711142       122.2158
2016    8       2       0.6775049       137.0081
2016    8       3       0.6698306       135.5486
2016    8       4       0.5810574       122.6037
2016    8       5       0.5187556       113.1493
2016    8       6       0.5242289       114.0474
2016    8       7       0.4780127       106.8515
2016    9       0       0.2223612       58.30734
2016    9       1       0.2001209       53.65959
2016    9       2       0.1677356       46.45442
2016    9       3       0.2641914       67.52744
2016    9       4       0.3647745       87.29812
2016    9       5       0.3297455       80.43488
2016    9       6       0.2505184       64.29893
2016    9       7       0.2462756       63.36239
2016    10      0       0.2624087       66.49258
2016    10      1       0.3225853       77.99097
2016    10      2       0.4363862       98.97688
2016    10      3       0.5141083       112.1906
2016    10      4       0.5461127       117.3036
2016    10      5       0.5224023       114.063
2016    10      6       0.4920231       108.6144
2016    10      7       0.4842369       106.4349
2016    11      0       0.483997        106.849
2016    11      1       0.4077636       94.10136
2016    11      2       0.3978936       92.16298
2016    11      3       0.3860023       90.31026
2016    11      4       0.4696391       105.7932
2016    11      5       0.4543655       103.8675
2016    11      6       0.2789162       71.10794
2016    11      7       0.2085306       56.20075
2016    12      0       0.2054552       55.52597
2016    12      1       0.2053032       55.48185
2016    12      2       0.2141694       57.20896
2016    12      3       0.2153594       57.44386
2016    12      4       0.2393675       62.74903
2016    12      5       0.324872        80.37227
2016    12      6       0.3426884       83.35361
2016    12      7       0.5534804       120.1191
2016    13      0       0.6406933       133.2671
2016    13      1       0.4989703       112.366
2016    13      2       0.5811373       124.6788
2016    13      3       0.8548828       159.7005
2016    13      4       1.100846        184.0868
2016    13      5       1.012967        175.2238
2016    13      6       0.9857012       173.4077
2016    13      7       1.249924        197.3276
2016    14      0       0.9267487       167.7451
2016    14      1       0.800216        153.419
2016    14      2       0.6087834       128.2627
2016    14      3       0.4319438       99.95592
2016    14      4       0.3241578       80.38164
2016    14      5       0.3498915       85.46954
2016    14      6       0.3947376       93.32036
2016    14      7       0.4174524       97.77704
2016    15      0       0.3419697       84.09012
2016    15      1       0.2985024       75.47647
2016    15      2       0.1953158       53.50509
2016    15      3       0.1208343       35.95964
2016    15      4       0.1311115       38.52422
2016    15      5       0.178173        49.67439
2016    15      6       0.3739913       91.13349
2016    15      7       0.4310175       101.888
2016    16      0       0.4210297       100.0584
2016    16      1       0.3424641       85.17023
2016    16      2       0.2563465       67.21923
2016    16      3       0.2572946       67.42351
2016    16      4       0.3855716       93.67404
2016    16      5       0.2832883       72.96636
2016    16      6       0.2987357       76.30139
2016    16      7       0.3264705       81.88756
2016    17      0       0.3085149       78.25628
2016    17      1       0.2942131       75.2981
2016    17      2       0.31559         79.72249
2016    17      3       0.427359        100.7471
2016    17      4       0.5242274       117.5778
2016    17      5       0.4565894       106.2739
2016    17      6       0.3375742       83.8613
2016    17      7       0.4004119       96.13059
2016    18      0       0.5243682       118.267
2016    18      1       0.5805072       127.2594
2016    18      2       0.5354573       119.793
2016    18      3       0.6072128       130.3721
2016    18      4       0.5643317       124.0035
2016    18      5       0.4825886       110.4557
2016    18      6       0.4715378       108.5883
2016    18      7       0.4866118       111.5167
2016    19      0       0.5046397       114.6986
2016    19      1       0.512392        115.9404
2016    19      2       0.4721181       108.9745
2016    19      3       0.4319811       101.5634
2016    19      4       0.4397325       103.1064
2016    19      5       0.4063877       97.21318
2016    19      6       0.3146747       79.34561
2016    19      7       0.3683856       90.37255
2016    20      0       0.4169846       99.59637
2016    20      1       0.4222457       100.5077
2016    20      2       0.3925354       95.00686
2016    20      3       0.3628157       89.43766
2016    20      4       0.3585546       88.81239
2016    20      5       0.3953539       96.12242
2016    20      6       0.3372395       84.87267
2016    20      7       0.2853361       74.19233
2016    21      0       0.2879266       74.70181
2016    21      1       0.3541903       88.13059
2016    21      2       0.4135964       99.61128
2016    21      3       0.4108902       99.29063
2016    21      4       0.4110768       99.44856
2016    21      5       0.4281708       102.7561
2016    21      6       0.4262827       102.3735
2016    21      7       0.3465629       86.87132
2016    22      0       0.2780055       72.64026
2016    22      1       0.1920587       53.482
2016    22      2       0.1640991       46.83734
2016    22      3       0.1543717       44.42074
2016    22      4       0.1176844       35.37529
2016    22      5       0.1071497       32.63732
2016    22      6       0.1266982       37.40059
2016    22      7       0.1317266       38.66024
2016    23      0       0.1662734       46.92095
2016    23      1       0.1929464       52.97634
2016    23      2       0.1756763       48.86893
2016    23      3       0.1711545       47.82006
2016    23      4       0.2046347       55.55907
2016    23      5       0.2365159       62.7148
2016    23      6       0.2708877       70.18891
2016    23      7       0.3265774       81.65294
2016    24      0       0.3380289       83.91307
2016    24      1       0.3580036       87.88955
2016    24      2       0.3677772       89.67052
2016    24      3       0.3322959       82.458
2016    24      4       0.3631123       88.69424
2016    24      5       0.4875375       111.8032
2016    24      6       0.4137774       98.86948
2016    24      7       0.4332526       102.0891
2016    25      0       0.490635        111.7692
2016    25      1       0.6228671       133.4326
2016    25      2       0.8471356       162.9482
2016    25      3       0.683735        141.8207
2016    25      4       0.4187309       98.95485
2016    25      5       0.3071215       77.09516
2016    25      6       0.3844633       92.63147
2016    25      7       0.4336409       101.3787
2016    26      0       0.382411        91.85103
2016    26      1       0.3970201       94.48141
2016    26      2       0.5840633       125.9914
2016    26      3       0.3438976       84.39985
2016    26      4       0.4901665       111.42
2016    26      5       0.8481788       162.6343
2016    26      6       0.8495081       162.3853
2016    26      7       0.582066        126.1727
2016    27      0       0.5318112       118.0506
2016    27      1       0.4112813       97.46565
2016    27      2       0.5376829       119.2812
2016    27      3       0.5140086       115.5723
2016    27      4       0.5717545       124.9834
2016    27      5       0.5566147       123.1357
2016    27      6       0.4664767       108.426
2016    27      7       0.381432        92.83075
2016    28      0       0.4161203       99.24759
2016    28      1       0.3564974       87.76712
2016    28      2       0.4398156       102.5751
2016    28      3       0.5984212       128.3335
2016    28      4       0.7827173       153.9473
2016    28      5       0.6669694       138.881
2016    28      6       0.4955152       112.5513
2016    28      7       0.4861768       110.4391
2016    29      0       0.5065989       113.8568
2016    29      1       0.4922568       111.2246
2016    29      2       0.4442915       102.817
2016    29      3       0.3755745       90.68556
2016    29      4       0.6419108       134.7965
2016    29      5       0.7315707       147.3342
2016    29      6       0.6063908       130.035
2016    29      7       0.3936708       94.59419
2016    30      0       0.4148306       98.488
2016    30      1       0.3944655       94.74134
2016    30      2       0.3866493       93.375
2016    30      3       0.4101595       97.84017
2016    30      4       0.5061912       114.8986
2016    30      5       0.4987161       113.9264
2016    30      6       0.4464385       105.0559
2016    30      7       0.4196498       100.3167
2017    1       0       0.1903922       51.65556
2017    1       1       0.1817437       49.35262
2017    1       2       0.3114742       76.88839
2017    1       3       0.3529316       84.88523
2017    1       4       0.3954427       93.04394
2017    1       5       0.458715        104.7611
2017    1       6       0.5152449       114.806
2017    1       7       0.5811116       125.4601
2017    2       0       0.5549487       121.3969
2017    2       1       0.5124748       114.6492
2017    2       2       0.4904169       111.1555
2017    2       3       0.4508419       104.5635
2017    2       4       0.4702298       107.8039
2017    2       5       0.5284039       117.1276
2017    2       6       0.356299        86.74636
2017    2       7       0.3352347       82.34926
2017    3       0       0.3595322       86.19044
2017    3       1       0.5982797       126.3312
2017    3       2       0.6852686       137.0144
2017    3       3       0.3742555       87.02793
2017    3       4       0.3996545       92.30119
2017    3       5       0.5267243       114.014
2017    3       6       0.6692803       136.2552
2017    3       7       0.6511274       134.3144
2017    4       0       0.6958749       139.8419
2017    4       1       0.7767493       149.9053
2017    4       2       0.5964684       125.9058
2017    4       3       0.5101835       112.3774
2017    4       4       0.6310586       130.9751
2017    4       5       0.7264458       144.0734
2017    4       6       0.6119915       128.1789
2017    4       7       0.3931888       92.60887
2017    5       0       0.3816411       90.52929
2017    5       1       0.3871941       91.67464
2017    5       2       0.3986903       93.73765
2017    5       3       0.4029415       94.65409
2017    5       4       0.5290637       116.6443
2017    5       5       0.5875754       126.2183
2017    5       6       0.4716331       107.4869
2017    5       7       0.3348544       82.20645
2017    6       0       0.3640585       87.51569
2017    6       1       0.3463595       84.45436
2017    6       2       0.3881339       91.83792
2017    6       3       0.5562966       119.2574
2017    6       4       0.5480334       118.2095
2017    6       5       1.083372        184.9597
2017    6       6       0.9213583       169.4748
2017    6       7       0.7035959       143.5353
2017    7       0       0.6905046       140.8984
2017    7       1       0.6997233       141.6016
2017    7       2       0.9076382       165.5413
2017    7       3       0.6823521       139.5031
2017    7       4       0.9448631       170.2524
2017    7       5       0.9369543       169.9928
2017    7       6       0.7207399       144.2887
2017    7       7       0.812783        155.6775
2017    8       0       0.991305        175.2041
2017    8       1       1.146243        189.7591
2017    8       2       1.112757        186.4508
2017    8       3       0.4850286       108.5686
2017    8       4       0.5893467       125.0126
2017    8       5       0.6806497       138.7292
2017    8       6       0.6405304       133.3161
2017    8       7       0.670054        136.9553
2017    9       0       0.7333359       146.0411
2017    9       1       0.6184207       130.7036
2017    9       2       0.4669693       107.2609
2017    9       3       0.4956557       112.4098
2017    9       4       0.6510803       136.5179
2017    9       5       0.6948785       142.8243
2017    9       6       0.371407        90.24166
2017    9       7       0.1786205       49.45472
2017    10      0       0.2212529       59.25506
2017    10      1       0.3471389       85.64159
2017    10      2       0.412624        98.01434
2017    10      3       0.4468419       103.9398
2017    10      4       0.4716574       108.1468
2017    10      5       0.4001645       95.61237
2017    10      6       0.2757842       71.23656
2017    10      7       0.2557501       66.93815
2017    11      0       0.2294061       61.02726
2017    11      1       0.2102636       56.601
2017    11      2       0.2312355       61.24953
2017    11      3       0.2838356       72.5189
2017    11      4       0.4948338       111.6058
2017    11      5       0.6244864       131.6825
2017    11      6       0.6054941       128.3457
2017    11      7       0.6425552       132.9089
2017    12      0       0.7521257       146.5978
2017    12      1       0.6898798       138.8358
2017    12      2       0.793366        151.6581
2017    12      3       0.9361884       166.7203
2017    12      4       1.093877        180.8285
2017    12      5       1.100085        181.4704
2017    12      6       0.8335115       155.7256
2017    12      7       0.844442        157.357
2017    13      0       0.8298355       156.4086
2017    13      1       0.8087023       153.7086
2017    13      2       0.8044681       152.8235
2017    13      3       0.6584976       134.3835
2017    13      4       0.6007551       126.4569
2017    13      5       0.57211         122.5668
2017    13      6       0.5454238       119.1143
2017    13      7       0.457635        105.0379
2017    14      0       0.499719        112.0948
2017    14      1       0.3437081       83.32998
2017    14      2       0.3434359       83.87783
2017    14      3       0.4571415       104.9934
2017    14      4       0.4628892       106.1739
2017    14      5       0.5921664       127.8066
2017    14      6       0.6424076       134.9182
2017    14      7       0.7183192       145.6857
2017    15      0       0.4917183       110.6753
2017    15      1       0.3767656       90.02683
2017    15      2       0.3792731       90.91062
2017    15      3       0.4053557       95.53503
2017    15      4       0.5255713       116.8793
2017    15      5       0.6288523       133.2978
2017    15      6       0.6302618       133.7006
2017    15      7       0.5893385       127.4572
2017    16      0       0.506261        114.0361
2017    16      1       0.4320407       101.0283
2017    16      2       0.4212161       99.05997
2017    16      3       0.4612542       106.3435
2017    16      4       0.5768329       125.4141
2017    16      5       0.6623411       138.1075
2017    16      6       0.5649368       123.5088
2017    16      7       0.561858        122.7317
2017    17      0       0.6200157       131.4604
2017    17      1       0.5478873       120.0027
2017    17      2       0.4824          109.2385
2017    17      3       0.6344205       133.599
2017    17      4       0.773493        152.2049
2017    17      5       0.7198921       145.815
2017    17      6       0.5889669       127.5952
2017    17      7       0.3964847       94.58817
2017    18      0       0.3478065       85.07906
2017    18      1       0.3964379       94.4695
2017    18      2       0.4931957       111.5623
2017    18      3       0.5243032       116.5899
2017    18      4       0.4265229       99.45934
2017    18      5       0.5834208       125.3359
2017    18      6       0.7301346       144.9378
2017    18      7       0.777065        151.3277
2017    19      0       0.4389299       100.416
2017    19      1       0.2897442       72.91154
2017    19      2       0.2628642       67.4207
2017    19      3       0.2844456       71.95044
2017    19      4       0.3363339       82.23779
2017    19      5       0.347078        84.27305
2017    19      6       0.3783735       90.05755
2017    19      7       0.4050182       95.02101
2017    20      0       0.374205        89.42912
2017    20      1       0.487948        109.5725
2017    20      2       0.6591074       136.001
2017    20      3       0.466209        106.1947
2017    20      4       0.4067883       95.85191
2017    20      5       0.4131323       96.92924
2017    20      6       0.3970018       93.33008
2017    20      7       0.3343241       81.03985
2017    21      0       0.4932759       110.0194
2017    21      1       0.5788581       123.8419
2017    21      2       0.5597991       120.9069
2017    21      3       0.5681887       122.212
2017    21      4       0.6352448       132.4003
2017    21      5       0.6267425       131.4303
2017    21      6       0.5146588       114.2769
2017    21      7       0.4382852       101.3717
2017    22      0       0.386026        91.73805
2017    22      1       0.3958608       93.41764
2017    22      2       0.3976049       93.83454
2017    22      3       0.4836292       109.024
2017    22      4       0.6114843       129.2542
2017    22      5       0.5935202       126.8394
2017    22      6       0.4314624       100.5032
2017    22      7       0.3700281       89.20989
2017    23      0       0.3878973       92.61997
2017    23      1       0.4223932       99.04417
2017    23      2       0.4797252       109.2161
2017    23      3       0.5341963       118.2748
2017    23      4       0.5362075       118.6466
2017    23      5       0.5174827       115.8409
2017    23      6       0.4024095       95.91316
2017    23      7       0.3599928       88.02378
2017    24      0       0.3694014       89.80565
2017    24      1       0.4202637       99.12743
2017    24      2       0.4094177       97.15791
2017    24      3       0.3996906       95.32734
2017    24      4       0.4327768       101.4597
2017    24      5       0.4537378       105.401
2017    24      6       0.3566642       87.64032
2017    24      7       0.2050676       55.87247
2017    25      0       0.1938412       53.21014
2017    25      1       0.2032806       55.25347
2017    25      2       0.2575465       67.30954
2017    25      3       0.3809556       92.33114
2017    25      4       0.5638804       123.8479
2017    25      5       0.6255099       133.3424
2017    25      6       0.5443372       120.8477
2017    25      7       0.5175026       116.2857
2017    26      0       0.4767191       109.3756
2017    26      1       0.4649932       107.1882
2017    26      2       0.4641852       107.0253
2017    26      3       0.4831968       110.3438
2017    26      4       0.5794653       126.015
2017    26      5       0.6279817       133.4903
2017    26      6       0.6668009       139.2123
2017    26      7       0.6243005       133.1064
2017    27      0       0.6516888       136.8656
2017    27      1       0.6224188       132.4324
2017    27      2       0.5346068       118.9044
2017    27      3       0.5703507       124.6696
2017    27      4       0.6595468       138.1621
2017    27      5       0.6373488       135.0945
2017    27      6       0.535022        119.5174
2017    27      7       0.4849532       111.3069
2017    28      0       0.4653056       107.887
2017    28      1       0.4781173       110.1541
2017    28      2       0.4998359       113.9285
2017    28      3       0.5361356       120.1677
2017    28      4       0.6365389       135.8792
2017    28      5       0.7123555       146.6637
2017    28      6       0.5492091       122.5065
2017    28      7       0.3792704       92.877
2017    29      0       0.4001462       97.0926
2017    29      1       0.46529         108.9983
2017    29      2       0.5152551       117.5473
2017    29      3       0.5551526       123.8304
2017    29      4       0.6171239       133.1819
2017    29      5       0.7226695       148.2105
2017    29      6       0.5788453       127.3426
2017    29      7       0.5407395       121.5668
2017    30      0       0.6283878       135.438
2017    30      1       0.5965213       130.1289
2017    30      2       0.5003051       114.3713
2017    30      3       0.4163994       99.51386
2017    30      4       0.4378032       103.6183
2017    30      5       0.4104263       98.76618
2017    30      6       0.4130644       99.2622
2017    30      7       0.5509723       123.5905
2018    1       0       0.1930437       51.90707
2018    1       1       0.136459        39.14592
2018    1       2       0.1808677       49.49371
2018    1       3       0.1682117       46.36633
2018    1       4       0.25781         66.46059
2018    1       5       0.3590421       87.1358
2018    1       6       0.2507941       65.18145
2018    1       7       0.2400146       62.9983
2018    2       0       0.3315424       81.94815
2018    2       1       0.6187777       130.7898
2018    2       2       0.7136381       143.9646
2018    2       3       0.7401455       147.4129
2018    2       4       0.8363684       159.28
2018    2       5       0.8311544       158.5748
2018    2       6       0.7211219       144.6581
2018    2       7       0.5785652       124.2041
2018    3       0       0.4100496       96.19227
2018    3       1       0.1986437       53.60774
2018    3       2       0.1285868       37.25447
2018    3       3       0.1648692       45.60261
2018    3       4       0.2586357       66.33766
2018    3       5       0.4821554       108.8119
2018    3       6       0.7237156       144.3702
2018    3       7       0.6905535       139.705
2018    4       0       0.5594599       121.0264
2018    4       1       0.561526        121.4105
2018    4       2       0.5972936       126.9505
2018    4       3       0.5430925       118.3452
2018    4       4       0.6827962       139.3438
2018    4       5       0.6722342       138.3098
2018    4       6       0.4964163       111.5667
2018    4       7       0.5154019       114.775
2018    5       0       0.5500305       120.6792
2018    5       1       0.5190702       115.5388
2018    5       2       0.5939035       126.611
2018    5       3       0.6622757       136.1234
2018    5       4       0.7165588       143.6248
2018    5       5       0.7640795       150.0362
2018    5       6       0.6384126       133.1108
2018    5       7       0.5287119       116.3741
2018    6       0       0.5628801       121.7856
2018    6       1       0.5809433       124.7748
2018    6       2       0.5306393       116.8475
2018    6       3       0.5327995       117.2763
2018    6       4       0.5526755       120.1978
2018    6       5       0.5546274       120.4187
2018    6       6       0.5265435       116.5678
2018    6       7       0.5347224       118.1291
2018    7       0       0.5255751       116.7511
2018    7       1       0.5111242       114.308
2018    7       2       0.4249169       99.40962
2018    7       3       0.356716        86.66792
2018    7       4       0.4388028       101.2568
2018    7       5       0.4926978       110.3198
2018    7       6       0.4392952       100.9636
2018    7       7       0.4615547       105.1501
2018    8       0       0.4260645       99.67035
2018    8       1       0.5053459       113.2506
2018    8       2       0.4617861       106.0263
2018    8       3       0.5346901       117.8521
2018    8       4       0.5676509       123.0832
2018    8       5       0.6398533       133.8862
2018    8       6       0.5545421       121.2112
2018    8       7       0.6482823       134.1832
2018    9       0       0.5860715       126.289
2018    9       1       0.5048028       113.6094
2018    9       2       0.4635062       106.9567
2018    9       3       0.3804457       92.04242
2018    9       4       0.1853032       50.94276
2018    9       5       0.1997799       54.47814
2018    9       6       0.2793023       72.01487
2018    9       7       0.3236013       81.11477
2018    10      0       0.2702901       69.60236
2018    10      1       0.2841882       72.56337
2018    10      2       0.2496713       65.32005
2018    10      3       0.2725363       70.40622
2018    10      4       0.3671365       89.27551
2018    10      5       0.5371416       118.3074
2018    10      6       0.5145199       115.1094
2018    10      7       0.6229013       131.6615
2018    11      0       0.7312675       145.9765
2018    11      1       0.828617        157.5994
2018    11      2       1.063465        181.6985
2018    11      3       0.9342003       169.7277
2018    11      4       0.6901981       140.7992
2018    11      5       0.5969525       128.1245
2018    11      6       0.6819566       140.3028
2018    11      7       0.8430155       161.1866
2018    12      0       0.7459343       148.959
2018    12      1       0.626693        132.0824
2018    12      2       0.5943543       127.3652
2018    12      3       0.3950423       93.28656
2018    12      4       0.434061        100.6088
2018    12      5       0.5467137       120.144
2018    12      6       0.5199146       115.7125
2018    12      7       0.4934762       111.2375
2018    13      0       0.5195627       115.7965
2018    13      1       0.5531801       121.2717
2018    13      2       0.7080608       144.5609
2018    13      3       0.7273877       147.4956
2018    13      4       0.7592288       151.9426
2018    13      5       0.811525        158.7247
2018    13      6       0.7406985       149.6387
2018    13      7       0.6165866       131.8826
2018    14      0       0.6923845       142.1495
2018    14      1       0.6911085       141.7754
2018    14      2       0.6767472       139.2186
2018    14      3       0.7120132       144.1208
2018    14      4       0.7785801       152.7599
2018    14      5       0.8677391       162.9953
2018    14      6       1.023352        176.9789
2018    14      7       0.7672072       149.825
2018    15      0       0.6732456       137.8167
2018    15      1       0.6537491       135.3215
2018    15      2       0.7439876       147.4132
2018    15      3       1.608759        225.1227
2018    15      4       0.6951909       142.3762
2018    15      5       0.7427507       148.8489
2018    15      6       0.5997679       128.417
2018    15      7       0.4457841       103.215
2018    16      0       0.5586178       121.6977
2018    16      1       0.7395808       147.5707
2018    16      2       1.05348         182.1963
2018    16      3       1.04354         179.7187
2018    16      4       1.144275        189.305
2018    16      5       1.274199        199.6438
2018    16      6       1.024548        178.1746
2018    16      7       0.9198037       167.9177
2018    17      0       0.8424387       159.6253
2018    17      1       0.9949929       176.6223
2018    17      2       1.183489        194.1201
2018    17      3       1.183702        194.5487
2018    17      4       1.223733        197.4727
2018    17      5       1.21131         196.3355
2018    17      6       0.8733086       163.791
2018    17      7       0.7695119       150.1134
2018    18      0       0.8166928       155.4442
2018    18      1       0.8851529       164.607
2018    18      2       0.9717949       173.7809
2018    18      3       1.140161        189.9134
2018    18      4       1.464235        214.5976
2018    18      5       1.43888         212.4477
2018    18      6       1.200799        195.6827
2018    18      7       1.072754        184.2799
2018    19      0       1.01263         178.1756
2018    19      1       1.018092        178.2062
2018    19      2       1.154814        191.31
2018    19      3       1.301698        203.1254
2018    19      4       1.459288        213.543
2018    19      5       1.474659        214.3644
2018    19      6       1.070387        183.4399
2018    19      7       0.8887906       165.4758
2018    20      0       0.9297328       168.6093
2018    20      1       1.164333        188.5179
2018    20      2       1.263785        195.8669
2018    20      3       1.302598        199.6499
2018    20      4       1.201648        193.151
2018    20      5       1.05643         182.2536
2018    20      6       1.041815        180.919
2018    20      7       0.8538576       161.1487
2018    21      0       0.8426629       158.7381
2018    21      1       0.7656325       149.1527
2018    21      2       0.6606307       135.9818
2018    21      3       0.6619368       136.592
2018    21      4       0.7382428       147.3765
2018    21      5       0.8200353       157.8466
2018    21      6       0.7325169       146.9782
2018    21      7       0.5532296       120.9846
2018    22      0       0.5041857       112.7834
2018    22      1       0.5308799       116.7533
2018    22      2       0.6112164       129.1353
2018    22      3       0.7524988       149.0453
2018    22      4       0.745724        148.7624
2018    22      5       0.7985871       155.7097
2018    22      6       0.7181935       145.2219
2018    22      7       0.5768885       124.3995
2018    23      0       0.5553757       120.6336
2018    23      1       0.6211203       130.5212
2018    23      2       0.6579252       135.7985
2018    23      3       0.6835924       139.6612
2018    23      4       0.8777848       164.4837
2018    23      5       0.8927254       166.5006
2018    23      6       0.782021        153.4813
2018    23      7       0.6495705       135.4774
2018    24      0       0.560167        122.0953
2018    24      1       0.5022493       112.861
2018    24      2       0.4843708       109.9601
2018    24      3       0.5226348       116.2315
2018    24      4       0.8001482       155.3461
2018    24      5       0.8546637       161.8539
2018    24      6       0.664589        137.4086
2018    24      7       0.5788415       124.3127
2018    25      0       0.5786925       124.3299
2018    25      1       0.4933902       111.0858
2018    25      2       0.4134735       97.37512
2018    25      3       0.40704         96.32318
2018    25      4       0.6042131       128.9064
2018    25      5       0.6154219       130.6899
2018    25      6       0.4685564       107.0032
2018    25      7       0.705997        142.4117
2018    26      0       1.138727        189.141
2018    26      1       0.6858109       139.7136
2018    26      2       0.8691732       161.8935
2018    26      3       1.331403        204.4473
2018    26      4       1.427495        211.1045
2018    26      5       0.9815046       175.2848
2018    26      6       0.8431663       160.2713
2018    26      7       0.7362714       147.1919
2018    27      0       0.5924011       127.1098
2018    27      1       0.3729151       90.07913
2018    27      2       0.3845826       92.15186
2018    27      3       0.3812225       91.49713
2018    27      4       0.5952852       127.5571
2018    27      5       1.054097        182.3171
2018    27      6       0.6938108       141.1118
2018    27      7       0.8131833       157.5315
2018    28      0       0.7056715       143.7626
2018    28      1       0.5446712       119.9219
2018    28      2       0.5042251       113.4395
2018    28      3       0.5971454       128.1962
2018    28      4       0.5465918       121.7093
2018    28      5       0.3812563       91.91438
2018    28      6       0.3003877       76.08313
2018    28      7       0.3221816       80.62265
2018    29      0       0.3268422       81.50719
2018    29      1       0.3126083       78.52673
2018    29      2       0.2911941       73.95225
2018    29      3       0.2950879       74.67784
2018    29      4       0.4222799       99.15979
2018    29      5       0.3943702       93.92641
2018    29      6       0.4352048       101.1144
2018    29      7       0.5153195       114.8005
2018    30      0       0.5904032       126.7956
2018    30      1       0.5804919       125.7711
2018    30      2       0.4472714       103.8833
2018    30      3       0.4728167       108.3626
2018    30      4       0.5848135       126.6773
2018    30      5       0.5767897       125.5751
2018    30      6       0.5131797       115.3691
2018    30      7       0.5407831       119.5238
