####################################################################################################
# Month: 07Jul                                                                                     #
# Station: BRZ                                                                                     #
# Frequency: 345 GHz                                                                               #
# Columns are: year    day     segment         tau     Tb (K)                                      #
####################################################################################################
2009    1       0       0.4677515       106.9254
2009    1       1       0.6381254       133.3438
2009    1       2       0.7504423       148.758
2009    1       3       0.8632751       162.4613
2009    1       4       1.046005        181.4445
2009    1       5       1.12258         188.3677
2009    1       6       1.105236        186.8785
2009    1       7       0.9212184       168.8653
2009    2       0       0.9534956       171.6363
2009    2       1       1.031846        178.6981
2009    2       2       0.9965363       174.9348
2009    2       3       0.9970252       175.666
2009    2       4       0.8716851       161.6979
2009    2       5       0.890975        164.3722
2009    2       6       0.7423134       147.5907
2009    2       7       0.7570817       149.3195
2009    3       0       0.8097534       155.5308
2009    3       1       0.9674672       172.1944
2009    3       2       1.032996        178.289
2009    3       3       0.9240709       167.6226
2009    3       4       0.9894933       174.3395
2009    3       5       1.252385        197.307
2009    3       6       1.441638        210.1627
2009    3       7       1.546358        215.8483
2009    4       0       1.560841        216.7215
2009    4       1       1.478256        212.2257
2009    4       2       1.464113        211.237
2009    4       3       1.436729        209.3522
2009    4       4       1.329365        202.0948
2009    4       5       1.525043        214.3506
2009    4       6       1.65439         221.6977
2009    4       7       1.591123        218.0606
2009    5       0       1.551353        215.8109
2009    5       1       1.506325        213.3205
2009    5       2       1.572019        217.6932
2009    5       3       1.493876        213.0341
2009    5       4       1.540001        215.4524
2009    5       5       1.635218        220.6634
2009    5       6       1.82491         229.6594
2009    5       7       1.649577        221.4986
2009    6       0       1.42103         208.5184
2009    6       1       1.267446        197.9807
2009    6       2       1.600712        220.1729
2009    6       3       1.225186        195.0652
2009    6       4       1.279714        199.1478
2009    6       5       1.572181        218.3
2009    6       6       1.990647        237.3063
2009    6       7       1.63544         221.6406
2009    7       0       1.514194        214.6161
2009    7       1       1.40898         208.0026
2009    7       2       1.317101        201.6282
2009    7       3       1.189777        191.961
2009    7       4       1.165337        190.241
2009    7       5       1.215168        194.5977
2009    7       6       1.327007        203.0544
2009    7       7       1.251995        197.4126
2009    8       0       1.093467        184.2685
2009    8       1       1.185463        191.8859
2009    8       2       1.245865        196.5733
2009    8       3       1.181137        191.4325
2009    8       4       0.9088225       166.0367
2009    8       5       0.7795547       151.2731
2009    8       6       0.7763336       150.447
2009    8       7       0.7561842       148.1774
2009    9       0       0.7247776       144.4979
2009    9       1       0.8271002       156.9385
2009    9       2       0.90435         165.8548
2009    9       3       1.190306        191.4916
2009    9       4       1.377326        204.9927
2009    9       5       1.354521        204.1609
2009    9       6       1.492553        213.3719
2009    9       7       1.380961        206.9416
2009    10      0       1.444535        210.9321
2009    10      1       1.460371        211.9077
2009    10      2       1.270317        199.1321
2009    10      3       1.174977        191.8747
2009    10      4       1.017343        177.8185
2009    10      5       0.8639152       161.6579
2009    10      6       0.8008486       154.3407
2009    10      7       0.8039229       154.7259
2009    11      0       0.8155085       156.1335
2009    11      1       0.7449501       147.1203
2009    11      2       0.7742815       150.6548
2009    11      3       0.9117371       166.8475
2009    11      4       1.108099        186.9704
2009    11      5       1.075392        184.5231
2009    11      6       1.373848        209.0357
2009    11      7       1.644056        224.9401
2009    12      0       1.704624        227.0082
2009    12      1       1.783131        230.7987
2009    12      2       1.872321        234.8697
2009    12      3       2.388432        251.4877
2009    12      4       1.874686        234.3265
2009    12      5       2.518389        254.1148
2009    12      6       2.722143        258.3754
2009    12      7       2.687343        258.8603
2009    13      0       1.466218        214.7214
2009    13      1       0.6616338       138.5256
2009    13      2       0.4262987       101.1893
2009    13      3       0.2930009       75.52144
2009    13      4       0.3176262       80.42441
2009    13      5       0.2837392       73.60554
2009    13      6       0.358315        88.17526
2009    13      7       0.1563533       44.85877
2009    14      0       0.1930431       53.02858
2009    14      1       0.2368115       61.91139
2009    14      2       0.267836        67.39395
2009    14      3       0.296562        72.65619
2009    14      4       0.344872        81.34247
2009    14      5       0.3517581       82.61505
2009    14      6       0.3722674       86.89479
2009    14      7       0.640177        130.0836
2009    15      0       0.6831049       136.277
2009    15      1       0.8148751       153.6686
2009    15      2       1.025382        177.2845
2009    15      3       1.16625         190.6109
2009    15      4       1.085341        184.1959
2009    15      5       0.9625727       172.1479
2009    15      6       0.8713392       162.0377
2009    15      7       0.7988487       153.0046
2009    16      0       0.9125879       165.4098
2009    16      1       0.9259885       166.8713
2009    16      2       0.8763001       161.5822
2009    16      3       0.8634784       160.3726
2009    16      4       0.8366986       157.4618
2009    16      5       0.8357407       157.269
2009    16      6       0.819959        155.6875
2009    16      7       0.77013         149.7003
2009    17      0       0.7175696       142.7294
2009    17      1       0.7063539       141.1205
2009    17      2       0.6928568       139.0709
2009    17      3       0.6759477       137.416
2009    17      4       0.6612598       135.6388
2009    17      5       0.6637002       136.1279
2009    17      6       0.7101812       142.958
2009    17      7       0.6089768       128.4579
2009    18      0       0.6428855       132.7185
2009    18      1       0.6800016       137.4343
2009    18      2       0.6634545       134.9752
2009    18      3       0.6910423       138.6849
2009    18      4       0.6820174       137.8008
2009    18      5       0.6402428       132.3386
2009    18      6       0.6403906       132.122
2009    18      7       0.660991        134.677
2009    19      0       0.6617235       135.6484
2009    19      1       0.7413768       146.3645
2009    19      2       0.7681553       149.6583
2009    19      3       0.9087946       165.5109
2009    19      4       1.158492        189.2217
2009    19      5       1.438032        210.0148
2009    19      6       1.826297        230.4308
2009    19      7       1.941733        234.9262
2009    20      0       2.204448        244.2961
2009    20      1       1.739456        226.4507
2009    20      2       1.267302        197.2055
2009    20      3       1.399322        206.5472
2009    20      4       1.538325        215.7407
2009    20      5       1.491801        212.6969
2009    20      6       1.291511        200.1563
2009    20      7       1.223991        195.6628
2009    21      0       1.312185        202.6838
2009    21      1       1.148461        190.4812
2009    21      2       1.066911        183.3955
2009    21      3       1.093166        185.9946
2009    21      4       0.9733543       174.2016
2009    21      5       1.056477        182.7306
2009    21      6       1.049782        182.5981
2009    21      7       0.9731367       174.7781
2009    22      0       0.7278042       145.6
2009    22      1       0.6646381       137.2919
2009    22      2       0.5482396       119.8613
2009    22      3       0.5084929       112.8781
2009    22      4       0.4811977       108.1251
2009    22      5       0.5089884       113.0194
2009    22      6       0.5480829       119.2248
2009    22      7       0.5784603       124.0452
2009    23      0       0.6541248       135.7033
2009    23      1       0.7092071       143.466
2009    23      2       0.6102656       128.6847
2009    23      3       0.5237453       115.0625
2009    23      4       0.47352         106.0407
2009    23      5       0.4566559       102.8415
2009    23      6       0.4251602       97.71252
2009    23      7       0.4505338       102.0523
2009    24      0       0.522998        114.3542
2009    24      1       0.5134349       112.2104
2009    24      2       0.4986487       110.4735
2009    24      3       0.5357309       116.4452
2009    24      4       0.5249686       114.9766
2009    24      5       0.5367727       116.8973
2009    24      6       0.6078874       128.0182
2009    24      7       0.7977176       154.0438
2009    25      0       0.950301        171.4681
2009    25      1       0.8972293       165.8266
2009    25      2       0.7893495       153.4015
2009    25      3       0.6932362       140.7548
2009    25      4       0.7207003       144.7578
2009    25      5       0.8601462       162.0833
2009    25      6       1.018644        179.6648
2009    25      7       1.059222        183.4657
2009    26      0       1.019461        179.5125
2009    26      1       1.114185        187.8724
2009    26      2       1.112091        187.5452
2009    26      3       1.06669         183.2242
2009    26      4       1.188156        193.6597
2009    26      5       1.478336        214.7732
2009    26      6       1.632997        223.6622
2009    26      7       1.721022        227.9074
2009    27      0       1.621632        223.1372
2009    27      1       1.456062        213.2633
2009    27      2       1.253697        197.8546
2009    27      3       1.026871        177.2234
2009    27      4       0.8550708       158.4215
2009    27      5       0.797072        151.5042
2009    27      6       0.721861        142.4489
2009    27      7       0.641335        132.057
2009    28      0       0.5909971       125.1006
2009    28      1       0.532682        116.8659
2009    28      2       0.4811842       108.8994
2009    28      3       0.3466857       84.4772
2009    28      4       0.3344874       81.74223
2009    28      5       0.3653103       87.04329
2009    28      6       0.3898531       91.41468
2009    28      7       0.3678402       87.54936
2009    29      0       0.3086823       76.53185
2009    29      1       0.2670012       68.53668
2009    29      2       0.2556289       66.34762
2009    29      3       0.2206104       58.68911
2009    29      4       0.2118567       56.5696
2009    29      5       0.2172334       57.65725
2009    29      6       0.2004342       54.1378
2009    29      7       0.2308345       61.28575
2009    30      0       0.3467033       85.14186
2009    30      1       0.3499143       85.90165
2009    30      2       0.2697535       69.51502
2009    30      3       0.2356044       62.14612
2009    30      4       0.2419736       63.42799
2009    30      5       0.2613582       67.41221
2009    30      6       0.2646465       67.95277
2009    30      7       0.2876721       72.64473
2009    31      0       0.244679        63.7405
2009    31      1       0.2256636       59.74059
2009    31      2       0.2348691       61.52179
2009    31      3       0.234551        61.15498
2009    31      4       0.2214017       58.18556
2009    31      5       0.2215388       58.28597
2009    31      6       0.2154573       57.27423
2009    31      7       0.2318623       61.03833
2010    1       0       0.1655583       47.1826
2010    1       1       0.1621774       46.44913
2010    1       2       0.1589672       45.76157
2010    1       3       0.1637012       46.86465
2010    1       4       0.1741899       49.2857
2010    1       5       0.1872893       52.21158
2010    1       6       0.1911736       53.08869
2010    1       7       0.1931089       53.55565
2010    2       0       0.2090963       57.02585
2010    2       1       0.2211549       59.5344
2010    2       2       0.2129765       57.73285
2010    2       3       0.2106264       56.98737
2010    2       4       0.1944851       53.32761
2010    2       5       0.1813477       50.18452
2010    2       6       0.1619123       45.71831
2010    2       7       0.1359829       39.86816
2010    3       0       0.1945421       53.3322
2010    3       1       0.2608525       67.43296
2010    3       2       0.2549894       66.14351
2010    3       3       0.260261        67.30383
2010    3       4       0.2986701       75.11655
2010    3       5       0.3265301       80.55694
2010    3       6       0.4712237       106.9849
2010    3       7       0.4633769       105.9489
2010    4       0       0.2741081       70.43902
2010    4       1       0.2313932       61.72907
2010    4       2       0.2113731       57.44891
2010    4       3       0.1786131       50.30683
2010    4       4       0.1648547       47.11453
2010    4       5       0.159558        45.78319
2010    4       6       0.1397766       41.04482
2010    4       7       0.1412967       41.43426
2010    5       0       0.3147753       78.91793
2010    5       1       0.5146579       114.9051
2010    5       2       0.5440763       120.3797
2010    5       3       0.5405646       120.2181
2010    5       4       0.4384327       103.1077
2010    5       5       0.4057463       97.22642
2010    5       6       0.4400022       103.4506
2010    5       7       0.1886655       52.92931
2010    6       0       0.1533153       44.66993
2010    6       1       0.1465994       43.08238
2010    6       2       0.1327347       39.77713
2010    6       3       0.1196534       36.64088
2010    6       4       0.1112889       34.6085
2010    6       5       0.1080822       33.77231
2010    6       6       0.1005917       31.89916
2010    6       7       0.09915894      31.52499
2010    7       0       0.1127392       34.84194
2010    7       1       0.1293466       38.83197
2010    7       2       0.1312121       39.30123
2010    7       3       0.120419        36.6882
2010    7       4       0.1197171       36.47307
2010    7       5       0.1190144       36.2817
2010    7       6       0.1166297       35.76675
2010    7       7       0.1213653       36.92625
2010    8       0       0.123037        37.32788
2010    8       1       0.1308176       39.27878
2010    8       2       0.1641463       47.11581
2010    8       3       0.1573889       45.44329
2010    8       4       0.2217089       60.03389
2010    8       5       0.3445242       85.30991
2010    8       6       0.8360008       159.6568
2010    8       7       1.215191        195.3046
2010    9       0       1.464959        211.8753
2010    9       1       1.705478        225.2579
2010    9       2       1.612803        220.6621
2010    9       3       1.490191        213.5857
2010    9       4       1.223963        195.4506
2010    9       5       1.121532        186.6794
2010    9       6       1.285478        200.5454
2010    9       7       1.456161        211.9837
2010    10      0       2.110378        242.428
2010    10      1       3.000349        261.9847
2010    10      2       3.229778        264.8816
2010    10      3       3.335397        265.9385
2010    10      4       3.160487        264.0439
2010    10      5       2.588491        255.5
2010    10      6       2.141927        244.4179
2010    10      7       1.806436        230.9497
2010    11      0       1.843923        232.2304
2010    11      1       1.764077        228.3023
2010    11      2       1.581349        219.0974
2010    11      3       1.455157        211.7326
2010    11      4       1.523089        215.4086
2010    11      5       1.784165        228.5173
2010    11      6       1.988698        237.096
2010    11      7       1.922688        234.977
2010    12      0       1.833806        231.3246
2010    12      1       1.725803        226.461
2010    12      2       1.209777        193.4003
2010    12      3       0.9037392       163.986
2010    12      4       0.770585        148.2977
2010    12      5       0.8121072       153.2131
2010    12      6       0.979983        171.7996
2010    12      7       1.279523        198.7527
2010    13      0       1.752174        227.8744
2010    13      1       1.818446        231.2057
2010    13      2       1.657516        223.5513
2010    13      3       1.517118        215.8824
2010    13      4       1.411985        209.7378
2010    13      5       1.387186        208.1534
2010    13      6       1.26401         199.3666
2010    13      7       1.146688        189.7441
2010    14      0       1.286713        200.3961
2010    14      1       1.288294        200.049
2010    14      2       1.204966        193.6421
2010    14      3       1.398257        207.5734
2010    14      4       1.601072        219.6731
2010    14      5       1.760295        227.5881
2010    14      6       1.67688         223.5859
2010    14      7       1.464108        211.8708
2010    15      0       1.26074         198.1725
2010    15      1       1.161788        190.2925
2010    15      2       1.154091        189.1778
2010    15      3       1.086049        182.972
2010    15      4       1.070586        181.5306
2010    15      5       1.260261        196.8145
2010    15      6       1.593325        218.0281
2010    15      7       1.622669        220.0929
2010    16      0       1.666357        222.6129
2010    16      1       1.27132         198.3795
2010    16      2       0.9324422       168.1215
2010    16      3       0.7340279       144.4695
2010    16      4       0.5352631       116.2124
2010    16      5       0.5298588       115.2481
2010    16      6       0.9213331       166.4928
2010    16      7       0.9107593       164.954
2010    17      0       0.7107411       141.3011
2010    17      1       0.662192        134.5708
2010    17      2       0.7156587       141.3601
2010    17      3       0.7033785       139.7011
2010    17      4       0.8572211       158.8229
2010    17      5       1.143105        187.1601
2010    17      6       1.531614        214.9926
2010    17      7       1.538049        215.1811
2010    18      0       1.295985        199.788
2010    18      1       1.188366        191.7793
2010    18      2       1.15597         189.1838
2010    18      3       1.257085        197.3859
2010    18      4       1.415155        208.9422
2010    18      5       1.72492         226.5029
2010    18      6       2.116931        242.1007
2010    18      7       1.917565        234.9605
2010    19      0       1.719692        226.1169
2010    19      1       1.683441        224.1853
2010    19      2       1.643673        222.3504
2010    19      3       1.63216         221.8801
2010    19      4       1.552344        218.018
2010    19      5       1.503194        215.2393
2010    19      6       1.432945        210.9677
2010    19      7       1.349175        205.5653
2010    20      0       1.310764        202.559
2010    20      1       1.35337         205.1461
2010    20      2       1.307045        202.1194
2010    20      3       1.182991        192.7503
2010    20      4       0.9808013       174.72
2010    20      5       0.8057237       155.767
2010    20      6       0.7364476       147.2804
2010    20      7       0.6531089       136.0522
2010    21      0       0.5340965       118.2746
2010    21      1       0.5841644       126.106
2010    21      2       0.5644331       123.0666
2010    21      3       0.4794424       109.3779
2010    21      4       0.4768009       108.9564
2010    21      5       0.5280958       117.3168
2010    21      6       0.5492915       120.5749
2010    21      7       0.5023685       113.0581
2010    22      0       0.4383752       102.2448
2010    22      1       0.3631662       88.64878
2010    22      2       0.3000124       76.37736
2010    22      3       0.2444483       64.89928
2010    22      4       0.2288118       61.51381
2010    22      5       0.2424192       64.41565
2010    22      6       0.2568881       67.46281
2010    22      7       0.2481085       65.57306
2010    23      0       0.2362149       62.98101
2010    23      1       0.2786863       71.76741
2010    23      2       0.3021968       76.42035
2010    23      3       0.2384461       63.26418
2010    23      4       0.1745933       49.29418
2010    23      5       0.1486894       43.30503
2010    23      6       0.1455555       42.52602
2010    23      7       0.1561617       45.0148
2010    24      0       0.1439062       42.17108
2010    24      1       0.130063        38.82863
2010    24      2       0.09616801      30.46156
2010    24      3       0.08583882      27.80926
2010    24      4       0.09654274      30.51206
2010    24      5       0.1128134       34.41065
2010    24      6       0.1182607       35.68627
2010    24      7       0.1166463       35.13106
2010    25      0       0.1164761       35.10885
2010    25      1       0.1174853       35.46909
2010    25      2       0.1118045       34.11688
2010    25      3       0.109007        33.45432
2010    25      4       0.1005358       31.32822
2010    25      5       0.09527726      30.1375
2010    25      6       0.1019295       31.84196
2010    25      7       0.1057357       32.82127
2010    26      0       0.1062749       32.95991
2010    26      1       0.1144626       34.88989
2010    26      2       0.1187741       35.95383
2010    26      3       0.122025        36.74746
2010    26      4       0.1337467       39.481
2010    26      5       0.1460027       42.33182
2010    26      6       0.1652627       46.97471
2010    26      7       0.1758518       49.34413
2010    27      0       0.1598685       45.48358
2010    27      1       0.1688007       47.59362
2010    27      2       0.1681121       47.54348
2010    27      3       0.1649677       46.91402
2010    27      4       0.1679159       47.5556
2010    27      5       0.2005715       54.94361
2010    27      6       0.448968        104.119
2010    27      7       0.446855        103.5812
2010    28      0       0.2535051       66.47103
2010    28      1       0.2696936       70.07712
2010    28      2       0.303887        77.42848
2010    28      3       0.264967        69.01521
2010    28      4       0.2218855       59.61224
2010    28      5       0.2250703       60.31722
2010    28      6       0.2808458       72.43387
2010    28      7       0.2042011       56.11022
2010    29      0       0.1715697       48.28214
2010    29      1       0.1716979       48.29755
2010    29      2       0.1696621       47.78624
2010    29      3       0.1723185       48.24239
2010    29      4       0.177066        49.11189
2010    29      5       0.177992        49.29356
2010    29      6       0.2324722       61.76054
2010    29      7       0.2374747       62.86038
2010    30      0       0.2035938       54.9402
2010    30      1       0.2168629       57.75181
2010    30      2       0.2129148       56.82771
2010    30      3       0.2077444       55.77855
2010    30      4       0.1996838       54.16653
2010    30      5       0.1917522       52.50063
2010    30      6       0.2272051       60.70711
2010    30      7       0.2118027       57.5084
2010    31      0       0.1701765       47.91147
2010    31      1       0.1675813       47.23214
2010    31      2       0.1680724       47.25158
2010    31      3       0.1639883       46.31998
2010    31      4       0.1801852       50.00547
2010    31      5       0.1923272       52.7401
2010    31      6       0.175315        49.05665
2010    31      7       0.1629035       46.42448
2011    1       0       0.328124        80.11618
2011    1       1       0.3365117       81.79372
2011    1       2       0.3546162       85.14104
2011    1       3       0.3592864       86.07658
2011    1       4       0.3652634       86.95653
2011    1       5       0.3651547       87.09451
2011    1       6       0.3748384       88.98894
2011    1       7       0.378767        89.60709
2011    2       0       0.3934439       92.46215
2011    2       1       0.3982301       93.5074
2011    2       2       0.369653        87.84353
2011    2       3       0.3548143       84.8784
2011    2       4       0.3341651       80.99175
2011    2       5       0.3325825       80.67399
2011    2       6       0.3572631       85.02907
2011    2       7       0.4252534       97.11793
2011    3       0       0.4777864       105.8413
2011    3       1       0.4798025       105.8719
2011    3       2       0.5249309       112.5663
2011    3       3       0.5086663       110.0702
2011    3       4       0.5558276       116.5127
2011    3       5       0.5698402       118.9881
2011    3       6       0.617883        126.4459
2011    3       7       0.734814        142.3786
2011    4       0       1.012744        173.9616
2011    4       1       1.118756        184.9796
2011    4       2       0.9186141       164.7105
2011    4       3       0.7245596       140.3835
2011    4       4       0.8036147       149.9696
2011    4       5       0.7557034       144.1475
2011    4       6       0.9053086       162.3113
2011    4       7       1.158596        188.3954
2011    5       0       1.189165        191.8995
2011    5       1       1.102108        183.3753
2011    5       2       0.9226381       164.8619
2011    5       3       0.9828126       171.5325
2011    5       4       0.9944793       173.3574
2011    5       5       0.9625065       170.3298
2011    5       6       0.8944974       162.2991
2011    5       7       0.834118        155.6272
2011    6       0       0.8109857       153.2293
2011    6       1       0.5507522       116.8082
2011    6       2       0.5621829       117.936
2011    6       3       0.5232448       111.7307
2011    6       4       0.526065        112.3271
2011    6       5       0.4734461       104.2425
2011    6       6       0.5588499       119.0518
2011    6       7       0.7578253       147.5547
2011    7       0       0.9474794       169.7238
2011    7       1       1.015532        176.6798
2011    7       2       0.903378        163.907
2011    7       3       0.8911316       162.6237
2011    7       4       1.223148        193.4515
2011    7       5       1.393227        207.2723
2011    7       6       1.962471        237.0565
2011    7       7       2.360549        249.1637
2011    8       0       2.044885        239.4867
2011    8       1       1.290413        200.4563
2011    8       2       0.8086884       154.2813
2011    8       3       0.3929777       93.16962
2011    8       4       0.2492326       65.18695
2011    8       5       0.2129728       57.43736
2011    8       6       0.1830933       50.65012
2011    8       7       0.2090889       56.8105
2011    9       0       0.2659045       69.08322
2011    9       1       0.2125355       57.61494
2011    9       2       0.1878035       52.13838
2011    9       3       0.1770462       49.57655
2011    9       4       0.1907532       52.55032
2011    9       5       0.2018185       54.9398
2011    9       6       0.1990966       54.17047
2011    9       7       0.1832484       50.48546
2011    10      0       0.1771785       48.82897
2011    10      1       0.1833989       49.94562
2011    10      2       0.1924125       51.86855
2011    10      3       0.2040007       54.54094
2011    10      4       0.2324423       60.61644
2011    10      5       0.2723341       68.71779
2011    10      6       0.2582912       65.98114
2011    10      7       0.2681531       67.62404
2011    11      0       0.2690897       67.79544
2011    11      1       0.2591554       65.90113
2011    11      2       0.2423201       62.33305
2011    11      3       0.2053353       54.70791
2011    11      4       0.2055053       54.94635
2011    11      5       0.2177342       57.56343
2011    11      6       0.1936619       52.42119
2011    11      7       0.1733654       47.85203
2011    12      0       0.1802084       49.53233
2011    12      1       0.1853242       50.76856
2011    12      2       0.1867055       51.13419
2011    12      3       0.2018668       54.292
2011    12      4       0.213076        56.54217
2011    12      5       0.2126735       56.31334
2011    12      6       0.203777        54.03352
2011    12      7       0.1989524       52.92156
2011    13      0       0.2127495       55.80694
2011    13      1       0.2124004       55.88313
2011    13      2       0.1869722       50.73194
2011    13      3       0.1781215       48.66978
2011    13      4       0.1904692       51.46226
2011    13      5       0.1797689       49.16104
2011    13      6       0.1835035       49.76209
2011    13      7       0.187314        50.14809
2011    14      0       0.1708072       46.54797
2011    14      1       0.1786424       48.18593
2011    14      2       0.1780569       48.33047
2011    14      3       0.1918803       51.30389
2011    14      4       0.1797807       48.7802
2011    14      5       0.1736062       47.47173
2011    14      6       0.1673275       46.24468
2011    14      7       0.1620262       45.25819
2011    15      0       0.1614133       45.27612
2011    15      1       0.164925        46.06911
2011    15      2       0.1762365       48.5906
2011    15      3       0.1809686       49.75666
2011    15      4       0.1888012       51.74632
2011    15      5       0.2133694       57.33036
2011    15      6       0.2394997       63.17286
2011    15      7       0.2711489       69.98408
2011    16      0       0.2918705       74.33408
2011    16      1       0.3099076       78.13707
2011    16      2       0.328116        81.96118
2011    16      3       0.350439        86.36245
2011    16      4       0.3738044       90.83503
2011    16      5       0.4046752       96.4959
2011    16      6       0.4002233       95.61143
2011    16      7       0.369841        89.85079
2011    17      0       0.3420223       84.38892
2011    17      1       0.3571413       87.35384
2011    17      2       0.4375456       102.0222
2011    17      3       0.4665723       106.6139
2011    17      4       0.4412707       102.1452
2011    17      5       0.4072064       96.1936
2011    17      6       0.4336822       100.744
2011    17      7       0.4952163       110.6663
2011    18      0       0.4979757       110.686
2011    18      1       0.5104334       112.6095
2011    18      2       0.7127451       142.4657
2011    18      3       0.7773022       151.6375
2011    18      4       0.7364666       146.8079
2011    18      5       0.7360536       147.0056
2011    18      6       0.7523327       149.1285
2011    18      7       0.7570252       149.8691
2011    19      0       0.9215987       169.2403
2011    19      1       1.114986        188.1729
2011    19      2       1.149272        191.4173
2011    19      3       1.125713        189.1967
2011    19      4       1.00278         177.6143
2011    19      5       0.7686592       151.439
2011    19      6       0.8546369       161.5767
2011    19      7       1.088907        185.0919
2011    20      0       1.170097        192.1221
2011    20      1       1.051821        182.5971
2011    20      2       0.9422023       172.0453
2011    20      3       0.8178543       158.0483
2011    20      4       0.6187141       131.6708
2011    20      5       0.5246652       117.1747
2011    20      6       0.4829323       110.4873
2011    20      7       0.3823501       92.72034
2011    21      0       0.336343        83.86764
2011    21      1       0.3220565       80.89851
2011    21      2       0.3125102       78.82345
2011    21      3       0.2889292       73.78211
2011    21      4       0.2968944       75.19533
2011    21      5       0.3127871       78.17564
2011    21      6       0.2994003       75.23389
2011    21      7       0.2931984       73.97457
2011    22      0       0.3105972       77.25482
2011    22      1       0.3214695       79.37038
2011    22      2       0.2950309       74.16367
2011    22      3       0.2667682       68.34166
2011    22      4       0.2794683       70.90207
2011    22      5       0.2924451       73.50325
2011    22      6       0.277845        70.51482
2011    22      7       0.2650655       67.78139
2011    23      0       0.2684404       68.43156
2011    23      1       0.2582813       65.98721
2011    23      2       0.2927951       72.64544
2011    23      3       0.3625209       85.61309
2011    23      4       0.4217277       95.89127
2011    23      5       0.6742519       136.369
2011    23      6       1.234056        195.9499
2011    23      7       1.191653        192.2423
2011    24      0       0.845772        157.6598
2011    24      1       0.8794883       161.4763
2011    24      2       0.8714855       160.5057
2011    24      3       0.8184366       154.2479
2011    24      4       0.9466272       168.8547
2011    24      5       1.423937        209.0265
2011    24      6       1.673329        223.5859
2011    24      7       1.180251        190.9018
2011    25      0       1.052872        179.7339
2011    25      1       0.964152        171.2962
2011    25      2       1.000084        175.2941
2011    25      3       0.8578878       159.9067
2011    25      4       0.5887025       123.4406
2011    25      5       0.4772308       105.2123
2011    25      6       0.4461221       99.83793
2011    25      7       0.4153473       94.42012
2011    26      0       0.3731291       87.04785
2011    26      1       0.3516925       83.39102
2011    26      2       0.3466325       82.55179
2011    26      3       0.3437965       82.09808
2011    26      4       0.3300632       79.66895
2011    26      5       0.3126612       76.57553
2011    26      6       0.3083194       76.19459
2011    26      7       0.2937713       73.81188
2011    27      0       0.3090857       76.92361
2011    27      1       0.3330196       81.5449
2011    27      2       0.3340883       81.93741
2011    27      3       0.3157746       78.26571
2011    27      4       0.3112672       77.08027
2011    27      5       0.3253599       79.66971
2011    27      6       0.4975329       111.2925
2011    27      7       0.5309655       116.9098
2011    28      0       0.4373339       100.8714
2011    28      1       0.339681        82.69383
2011    28      2       0.3287416       80.43805
2011    28      3       0.322293        79.19325
2011    28      4       0.2894466       72.63509
2011    28      5       0.2927682       73.32805
2011    28      6       0.5042116       112.7407
2011    28      7       0.7132988       144.0486
2011    29      0       0.6945982       141.4504
2011    29      1       0.657247        136.3284
2011    29      2       0.6757477       138.3881
2011    29      3       0.6109627       129.3338
2011    29      4       0.5519388       120.7467
2011    29      5       0.5602097       121.8075
2011    29      6       0.6125614       129.0346
2011    29      7       0.7936778       154.6737
2011    30      0       0.8506101       162.4284
2011    30      1       0.7505293       150.4027
2011    30      2       0.5959361       127.6045
2011    30      3       0.520064        115.2942
2011    30      4       0.4773127       107.7216
2011    30      5       0.4995757       111.0537
2011    30      6       0.7098074       142.8826
2011    30      7       1.129707        190.2925
2011    31      0       1.082303        186.0282
2011    31      1       0.9546987       172.2067
2011    31      2       0.81222         156.0298
2011    31      3       0.7043258       141.5158
2011    31      4       0.6640968       135.2124
2011    31      5       0.5886197       124.3977
2011    31      6       0.8575632       160.7543
2011    31      7       1.040193        180.4281
2012    1       0       0.7190162       143.9599
2012    1       1       0.6301621       131.5139
2012    1       2       0.5532014       119.9852
2012    1       3       0.4832279       108.5172
2012    1       4       0.5467709       118.7846
2012    1       5       0.4588689       104.129
2012    1       6       0.4816499       107.9217
2012    1       7       0.4715909       106.37
2012    2       0       0.4354722       100.4987
2012    2       1       0.389254        92.57764
2012    2       2       0.3669261       88.5644
2012    2       3       0.3939891       93.40087
2012    2       4       0.3778854       90.57218
2012    2       5       0.3794861       90.82317
2012    2       6       0.3686261       88.66002
2012    2       7       0.3832563       91.4277
2012    3       0       0.3712001       88.99567
2012    3       1       0.3694845       88.70376
2012    3       2       0.3594009       86.82128
2012    3       3       0.3390696       83.01482
2012    3       4       0.3305214       81.53922
2012    3       5       0.3141702       78.35497
2012    3       6       0.2919914       74.0933
2012    3       7       0.2452352       64.6034
2012    4       0       0.2031438       55.56958
2012    4       1       0.1640399       46.68375
2012    4       2       0.1505852       43.55415
2012    4       3       0.1452523       42.34671
2012    4       4       0.150594        43.69522
2012    4       5       0.155338        44.8921
2012    4       6       0.2010291       55.65476
2012    4       7       0.1901511       53.00724
2012    5       0       0.2037756       55.91334
2012    5       1       0.2063755       56.46116
2012    5       2       0.1652757       47.14184
2012    5       3       0.1430361       41.9671
2012    5       4       0.1492332       43.40563
2012    5       5       0.1665671       47.40888
2012    5       6       0.311484        78.4535
2012    5       7       0.3077382       77.82305
2012    6       0       0.1895398       52.78668
2012    6       1       0.1743681       49.34186
2012    6       2       0.1661171       47.48912
2012    6       3       0.1596464       45.98279
2012    6       4       0.1763783       49.7736
2012    6       5       0.2106835       57.39522
2012    6       6       0.2046307       56.20053
2012    6       7       0.1883792       52.55805
2012    7       0       0.1685581       47.994
2012    7       1       0.1534387       44.31702
2012    7       2       0.1468649       42.59751
2012    7       3       0.1398742       40.442
2012    7       4       0.1955219       52.64233
2012    7       5       0.2766958       69.08934
2012    7       6       0.3639486       85.97561
2012    7       7       0.370106        87.2947
2012    8       0       0.4125509       94.35447
2012    8       1       0.4794637       105.6697
2012    8       2       0.5115613       110.7508
2012    8       3       0.6193505       127.9301
2012    8       4       0.8311619       156.6117
2012    8       5       1.083346        183.43
2012    8       6       1.449461        212.6023
2012    8       7       1.726338        228.0269
2012    9       0       1.449259        212.9577
2012    9       1       0.9684179       173.7121
2012    9       2       0.5120561       114.3508
2012    9       3       0.1947091       52.83785
2012    9       4       0.1940424       51.98341
2012    9       5       0.2097752       55.20582
2012    9       6       0.2501729       63.10485
2012    9       7       0.2353233       60.14462
2012    10      0       0.2631137       65.84411
2012    10      1       0.3046019       73.73488
2012    10      2       0.3560843       82.90967
2012    10      3       0.4024338       90.9367
2012    10      4       0.4085415       92.46255
2012    10      5       0.4949291       106.3242
2012    10      6       0.4816115       104.8957
2012    10      7       0.5152143       110.4409
2012    11      0       0.5579214       116.8235
2012    11      1       0.5241038       111.8768
2012    11      2       0.5247065       112.1658
2012    11      3       0.5256789       112.9295
2012    11      4       0.5078913       110.4991
2012    11      5       0.5064797       110.5547
2012    11      6       0.5021544       110.0808
2012    11      7       0.6019728       126.727
2012    12      0       0.6901332       140.1124
2012    12      1       0.7408253       147.4539
2012    12      2       0.7327657       146.221
2012    12      3       0.6509637       134.376
2012    12      4       0.5924715       125.4132
2012    12      5       0.6217711       129.8891
2012    12      6       1.019326        178.7199
2012    12      7       1.964484        236.9921
2012    13      0       1.302222        200.6445
2012    13      1       1.053232        179.9342
2012    13      2       1.208543        193.0718
2012    13      3       1.207442        192.847
2012    13      4       1.098309        184.7646
2012    13      5       1.284061        200.5502
2012    13      6       1.50868         215.5226
2012    13      7       1.07335         182.9863
2012    14      0       0.7164847       144.0193
2012    14      1       0.5811513       125.0928
2012    14      2       0.4417484       102.9363
2012    14      3       0.3075037       78.15338
2012    14      4       0.305668        77.79484
2012    14      5       0.2068995       56.94148
2012    14      6       0.3880963       93.39986
2012    14      7       0.5358792       118.3619
2012    15      0       0.3743528       90.24804
2012    15      1       0.3485075       85.15425
2012    15      2       0.3442501       83.85213
2012    15      3       0.4823607       108.7126
2012    15      4       0.459997        104.7481
2012    15      5       0.5781022       124.2719
2012    15      6       0.973401        173.8035
2012    15      7       0.906109        165.9719
2012    16      0       0.6512091       134.9216
2012    16      1       0.5299015       116.6091
2012    16      2       0.5085395       112.8235
2012    16      3       0.4762388       107.275
2012    16      4       0.5393555       117.4951
2012    16      5       0.848576        159.2419
2012    16      6       1.262122        197.5551
2012    16      7       1.17711         190.4679
2012    17      0       1.052759        179.2667
2012    17      1       1.059216        179.3587
2012    17      2       0.9193643       165.4793
2012    17      3       0.7438383       145.2996
2012    17      4       0.7521597       146.3927
2012    17      5       1.195166        191.3778
2012    17      6       1.595679        217.9922
2012    17      7       1.319236        200.488
2012    18      0       1.223383        193.5394
2012    18      1       1.233965        194.1598
2012    18      2       1.285525        197.8302
2012    18      3       1.091026        182.1641
2012    18      4       1.234146        194.2288
2012    18      5       1.317279        200.2865
2012    18      6       1.725818        224.2244
2012    18      7       2.038623        236.8138
2012    19      0       2.209534        242.5882
2012    19      1       1.576454        216.0494
2012    19      2       0.5599109       118.2705
2012    19      3       0.3228558       76.69583
2012    19      4       0.2824474       69.23984
2012    19      5       0.2578605       65.33774
2012    19      6       0.2607361       65.51405
2012    19      7       0.2297969       58.93377
2012    20      0       0.1884728       50.81957
2012    20      1       0.1697455       47.35632
2012    20      2       0.1609389       44.96027
2012    20      3       0.1407104       40.17559
2012    20      4       0.1143694       34.32396
2012    20      5       0.1077866       32.91456
2012    20      6       0.1184821       35.62513
2012    20      7       0.195707        53.90687
2012    21      0       0.1933393       53.65106
2012    21      1       0.1568724       45.4071
2012    21      2       0.1342566       39.87394
2012    21      3       0.1034034       31.99156
2012    21      4       0.1249974       36.98546
2012    21      5       0.1528652       43.25652
2012    21      6       0.1876408       51.34244
2012    21      7       0.2482449       65.16623
2012    22      0       0.287815        73.82094
2012    22      1       0.235156        62.67209
2012    22      2       0.2509389       66.11786
2012    22      3       0.1805699       50.27273
2012    22      4       0.1686967       47.33615
2012    22      5       0.2112898       57.00673
2012    22      6       0.4641453       107.1499
2012    22      7       0.685195        140.9244
2012    23      0       0.6526829       135.9668
2012    23      1       0.6464587       134.7925
2012    23      2       0.6587229       136.7822
2012    23      3       0.6090824       130.0084
2012    23      4       0.6342302       133.2923
2012    23      5       0.7336716       146.9035
2012    23      6       1.081891        183.6384
2012    23      7       1.073555        182.1002
2012    24      0       0.8742882       163.3783
2012    24      1       0.7426236       148.2211
2012    24      2       0.5641178       123.8658
2012    24      3       0.456705        105.5069
2012    24      4       0.4467159       103.8482
2012    24      5       0.3935437       93.91187
2012    24      6       0.5106555       114.6346
2012    24      7       0.489774        111.4022
2012    25      0       0.2809467       72.43354
2012    25      1       0.2066374       56.40309
2012    25      2       0.1957193       54.04896
2012    25      3       0.2300265       61.70811
2012    25      4       0.2860108       73.65327
2012    25      5       0.3114834       78.98238
2012    25      6       0.3860335       93.76246
2012    25      7       0.4413562       103.9342
2012    26      0       0.4457195       104.5931
2012    26      1       0.3876423       94.04631
2012    26      2       0.3086443       78.34017
2012    26      3       0.2787413       71.82191
2012    26      4       0.2812523       72.11212
2012    26      5       0.3055326       76.96276
2012    26      6       0.3327523       82.27771
2012    26      7       0.2904812       73.59013
2012    27      0       0.2721273       69.62353
2012    27      1       0.2582224       66.72054
2012    27      2       0.2321078       61.33757
2012    27      3       0.2054126       55.47863
2012    27      4       0.1893777       51.76447
2012    27      5       0.1822884       50.07142
2012    27      6       0.1568595       44.11042
2012    27      7       0.175048        48.59582
2012    28      0       0.2101183       56.67522
2012    28      1       0.2067573       55.63744
2012    28      2       0.1623454       45.22572
2012    28      3       0.1302289       37.6
2012    28      4       0.1412584       40.4043
2012    28      5       0.1601275       44.99823
2012    28      6       0.1920712       52.53964
2012    28      7       0.1623397       45.65041
2012    29      0       0.1382626       39.91191
2012    29      1       0.1400697       40.38141
2012    29      2       0.131933        38.42181
2012    29      3       0.123386        36.45398
2012    29      4       0.1240504       36.73612
2012    29      5       0.1459349       41.67591
2012    29      6       0.1775957       48.18012
2012    29      7       0.1723828       46.82121
2012    30      0       0.1467866       41.19338
2012    30      1       0.1276732       36.97648
2012    30      2       0.1251983       36.5648
2012    30      3       0.122737        36.10448
2012    30      4       0.1229054       36.15832
2012    30      5       0.1229196       36.14319
2012    30      6       0.1566393       44.33437
2012    30      7       0.1812646       50.11402
2012    31      0       0.1431194       41.06296
2012    31      1       0.1306745       38.08387
2012    31      2       0.1380355       39.78306
2012    31      3       0.1459022       41.55396
2012    31      4       0.1604625       44.95444
2012    31      5       0.1737269       48.13083
2012    31      6       0.1975729       53.66576
2012    31      7       0.2063275       55.6101
2013    1       0       1.72191         228.0773
2013    1       1       1.644693        223.9627
2013    1       2       1.590315        220.7407
2013    1       3       1.45337         212.4527
2013    1       4       1.345167        205.3155
2013    1       5       1.361045        206.6332
2013    1       6       1.539096        217.897
2013    1       7       1.414536        209.2209
2013    2       0       1.301773        200.7772
2013    2       1       1.22336         194.9108
2013    2       2       1.206465        193.2448
2013    2       3       1.538026        215.7738
2013    2       4       2.150912        242.2581
2013    2       5       2.41202         249.5782
2013    2       6       2.322748        247.7477
2013    2       7       2.063985        240.0188
2013    3       0       1.712753        225.8008
2013    3       1       1.528729        216.0145
2013    3       2       1.338915        204.2591
2013    3       3       1.179525        192.4952
2013    3       4       1.091938        185.2697
2013    3       5       1.160345        191.1665
2013    3       6       1.339477        204.5723
2013    3       7       1.267049        199.3653
2013    4       0       1.259469        198.7845
2013    4       1       1.179086        192.9133
2013    4       2       1.168167        192.0581
2013    4       3       1.153524        190.4975
2013    4       4       0.9869676       174.9795
2013    4       5       0.7723837       150.938
2013    4       6       0.6065242       128.5827
2013    4       7       0.4042527       95.79274
2013    5       0       0.3588685       87.22102
2013    5       1       0.3579742       86.86771
2013    5       2       0.2915236       73.90785
2013    5       3       0.2605079       67.55159
2013    5       4       0.2725361       70.00251
2013    5       5       0.2763162       70.80508
2013    5       6       0.2316137       61.58718
2013    5       7       0.20717         56.35577
2013    6       0       0.2015792       55.09608
2013    6       1       0.2069895       56.28459
2013    6       2       0.1885295       52.21754
2013    6       3       0.1578278       45.167
2013    6       4       0.1593103       45.33239
2013    6       5       0.176891        49.1706
2013    6       6       0.1863004       51.28749
2013    6       7       0.1929034       52.84016
2013    7       0       0.2134089       57.29375
2013    7       1       0.241785        63.15115
2013    7       2       0.2870635       72.36844
2013    7       3       0.3572805       85.82742
2013    7       4       0.4382576       100.412
2013    7       5       0.5287159       115.4396
2013    7       6       0.6300163       130.4542
2013    7       7       0.6777056       136.9004
2013    8       0       0.625539        129.897
2013    8       1       0.5250602       115.1643
2013    8       2       0.4921829       109.8208
2013    8       3       0.4660763       105.2235
2013    8       4       0.4295364       99.05297
2013    8       5       0.3956169       93.21082
2013    8       6       0.5260787       115.854
2013    8       7       0.4746365       107.4449
2013    9       0       0.3174213       78.67453
2013    9       1       0.2770915       70.80451
2013    9       2       0.4019365       94.58761
2013    9       3       0.6339307       130.9959
2013    9       4       0.8090178       154.3608
2013    9       5       1.547309        218.6368
2013    9       6       2.300616        247.7335
2013    9       7       2.234262        246.4079
2013    10      0       1.830705        232.0801
2013    10      1       1.57911         219.4803
2013    10      2       1.390938        207.9586
2013    10      3       1.195886        193.5541
2013    10      4       1.028103        180.1103
2013    10      5       0.9321103       170.5341
2013    10      6       0.9666448       173.0343
2013    10      7       0.8215085       156.5
2013    11      0       0.6883675       139.4646
2013    11      1       0.671075        136.7993
2013    11      2       0.6596063       134.9542
2013    11      3       0.7738729       149.5179
2013    11      4       0.7524562       147.0582
2013    11      5       0.7639682       148.8037
2013    11      6       0.9476066       169.8239
2013    11      7       0.870233        161.2047
2013    12      0       0.7690638       149.1669
2013    12      1       0.8425502       157.3883
2013    12      2       0.8654292       160.2192
2013    12      3       0.8776675       161.7082
2013    12      4       0.8724481       161.6691
2013    12      5       0.9573722       170.702
2013    12      6       0.9959862       174.46
2013    12      7       1.107116        185.3883
2013    13      0       1.40909         209.1475
2013    13      1       2.179331        244.5657
2013    13      2       2.815492        258.7246
2013    13      3       2.572708        254.1862
2013    13      4       1.840711        232.4298
2013    13      5       1.176293        192.4505
2013    13      6       1.170095        192.2488
2013    13      7       1.050292        181.481
2013    14      0       0.9598164       172.7415
2013    14      1       0.8867624       164.4001
2013    14      2       0.7954428       153.4844
2013    14      3       0.6625368       135.7788
2013    14      4       0.6401342       132.7219
2013    14      5       0.857585        160.4963
2013    14      6       1.50204         214.4148
2013    14      7       1.467426        211.8536
2013    15      0       1.673517        223.4517
2013    15      1       1.679273        223.7483
2013    15      2       1.403913        207.8115
2013    15      3       1.383669        206.478
2013    15      4       1.318848        201.9848
2013    15      5       1.273218        198.2095
2013    15      6       1.791165        228.0782
2013    15      7       1.696254        223.6179
2013    16      0       1.908958        233.2105
2013    16      1       1.325595        201.5088
2013    16      2       0.7621759       148.8002
2013    16      3       0.4440981       102.5112
2013    16      4       0.3093131       77.94555
2013    16      5       0.4314508       101.0297
2013    16      6       0.3920548       94.13727
2013    16      7       0.3644056       89.05704
2013    17      0       0.3199324       80.60406
2013    17      1       0.205545        56.52776
2013    17      2       0.168755        48.03859
2013    17      3       0.1376403       40.60764
2013    17      4       0.1325453       39.36167
2013    17      5       0.1331488       39.53542
2013    17      6       0.1565312       45.07905
2013    17      7       0.09862796      31.10403
2013    18      0       0.09341087      29.97107
2013    18      1       0.1006464       31.76467
2013    18      2       0.1255489       37.7544
2013    18      3       0.1664831       47.28615
2013    18      4       0.1329937       39.45711
2013    18      5       0.1379959       40.62097
2013    18      6       0.1445781       42.07528
2013    18      7       0.2429137       64.28233
2013    19      0       0.4998388       112.1604
2013    19      1       0.6854366       139.2943
2013    19      2       0.6874493       139.2836
2013    19      3       0.7909238       152.1157
2013    19      4       0.8623888       160.8022
2013    19      5       1.288865        200.0947
2013    19      6       1.529644        216.0238
2013    19      7       1.420599        209.0044
2013    20      0       1.2212          194.2445
2013    20      1       1.217069        193.2648
2013    20      2       1.388213        206.411
2013    20      3       1.629           221.0287
2013    20      4       1.853544        231.2745
2013    20      5       1.92998         234.6471
2013    20      6       1.808576        229.5972
2013    20      7       1.756144        227.5106
2013    21      0       1.685067        224.3542
2013    21      1       1.541946        217.0984
2013    21      2       1.257497        197.8656
2013    21      3       1.160881        189.4727
2013    21      4       1.321605        202.2456
2013    21      5       1.421049        209.3106
2013    21      6       1.356497        205.329
2013    21      7       1.272976        199.1575
2013    22      0       1.196727        193.1863
2013    22      1       1.193996        193.0788
2013    22      2       1.110966        186.0451
2013    22      3       1.038015        179.6358
2013    22      4       0.9420744       169.975
2013    22      5       0.9201294       167.8912
2013    22      6       0.8591946       161.3011
2013    22      7       0.7492846       147.7118
2013    23      0       0.6486691       134.1746
2013    23      1       0.6588223       135.7641
2013    23      2       0.712186        142.885
2013    23      3       0.627245        131.5772
2013    23      4       0.6114642       129.1882
2013    23      5       0.7639866       150.2007
2013    23      6       1.024954        180.3128
2013    23      7       1.643782        224.0842
2013    24      0       1.719706        227.7778
2013    24      1       1.343476        205.4493
2013    24      2       1.024515        178.8811
2013    24      3       0.8236957       157.314
2013    24      4       0.7690167       150.4131
2013    24      5       0.8334593       158.2034
2013    24      6       0.8423678       159.2072
2013    24      7       0.7931936       152.7446
2013    25      0       0.7460148       146.3798
2013    25      1       0.8688691       161.4835
2013    25      2       1.06229         181.4712
2013    25      3       1.040443        179.2303
2013    25      4       0.9801096       173.0726
2013    25      5       0.9720294       171.6899
2013    25      6       1.155389        188.5351
2013    25      7       1.45133         211.6729
2013    26      0       1.666922        224.2463
2013    26      1       1.544721        218.3105
2013    26      2       0.8984328       165.5982
2013    26      3       0.9890792       174.5944
2013    26      4       0.7587739       149.3982
2013    26      5       0.6379796       133.6272
2013    26      6       1.014231        177.8991
2013    26      7       1.018899        177.642
2013    27      0       1.258304        198.407
2013    27      1       1.004008        176.5347
2013    27      2       0.9462899       170.9224
2013    27      3       0.5299344       117.6412
2013    27      4       0.2792965       72.43095
2013    27      5       0.2416881       64.26246
2013    27      6       0.4515647       105.2528
2013    27      7       0.4306993       100.9638
2013    28      0       0.4283909       100.4825
2013    28      1       0.3073515       77.39274
2013    28      2       0.1950622       52.29913
2013    28      3       0.1742628       47.86434
2013    28      4       0.2067003       54.86205
2013    28      5       0.2661677       67.33909
2013    28      6       0.3145828       76.99713
2013    28      7       0.3479043       83.59422
2013    29      0       0.3771834       89.25061
2013    29      1       0.3684765       87.73441
2013    29      2       0.3140354       76.9469
2013    29      3       0.254513        64.80313
2013    29      4       0.2623334       66.69011
2013    29      5       0.2605233       66.8437
2013    29      6       0.2535936       66.39933
2013    29      7       0.3718125       90.28653
2013    30      0       0.3031595       76.64946
2013    30      1       0.216721        58.17435
2013    30      2       0.2154939       57.88484
2013    30      3       0.2319488       61.6419
2013    30      4       0.28707         72.79451
2013    30      5       0.3277372       80.49923
2013    30      6       0.305587        76.62458
2013    30      7       0.2665892       68.81641
2013    31      0       0.2337615       62.04717
2013    31      1       0.2068621       56.24622
2013    31      2       0.2012821       55.01038
2013    31      3       0.2442771       64.23061
2013    31      4       0.3038761       76.48074
2013    31      5       0.3331977       82.41501
2013    31      6       0.2964661       75.20735
2013    31      7       0.2972986       75.12488
2014    1       0       1.529839        217.5786
2014    1       1       1.472213        213.9571
2014    1       2       1.059516        182.4793
2014    1       3       0.7270028       145.7604
2014    1       4       0.5687788       123.5542
2014    1       5       0.8353808       159.2171
2014    1       6       0.9020798       166.606
2014    1       7       0.9582729       171.8682
2014    2       0       1.442674        210.7491
2014    2       1       1.52061         215.2403
2014    2       2       1.070627        182.2781
2014    2       3       0.8791175       163.2899
2014    2       4       0.9796408       173.5049
2014    2       5       1.231481        195.6273
2014    2       6       1.311608        202.0721
2014    2       7       1.013503        176.8157
2014    3       0       0.788487        152.766
2014    3       1       0.8005216       154.1447
2014    3       2       0.8186136       156.216
2014    3       3       0.7954183       153.4489
2014    3       4       0.8386331       158.6378
2014    3       5       1.087641        184.0813
2014    3       6       1.259957        197.4261
2014    3       7       1.188583        192.0731
2014    4       0       0.8071642       154.0457
2014    4       1       0.575651        123.1119
2014    4       2       0.5809687       124.279
2014    4       3       0.4891589       110.6497
2014    4       4       0.448134        103.7857
2014    4       5       0.5515647       120.6072
2014    4       6       0.7577402       149.1681
2014    4       7       0.6418799       133.7008
2014    5       0       0.5036095       112.7836
2014    5       1       0.5405352       118.4722
2014    5       2       0.5487373       119.7924
2014    5       3       0.473947        107.1124
2014    5       4       0.4168838       96.97233
2014    5       5       0.3774415       90.38487
2014    5       6       0.4525975       103.7493
2014    5       7       0.4500571       103.3459
2014    6       0       0.4530188       103.93
2014    6       1       0.5061693       113.2226
2014    6       2       0.4651257       106.5753
2014    6       3       0.4461281       103.3042
2014    6       4       0.4089383       96.57367
2014    6       5       0.8450468       160.248
2014    6       6       1.154415        190.5857
2014    6       7       1.050381        180.6799
2014    7       0       0.6890162       140.1692
2014    7       1       0.6664326       136.7855
2014    7       2       0.7366176       145.9276
2014    7       3       0.6858675       139.2316
2014    7       4       0.6120582       128.9255
2014    7       5       0.8427677       158.8011
2014    7       6       0.9456762       170.1221
2014    7       7       0.7862033       151.9762
2014    8       0       1.059615        180.1232
2014    8       1       1.093452        183.4893
2014    8       2       1.102953        183.912
2014    8       3       1.0538          179.5326
2014    8       4       1.06157         179.7482
2014    8       5       1.470202        211.3139
2014    8       6       1.553775        216.1399
2014    8       7       1.379036        204.4356
2014    9       0       1.329498        200.3598
2014    9       1       1.209421        191.6602
2014    9       2       1.155703        187.6782
2014    9       3       1.294593        198.8294
2014    9       4       1.546601        215.4021
2014    9       5       1.896208        232.3908
2014    9       6       2.183279        242.6193
2014    9       7       2.013855        236.5644
2014    10      0       1.723301        224.5123
2014    10      1       1.512186        213.2704
2014    10      2       1.467561        210.2409
2014    10      3       1.520439        212.8361
2014    10      4       1.648646        219.59
2014    10      5       2.091183        237.928
2014    10      6       2.297106        243.6525
2014    10      7       2.289565        243.5808
2014    11      0       2.036018        235.8586
2014    11      1       1.919356        232.0649
2014    11      2       1.989893        235.3351
2014    11      3       1.760299        226.4986
2014    11      4       1.533086        214.6391
2014    11      5       1.440392        210.057
2014    11      6       1.504231        214.2713
2014    11      7       0.9067839       165.5761
2014    12      0       0.6428249       132.4871
2014    12      1       0.5523688       119.2164
2014    12      2       0.5255019       115.1971
2014    12      3       0.5263371       115.3569
2014    12      4       0.4867159       109.3037
2014    12      5       0.7007395       141.3044
2014    12      6       0.9848869       173.9511
2014    12      7       0.7313785       145.0346
2014    13      0       0.4777468       107.9456
2014    13      1       0.4664613       106.1164
2014    13      2       0.4511858       103.6276
2014    13      3       0.3722275       89.52806
2014    13      4       0.3779036       90.53796
2014    13      5       0.4861121       109.5861
2014    13      6       0.544353        118.9541
2014    13      7       0.4163313       97.61745
2014    14      0       0.3113338       77.74898
2014    14      1       0.2767187       70.81158
2014    14      2       0.2601098       67.51908
2014    14      3       0.2202112       59.10746
2014    14      4       0.2286419       60.91113
2014    14      5       0.2641187       68.33564
2014    14      6       0.3906571       93.46682
2014    14      7       0.3978018       94.86966
2014    15      0       0.3091518       77.70881
2014    15      1       0.3461498       84.50899
2014    15      2       0.3813822       91.05506
2014    15      3       0.3308941       81.46543
2014    15      4       0.3626854       86.88055
2014    15      5       0.4388218       99.93569
2014    15      6       0.5729644       122.1139
2014    15      7       0.5095271       112.4589
2014    16      0       0.5098371       112.0962
2014    16      1       0.6317517       130.4758
2014    16      2       0.7186551       141.9582
2014    16      3       0.7290228       143.7427
2014    16      4       0.7295773       143.9973
2014    16      5       0.7987705       152.8636
2014    16      6       1.176145        192.3542
2014    16      7       1.125296        187.9241
2014    17      0       1.025616        178.3505
2014    17      1       0.9198176       166.8726
2014    17      2       0.9526485       169.8273
2014    17      3       0.8414526       157.9812
2014    17      4       0.7952502       152.602
2014    17      5       0.6875001       139.3741
2014    17      6       0.6766928       138.4826
2014    17      7       0.6934028       141.2802
2014    18      0       0.6511614       135.5664
2014    18      1       0.6712549       138.3089
2014    18      2       0.5999581       127.775
2014    18      3       0.4063722       96.16827
2014    18      4       0.3917044       93.74013
2014    18      5       0.6573009       136.8118
2014    18      6       0.7040777       143.3062
2014    18      7       0.948265        171.4954
2014    19      0       1.513783        215.0423
2014    19      1       1.826231        230.0342
2014    19      2       2.553311        253.1089
2014    19      3       2.494124        251.4059
2014    19      4       1.468901        210.9499
2014    19      5       1.431493        208.9406
2014    19      6       1.942834        235.3001
2014    19      7       1.802096        229.3861
2014    20      0       1.276446        199.5252
2014    20      1       0.8888309       165.2621
2014    20      2       0.7948256       154.0822
2014    20      3       0.4195372       98.55151
2014    20      4       0.3402194       84.15707
2014    20      5       0.6277659       132.638
2014    20      6       1.196138        194.6377
2014    20      7       1.153669        189.9789
2014    21      0       1.101896        185.1203
2014    21      1       0.9201742       167.4361
2014    21      2       0.6844151       139.5233
2014    21      3       0.4063169       96.2071
2014    21      4       0.3038799       76.58539
2014    21      5       0.5708795       123.2319
2014    21      6       0.7804359       152.0447
2014    21      7       0.7939251       153.7565
2014    22      0       0.4461308       103.3755
2014    22      1       0.2200653       59.12221
2014    22      2       0.2071926       56.37795
2014    22      3       0.1993178       54.69899
2014    22      4       0.1875804       52.18426
2014    22      5       0.1794956       50.39721
2014    22      6       0.2196011       59.47616
2014    22      7       0.2175452       59.16951
2014    23      0       0.1203102       36.53354
2014    23      1       0.1300165       38.6971
2014    23      2       0.1447411       42.12255
2014    23      3       0.1638594       46.64527
2014    23      4       0.1940641       53.37391
2014    23      5       0.2431282       63.99999
2014    23      6       0.3768499       90.65368
2014    23      7       0.3403162       83.90517
2014    24      0       0.3470356       85.15199
2014    24      1       0.4420508       102.0596
2014    24      2       0.5216973       115.0013
2014    24      3       0.3769436       90.26581
2014    24      4       0.375027        89.41824
2014    24      5       0.5716481       121.7278
2014    24      6       0.8916747       162.633
2014    24      7       1.145559        186.549
2014    25      0       1.692994        223.5425
2014    25      1       2.0062          236.4501
2014    25      2       2.097607        239.0966
2014    25      3       2.429964        248.6887
2014    25      4       2.496179        251.0028
2014    25      5       2.673787        255.6885
2014    25      6       2.8883          259.2259
2014    25      7       2.678051        255.1194
2014    26      0       2.718633        255.626
2014    26      1       2.810329        257.3635
2014    26      2       2.71836         255.3802
2014    26      3       2.591965        253.0924
2014    26      4       2.875869        257.9323
2014    26      5       3.045266        259.9796
2014    26      6       3.091763        260.487
2014    26      7       2.729788        254.8653
2014    27      0       2.606611        252.4522
2014    27      1       2.597179        252.2168
2014    27      2       2.590916        252.1339
2014    27      3       2.768329        255.7142
2014    27      4       2.685992        253.9447
2014    27      5       2.705786        254.8587
2014    27      6       3.068197        260.4539
2014    27      7       3.017271        259.4314
2014    28      0       2.942139        258.1636
2014    28      1       2.65438         253.0642
2014    28      2       2.608925        252.3158
2014    28      3       2.691666        254.4805
2014    28      4       2.775506        256.1521
2014    28      5       2.957362        259.3038
2014    28      6       2.587971        252.4796
2014    28      7       2.284354        245.1157
2014    29      0       2.039347        237.455
2014    29      1       2.158289        241.239
2014    29      2       1.969298        235.0924
2014    29      3       1.762761        226.4941
2014    29      4       1.60608         218.6501
2014    29      5       1.489124        212.3138
2014    29      6       1.472663        211.5476
2014    29      7       1.593226        218.1422
2014    30      0       1.60367         218.3647
2014    30      1       1.434776        208.5896
2014    30      2       1.284198        198.4698
2014    30      3       1.292966        198.9261
2014    30      4       1.229502        194.1155
2014    30      5       1.08429         182.1474
2014    30      6       1.003774        175.2285
2014    30      7       0.8036561       153.851
2014    31      0       0.6406377       132.5391
2014    31      1       0.5787201       123.4231
2014    31      2       0.603509        127.1396
2014    31      3       0.6756988       137.4645
2014    31      4       0.6483775       133.8918
2014    31      5       0.7322998       145.2771
2014    31      6       0.957479        171.2182
2014    31      7       0.8718228       161.6413
2015    1       0       1.384856        206.6125
2015    1       1       1.251415        197.1531
2015    1       2       1.035174        178.2675
2015    1       3       0.870381        161.2409
2015    1       4       0.8654441       160.6782
2015    1       5       1.336553        202.7856
2015    1       6       1.821624        230.3712
2015    1       7       1.69563         223.8921
2015    2       0       1.559478        216.7973
2015    2       1       1.483939        212.3808
2015    2       2       1.336405        202.5776
2015    2       3       1.418506        208.2237
2015    2       4       1.741901        226.9466
2015    2       5       2.054024        239.5271
2015    2       6       2.066963        240.5607
2015    2       7       1.816254        230.2108
2015    3       0       1.471764        211.8781
2015    3       1       1.223801        194.4399
2015    3       2       1.083969        182.2374
2015    3       3       0.8573731       159.4253
2015    3       4       0.8826429       161.4462
2015    3       5       1.009555        174.5345
2015    3       6       1.214585        193.6505
2015    3       7       1.414154        209.0498
2015    4       0       1.5957          219.9653
2015    4       1       1.637908        222.2967
2015    4       2       1.577887        218.8926
2015    4       3       1.805069        230.255
2015    4       4       1.717414        225.9149
2015    4       5       1.714246        226.3909
2015    4       6       1.926132        236.0149
2015    4       7       2.335814        249.6977
2015    5       0       2.344662        249.1003
2015    5       1       2.089419        241.4839
2015    5       2       1.76853         228.818
2015    5       3       1.493304        213.6495
2015    5       4       1.229119        194.8238
2015    5       5       1.202506        192.9282
2015    5       6       1.384011        206.8113
2015    5       7       1.497117        214.305
2015    6       0       1.699828        225.1876
2015    6       1       1.771745        228.2625
2015    6       2       1.838318        230.462
2015    6       3       2.210795        243.1361
2015    6       4       2.551097        251.7325
2015    6       5       2.773125        256.4131
2015    6       6       2.689771        255.0071
2015    6       7       2.455135        250.2505
2015    7       0       1.91586         233.28
2015    7       1       1.484816        211.7346
2015    7       2       1.312936        200.3068
2015    7       3       1.28691         198.2831
2015    7       4       1.377653        204.9241
2015    7       5       1.642443        220.0355
2015    7       6       1.735625        224.6764
2015    7       7       1.748655        224.7617
2015    8       0       1.822634        227.9106
2015    8       1       1.755921        225.1531
2015    8       2       1.686066        221.5374
2015    8       3       1.645529        219.1044
2015    8       4       1.610302        217.95
2015    8       5       1.558277        215.2897
2015    8       6       1.556954        215.7231
2015    8       7       1.618532        218.3138
2015    9       0       1.82219         227.6348
2015    9       1       1.512315        213.2508
2015    9       2       1.636485        219.1332
2015    9       3       1.738276        223.7323
2015    9       4       1.84352         228.7065
2015    9       5       2.009948        236.0825
2015    9       6       2.151967        241.2695
2015    9       7       1.951845        234.3644
2015    10      0       1.515078        213.1705
2015    10      1       1.120329        185.4886
2015    10      2       1.048077        179.0547
2015    10      3       0.9278816       167.6455
2015    10      4       0.893692        164.0465
2015    10      5       0.9818692       173.3765
2015    10      6       1.283592        200.1445
2015    10      7       1.245951        197.4247
2015    11      0       0.8668776       162.3976
2015    11      1       0.7412091       147.0989
2015    11      2       0.8268887       157.4885
2015    11      3       0.8613443       161.3532
2015    11      4       0.7844494       152.4425
2015    11      5       0.6851397       139.6301
2015    11      6       0.7415185       146.3073
2015    11      7       0.6815916       138.303
2015    12      0       0.6325325       131.18
2015    12      1       0.5605883       120.649
2015    12      2       0.5157233       113.7636
2015    12      3       0.5150396       113.6024
2015    12      4       0.5518767       119.4297
2015    12      5       0.5353776       116.8637
2015    12      6       0.5383559       116.9626
2015    12      7       0.5442472       117.4791
2015    13      0       0.6073023       127.0783
2015    13      1       0.7181881       142.7039
2015    13      2       0.8812505       162.3475
2015    13      3       0.9683351       171.0984
2015    13      4       0.8754855       161.3237
2015    13      5       0.7881401       151.3251
2015    13      6       0.6765745       136.9612
2015    13      7       0.5492874       118.7289
2015    14      0       0.5342337       116.3268
2015    14      1       0.4818252       107.474
2015    14      2       0.4076865       94.64353
2015    14      3       0.4023432       93.74438
2015    14      4       0.4876201       108.7966
2015    14      5       0.523208        115.0628
2015    14      6       0.5078299       112.7877
2015    14      7       0.4656529       105.6653
2015    15      0       0.4627098       104.6403
2015    15      1       0.489561        108.8968
2015    15      2       0.4964469       109.8001
2015    15      3       0.470892        106.0348
2015    15      4       0.4664          105.1698
2015    15      5       0.4344163       99.49438
2015    15      6       0.4090226       94.78915
2015    15      7       0.4082288       94.34442
2015    16      0       0.4240927       96.9336
2015    16      1       0.400134        92.62284
2015    16      2       0.3596168       84.97459
2015    16      3       0.3721328       87.25295
2015    16      4       0.3535549       84.50192
2015    16      5       0.2875307       71.44422
2015    16      6       0.3515343       84.14918
2015    16      7       0.3425927       83.14421
2015    17      0       0.2450342       62.51163
2015    17      1       0.2410965       60.99704
2015    17      2       0.2691837       66.43051
2015    17      3       0.2459698       62.00401
2015    17      4       0.2416867       61.06555
2015    17      5       0.2409748       60.95385
2015    17      6       0.2335394       59.25568
2015    17      7       0.226715        57.71381
2015    18      0       0.2099198       54.39166
2015    18      1       0.2026507       53.18887
2015    18      2       0.2038065       53.58487
2015    18      3       0.1993984       52.79388
2015    18      4       0.2044034       53.96533
2015    18      5       0.2132543       55.89929
2015    18      6       0.2461441       62.91177
2015    18      7       0.2435834       62.5418
2015    19      0       0.2448405       62.78754
2015    19      1       0.2820169       70.42283
2015    19      2       0.2960972       73.08155
2015    19      3       0.303431        74.38437
2015    19      4       0.3147178       76.47969
2015    19      5       0.4784924       106.0477
2015    19      6       0.7794211       149.9074
2015    19      7       0.6536173       133.5389
2015    20      0       0.5181513       112.6989
2015    20      1       0.4308874       97.70922
2015    20      2       0.3568228       84.65084
2015    20      3       0.3128378       76.50823
2015    20      4       0.3122067       76.30266
2015    20      5       0.344338        82.08523
2015    20      6       0.5377227       117.0159
2015    20      7       0.4603485       104.7659
2015    21      0       0.484365        108.9668
2015    21      1       0.4919157       110.8016
2015    21      2       0.590513        126.777
2015    21      3       0.4392946       101.5676
2015    21      4       0.2756887       69.47892
2015    21      5       0.2734747       69.00784
2015    21      6       0.3307131       80.75056
2015    21      7       0.3502266       84.9065
2015    22      0       0.5304528       116.7474
2015    22      1       0.8078051       154.9494
2015    22      2       0.8928421       164.6678
2015    22      3       0.790906        153.0563
2015    22      4       0.821314        156.7414
2015    22      5       1.080314        183.6228
2015    22      6       1.553287        217.7269
2015    22      7       1.519102        215.0412
2015    23      0       1.659391        222.8087
2015    23      1       1.818772        230.369
2015    23      2       1.566223        217.5394
2015    23      3       1.143664        188.145
2015    23      4       0.9957099       174.1499
2015    23      5       1.160923        189.1777
2015    23      6       1.301846        200.1608
2015    23      7       1.203664        192.8455
2015    24      0       1.111462        185.3722
2015    24      1       1.050568        179.839
2015    24      2       0.9724374       172.203
2015    24      3       0.8341678       157.3949
2015    24      4       0.7479532       147.0568
2015    24      5       0.7729484       150.3262
2015    24      6       0.8447346       158.7533
2015    24      7       0.8322339       157.0171
2015    25      0       0.7535714       147.6067
2015    25      1       0.8317642       157.0385
2015    25      2       0.9198874       166.674
2015    25      3       0.9686164       171.5956
2015    25      4       1.162129        189.5084
2015    25      5       1.56978         217.9152
2015    25      6       1.708906        225.6664
2015    25      7       1.639159        221.5791
2015    26      0       1.496959        213.4902
2015    26      1       1.362936        205.0422
2015    26      2       1.295953        200.508
2015    26      3       1.219611        194.6287
2015    26      4       1.25662         197.4197
2015    26      5       1.790987        228.5896
2015    26      6       2.430155        250.0551
2015    26      7       2.313152        246.5265
2015    27      0       2.295962        246.5186
2015    27      1       2.435526        250.0432
2015    27      2       2.053248        238.4486
2015    27      3       1.678204        223.2321
2015    27      4       1.481447        212.4198
2015    27      5       1.620999        219.8188
2015    27      6       1.848973        231.2206
2015    27      7       1.62859         220.7724
2015    28      0       1.226167        195.4071
2015    28      1       1.051639        180.5012
2015    28      2       0.9020742       165.2529
2015    28      3       0.6950866       140.4648
2015    28      4       0.7167236       143.7064
2015    28      5       1.221572        195.6724
2015    28      6       1.663754        224.1036
2015    28      7       1.355627        204.9775
2015    29      0       0.82337         157.0658
2015    29      1       0.5209725       115.8621
2015    29      2       0.3986391       95.25813
2015    29      3       0.364486        88.82025
2015    29      4       0.2827223       72.75054
2015    29      5       0.4052525       96.51311
2015    29      6       0.5931634       127.9174
2015    29      7       0.5024337       113.8937
2015    30      0       0.367533        89.8024
2015    30      1       0.2393661       63.45265
2015    30      2       0.2206796       59.448
2015    30      3       0.1852234       51.37889
2015    30      4       0.1893592       52.18134
2015    30      5       0.2037174       55.19301
2015    30      6       0.2459799       64.69411
2015    30      7       0.2781092       71.72265
2015    31      0       0.3118333       78.67357
2015    31      1       0.261468        68.19271
2015    31      2       0.2000404       54.86254
2015    31      3       0.1800452       50.53929
2015    31      4       0.1762375       49.7206
2015    31      5       0.1851772       51.70666
2015    31      6       0.2331244       62.65416
2015    31      7       0.2085588       57.28394
2016    1       0       1.270524        197.8526
2016    1       1       1.427561        208.9375
2016    1       2       1.233418        195.204
2016    1       3       1.186154        191.0243
2016    1       4       1.117538        185.5407
2016    1       5       0.9659887       171.2838
2016    1       6       0.8137528       154.075
2016    1       7       0.7423292       145.1947
2016    2       0       0.8121955       153.8247
2016    2       1       0.9228067       166.4361
2016    2       2       0.9847983       173.1568
2016    2       3       1.004332        175.4083
2016    2       4       1.082873        183.1551
2016    2       5       1.346655        204.5645
2016    2       6       1.374491        206.0414
2016    2       7       1.120025        186.6317
2016    3       0       0.8915638       164.2216
2016    3       1       0.7331362       145.205
2016    3       2       0.6951142       140.2052
2016    3       3       0.5896465       125.5638
2016    3       4       0.4924091       110.6249
2016    3       5       0.4703997       106.9836
2016    3       6       0.4564247       104.5227
2016    3       7       0.4143974       97.16728
2016    4       0       0.4054648       95.4623
2016    4       1       0.3782479       90.47053
2016    4       2       0.2960577       74.85441
2016    4       3       0.2657997       68.75002
2016    4       4       0.3339374       82.36419
2016    4       5       0.5354512       117.6812
2016    4       6       0.8954766       165.4747
2016    4       7       0.7903283       153.034
2016    5       0       0.5308442       117.0599
2016    5       1       0.5529897       120.251
2016    5       2       0.4999501       111.7318
2016    5       3       0.4513346       103.5229
2016    5       4       0.3899043       92.73641
2016    5       5       0.3484889       85.36464
2016    5       6       0.3516102       85.91828
2016    5       7       0.2855246       72.75115
2016    6       0       0.2772324       70.8605
2016    6       1       0.2594344       67.18265
2016    6       2       0.2448439       63.65038
2016    6       3       0.21295         56.77045
2016    6       4       0.2225284       58.84486
2016    6       5       0.2414967       62.82333
2016    6       6       0.286003        72.07828
2016    6       7       0.4144762       96.87337
2016    7       0       0.5497979       120.3271
2016    7       1       0.6528638       135.9656
2016    7       2       0.7073269       142.981
2016    7       3       1.003686        177.2711
2016    7       4       1.302424        202.6558
2016    7       5       1.09843         186.1251
2016    7       6       1.00259         176.917
2016    7       7       1.331646        204.2728
2016    8       0       1.551742        217.9976
2016    8       1       1.173773        191.3955
2016    8       2       0.6931341       140.5407
2016    8       3       0.4332957       100.0176
2016    8       4       0.2643831       66.34386
2016    8       5       0.3059575       74.47544
2016    8       6       0.4627196       104.1929
2016    8       7       0.5684265       121.7056
2016    9       0       0.3293557       79.53131
2016    9       1       0.2808378       69.97092
2016    9       2       0.2935758       72.2038
2016    9       3       0.2706573       68.19762
2016    9       4       0.2946846       72.98423
2016    9       5       0.3368939       80.85138
2016    9       6       0.3424355       82.2381
2016    9       7       0.3307775       80.57504
2016    10      0       0.2824613       71.06576
2016    10      1       0.2957332       74.29365
2016    10      2       0.3914683       93.71577
2016    10      3       0.3084624       77.73979
2016    10      4       0.2719535       70.18961
2016    10      5       0.3733421       90.50787
2016    10      6       0.5687192       124.2279
2016    10      7       0.7312887       147.2285
2016    11      0       0.7889812       155.0619
2016    11      1       0.6962287       142.7015
2016    11      2       0.6513613       136.2487
2016    11      3       0.6004394       128.1823
2016    11      4       0.570855        123.1249
2016    11      5       0.5653663       122.0728
2016    11      6       0.5402219       118.1958
2016    11      7       0.4195457       97.67022
2016    12      0       0.3879288       92.16691
2016    12      1       0.3513668       85.68021
2016    12      2       0.3167688       79.13983
2016    12      3       0.29611         74.88539
2016    12      4       0.2846007       72.50645
2016    12      5       0.2854252       72.54331
2016    12      6       0.2769164       70.74362
2016    12      7       0.2526727       66.02625
2016    13      0       0.223643        59.83927
2016    13      1       0.2134817       57.49292
2016    13      2       0.2177435       58.20406
2016    13      3       0.2223798       59.10706
2016    13      4       0.1939852       53.32044
2016    13      5       0.2162217       57.98777
2016    13      6       0.2617554       67.59771
2016    13      7       0.2935601       74.40305
2016    14      0       0.2252531       59.81969
2016    14      1       0.2121093       56.96081
2016    14      2       0.2344418       61.86046
2016    14      3       0.256542        66.74166
2016    14      4       0.2856907       73.13329
2016    14      5       0.317329        79.62762
2016    14      6       0.3185455       79.81975
2016    14      7       0.30505         77.07287
2016    15      0       0.3201878       80.15191
2016    15      1       0.3120044       78.4801
2016    15      2       0.2365109       62.53882
2016    15      3       0.214215        57.47427
2016    15      4       0.2331713       61.61498
2016    15      5       0.2642966       68.05705
2016    15      6       0.3025594       75.9492
2016    15      7       0.388423        92.6451
2016    16      0       0.4762586       108.291
2016    16      1       0.5187238       115.2221
2016    16      2       0.3433121       83.54075
2016    16      3       0.2674341       67.80199
2016    16      4       0.257737        66.00415
2016    16      5       0.267365        68.27018
2016    16      6       0.4742621       108.3412
2016    16      7       0.731446        146.7056
2016    17      0       0.7799572       152.2481
2016    17      1       0.9382663       169.8859
2016    17      2       0.8195769       156.3579
2016    17      3       0.997945        177.037
2016    17      4       1.123125        189.5225
2016    17      5       0.9077418       168.9881
2016    17      6       0.9614786       174.0928
2016    17      7       1.050253        181.0974
2016    18      0       0.7906314       153.277
2016    18      1       0.5842151       125.0969
2016    18      2       0.4547545       103.9686
2016    18      3       0.3770383       89.72715
2016    18      4       0.3569891       86.08214
2016    18      5       0.3519276       85.12617
2016    18      6       0.3260092       80.24675
2016    18      7       0.2871182       72.84056
2016    19      0       0.2553171       66.32084
2016    19      1       0.31981         79.51035
2016    19      2       0.4086165       96.22966
2016    19      3       0.4172427       97.64012
2016    19      4       0.4496127       103.1851
2016    19      5       0.5972637       126.4367
2016    19      6       1.126534        186.3786
2016    19      7       1.384016        206.0991
2016    20      0       1.188257        192.4061
2016    20      1       0.9108837       166.5887
2016    20      2       0.8178296       155.6318
2016    20      3       0.7593138       148.5308
2016    20      4       0.7795326       150.9663
2016    20      5       1.179571        191.3146
2016    20      6       1.824686        230.3865
2016    20      7       2.154285        242.5338
2016    21      0       2.038988        238.7574
2016    21      1       0.9408206       169.2292
2016    21      2       0.9706989       172.4116
2016    21      3       0.8843253       163.5425
2016    21      4       0.95027         170.3286
2016    21      5       1.465001        211.7865
2016    21      6       1.697567        224.261
2016    21      7       1.636717        221.2525
2016    22      0       1.164109        189.6295
2016    22      1       1.004312        174.7699
2016    22      2       0.7888358       152.138
2016    22      3       0.677996        138.2868
2016    22      4       0.6999306       141.2527
2016    22      5       0.9320069       168.8189
2016    22      6       0.818411        156.7718
2016    22      7       0.7515124       148.7407
2016    23      0       0.6198931       130.9663
2016    23      1       0.5325494       117.4981
2016    23      2       0.4218902       98.92212
2016    23      3       0.3659085       88.42276
2016    23      4       0.3347888       82.45367
2016    23      5       0.3183727       79.07226
2016    23      6       0.4198199       98.25141
2016    23      7       0.4266572       99.50789
2016    24      0       0.2831506       71.58424
2016    24      1       0.3116926       76.76829
2016    24      2       0.3094797       76.34122
2016    24      3       0.2785301       70.22782
2016    24      4       0.2882859       72.53502
2016    24      5       0.3100128       76.89087
2016    24      6       0.3086585       76.69977
2016    24      7       0.3048683       75.96418
2016    25      0       0.2899512       72.98048
2016    25      1       0.3006508       75.29289
2016    25      2       0.3028894       75.86857
2016    25      3       0.2804502       71.43214
2016    25      4       0.2772796       70.80429
2016    25      5       0.2904133       73.4761
2016    25      6       0.4601047       105.526
2016    25      7       0.5466949       119.9267
2016    26      0       0.361528        87.9287
2016    26      1       0.2803121       71.71509
2016    26      2       0.282927        72.24942
2016    26      3       0.2660757       68.8331
2016    26      4       0.2481897       65.18466
2016    26      5       0.2506042       65.74729
2016    26      6       0.2303482       61.42973
2016    26      7       0.2071916       56.44286
2016    27      0       0.2124924       57.593
2016    27      1       0.2226112       59.74175
2016    27      2       0.2453596       64.6314
2016    27      3       0.2734603       70.52552
2016    27      4       0.2599001       67.70098
2016    27      5       0.2324024       62.01271
2016    27      6       0.3596435       88.16487
2016    27      7       0.5229915       116.3213
2016    28      0       0.7452424       147.5684
2016    28      1       0.9397847       169.4418
2016    28      2       0.7859245       152.5127
2016    28      3       0.6436181       134.4441
2016    28      4       0.5902646       126.7982
2016    28      5       0.5262215       116.9865
2016    28      6       0.6806959       140.4115
2016    28      7       0.8423396       161.2406
2016    29      0       0.6954754       142.6072
2016    29      1       0.5967012       128.3077
2016    29      2       0.6408901       134.7088
2016    29      3       0.6211011       131.6984
2016    29      4       0.6247339       131.9447
2016    29      5       0.8729898       163.6344
2016    29      6       1.302458        202.1071
2016    29      7       1.239314        196.7916
2016    30      0       0.9945572       176.1964
2016    30      1       0.9051411       167.2986
2016    30      2       0.798081        155.6061
2016    30      3       0.6842661       141.0538
2016    30      4       0.6387829       134.9917
2016    30      5       0.8572653       163.5855
2016    30      6       0.8925426       166.0865
2016    30      7       0.7515538       149.4671
2016    31      0       0.4438353       104.018
2016    31      1       0.3105676       78.68616
2016    31      2       0.2574805       67.59819
2016    31      3       0.2270388       60.89931
2016    31      4       0.2336655       62.22066
2016    31      5       0.2539921       66.41404
2016    31      6       0.2905482       74.12181
2016    31      7       0.2368621       62.57607
2017    1       0       0.2005949       54.6194
2017    1       1       0.2422258       63.80028
2017    1       2       0.2658867       68.86114
2017    1       3       0.253374        66.32686
2017    1       4       0.2312711       61.6426
2017    1       5       0.323344        80.64467
2017    1       6       0.5850951       125.6247
2017    1       7       0.6623741       136.7558
2017    2       0       0.5617261       121.7321
2017    2       1       0.6934477       140.0876
2017    2       2       0.6994386       140.945
2017    2       3       0.6104001       129.0201
2017    2       4       0.5150321       114.5734
2017    2       5       0.7795478       151.7951
2017    2       6       1.082231        182.9887
2017    2       7       0.7807109       151.6102
2017    3       0       0.4902295       110.2934
2017    3       1       0.264407        68.13167
2017    3       2       0.1727706       47.99607
2017    3       3       0.1367584       39.49674
2017    3       4       0.1326626       38.5796
2017    3       5       0.148244        42.04944
2017    3       6       0.166525        46.11057
2017    3       7       0.1630635       45.20016
2017    4       0       0.1743388       47.83171
2017    4       1       0.1700152       47.05067
2017    4       2       0.1434549       41.11544
2017    4       3       0.131849        38.33655
2017    4       4       0.151054        42.75543
2017    4       5       0.1724567       47.53448
2017    4       6       0.1854411       50.23002
2017    4       7       0.1982691       52.76041
2017    5       0       0.2074646       54.75469
2017    5       1       0.2153481       56.6213
2017    5       2       0.206415        54.92442
2017    5       3       0.1984501       53.25142
2017    5       4       0.2002708       53.50637
2017    5       5       0.220148        57.54744
2017    5       6       0.2904898       71.5206
2017    5       7       0.3480457       82.29001
2017    6       0       0.3839413       88.63555
2017    6       1       0.4321206       97.03707
2017    6       2       0.4940228       107.3207
2017    6       3       0.5019206       108.9089
2017    6       4       0.5029643       109.2957
2017    6       5       0.5309503       113.4564
2017    6       6       0.5331944       114.0263
2017    6       7       0.5212899       112.6161
2017    7       0       0.4990351       109.5604
2017    7       1       0.4881077       108.1597
2017    7       2       0.4480486       101.8315
2017    7       3       0.4097456       95.3635
2017    7       4       0.360183        86.45825
2017    7       5       0.3268826       80.09144
2017    7       6       0.3244597       79.48384
2017    7       7       0.3012488       75.22814
2017    8       0       0.249301        64.93211
2017    8       1       0.2014563       54.70268
2017    8       2       0.1678297       47.18381
2017    8       3       0.1492067       42.96704
2017    8       4       0.1526153       43.50487
2017    8       5       0.166143        46.49436
2017    8       6       0.1814962       49.61131
2017    8       7       0.188687        50.85575
2017    9       0       0.2002181       52.95187
2017    9       1       0.22844         58.32108
2017    9       2       0.2352416       59.78421
2017    9       3       0.2449347       61.70777
2017    9       4       0.2388961       61.10266
2017    9       5       0.2776902       68.60143
2017    9       6       0.3132823       74.87734
2017    9       7       0.2591606       64.3046
2017    10      0       0.1868221       49.98667
2017    10      1       0.1747047       47.35998
2017    10      2       0.1732856       47.03223
2017    10      3       0.2004642       52.9303
2017    10      4       0.3561037       83.91829
2017    10      5       0.5194164       112.114
2017    10      6       0.6517294       132.3021
2017    10      7       0.6942881       138.4758
2017    11      0       0.7658735       147.4928
2017    11      1       0.7818016       149.4799
2017    11      2       0.7423158       144.84
2017    11      3       0.7006604       139.5016
2017    11      4       0.6365615       131.0139
2017    11      5       0.6145994       127.967
2017    11      6       0.7093004       141.1997
2017    11      7       0.7033356       140.7638
2017    12      0       0.6221052       129.6394
2017    12      1       0.6157063       128.6906
2017    12      2       0.561645        120.5356
2017    12      3       0.4601393       104.3969
2017    12      4       0.3943067       92.89964
2017    12      5       0.3900927       92.19818
2017    12      6       0.4162165       96.94918
2017    12      7       0.4217155       98.07157
2017    13      0       0.3577702       86.559
2017    13      1       0.334798        82.13497
2017    13      2       0.3469708       84.46462
2017    13      3       0.3738237       89.51229
2017    13      4       0.3586293       86.8508
2017    13      5       0.3915606       93.12819
2017    13      6       0.5058919       113.1277
2017    13      7       0.407559        96.04876
2017    14      0       0.3574258       86.60671
2017    14      1       0.321728        79.78723
2017    14      2       0.2715961       69.85758
2017    14      3       0.2062433       56.03382
2017    14      4       0.2150851       57.91323
2017    14      5       0.2498691       65.39918
2017    14      6       0.3576027       87.29133
2017    14      7       0.2517588       65.70196
2017    15      0       0.2209746       59.03356
2017    15      1       0.210431        56.80315
2017    15      2       0.1926418       52.93074
2017    15      3       0.1793422       50.01154
2017    15      4       0.1740553       48.87426
2017    15      5       0.1682461       47.54307
2017    15      6       0.1447644       42.02865
2017    15      7       0.1260756       37.63266
2017    16      0       0.1320646       39.1027
2017    16      1       0.1407098       41.17803
2017    16      2       0.1618715       46.18694
2017    16      3       0.1764727       49.60576
2017    16      4       0.1945413       53.69954
2017    16      5       0.2104886       57.30463
2017    16      6       0.2101523       57.30392
2017    16      7       0.1949242       54.01803
2017    17      0       0.1788003       50.43113
2017    17      1       0.174442        49.43694
2017    17      2       0.1607617       46.277
2017    17      3       0.1439471       42.3221
2017    17      4       0.1339209       39.92195
2017    17      5       0.1310644       39.23896
2017    17      6       0.1258921       38.04132
2017    17      7       0.1287673       38.76951
2017    18      0       0.1214831       36.91359
2017    18      1       0.1210649       36.69911
2017    18      2       0.1188976       36.1309
2017    18      3       0.1064338       33.09081
2017    18      4       0.1058886       33.18935
2017    18      5       0.1209954       36.78124
2017    18      6       0.2017188       55.66568
2017    18      7       0.5452295       119.6487
2017    19      0       0.6598108       135.4037
2017    19      1       0.3855937       92.52363
2017    19      2       0.3074674       77.57223
2017    19      3       0.3280637       81.23309
2017    19      4       0.3235606       80.04155
2017    19      5       0.5973132       126.1424
2017    19      6       0.8582917       159.2446
2017    19      7       0.8485331       157.7006
2017    20      0       1.014551        175.4653
2017    20      1       1.311436        200.3237
2017    20      2       1.68859         223.1537
2017    20      3       1.768339        226.9647
2017    20      4       1.567841        216.8223
2017    20      5       1.689827        223.2296
2017    20      6       1.815294        229.1334
2017    20      7       1.858001        230.9189
2017    21      0       1.706763        223.9865
2017    21      1       1.566141        216.4944
2017    21      2       1.278221        197.6965
2017    21      3       0.9701962       170.9442
2017    21      4       0.7283729       143.9097
2017    21      5       1.023242        176.996
2017    21      6       1.363144        204.683
2017    21      7       1.162652        189.3804
2017    22      0       0.910698        165.6433
2017    22      1       1.073713        181.4302
2017    22      2       1.057417        179.83
2017    22      3       0.8618726       160.1233
2017    22      4       0.8513949       159.1073
2017    22      5       1.489873        212.9307
2017    22      6       1.407718        207.9794
2017    22      7       1.141112        187.9514
2017    23      0       0.7478236       147.2345
2017    23      1       0.5362462       117.4901
2017    23      2       0.3189242       79.81403
2017    23      3       0.1801793       50.60924
2017    23      4       0.1951901       53.82347
2017    23      5       0.3203981       79.92276
2017    23      6       0.5244654       116.2174
2017    23      7       0.416051        97.93363
2017    24      0       0.3502179       85.7075
2017    24      1       0.2938958       74.7218
2017    24      2       0.2144682       58.17656
2017    24      3       0.1650237       47.07016
2017    24      4       0.1862292       51.93582
2017    24      5       0.3283401       82.2302
2017    24      6       0.3964253       95.29001
2017    24      7       0.2032513       55.9561
2017    25      0       0.1581221       45.47627
2017    25      1       0.1700996       48.18111
2017    25      2       0.1569723       45.20305
2017    25      3       0.1365549       40.47897
2017    25      4       0.1348215       40.12411
2017    25      5       0.1424799       41.93364
2017    25      6       0.1625172       46.78106
2017    25      7       0.1256322       38.00634
2017    26      0       0.1301602       39.01032
2017    26      1       0.1428334       42.05216
2017    26      2       0.1415513       41.80109
2017    26      3       0.1369614       40.73233
2017    26      4       0.1378801       40.8754
2017    26      5       0.1397598       41.221
2017    26      6       0.1408913       41.48014
2017    26      7       0.1283745       38.46101
2017    27      0       0.1310519       39.08881
2017    27      1       0.1406036       41.34258
2017    27      2       0.1459254       42.5255
2017    27      3       0.1615355       45.83699
2017    27      4       0.1597024       45.36633
2017    27      5       0.17485         48.93511
2017    27      6       0.2573474       67.69155
2017    27      7       0.16324         46.70515
2017    28      0       0.1449012       42.31039
2017    28      1       0.1451947       42.37022
2017    28      2       0.1598297       45.56511
2017    28      3       0.1753397       49.1435
2017    28      4       0.2077827       56.39931
2017    28      5       0.3459987       84.50127
2017    28      6       0.4247154       98.83823
2017    28      7       0.385824        91.78068
2017    29      0       0.3787398       90.51805
2017    29      1       0.5677968       122.1282
2017    29      2       0.6459238       133.6292
2017    29      3       0.3458372       84.86418
2017    29      4       0.2455417       64.51794
2017    29      5       0.3267898       81.20267
2017    29      6       0.3503331       85.81176
2017    29      7       0.1908792       52.55811
2017    30      0       0.1703947       47.80626
2017    30      1       0.157586        44.89271
2017    30      2       0.1433102       41.67204
2017    30      3       0.1266551       37.82858
2017    30      4       0.120999        36.48998
2017    30      5       0.1200142       36.22717
2017    30      6       0.131221        38.99509
2017    30      7       0.08677228      28.12303
2017    31      0       0.08903383      28.73978
2017    31      1       0.09397754      29.95293
2017    31      2       0.08677102      28.19393
2017    31      3       0.08053481      26.68153
2017    31      4       0.0860932       28.07067
2017    31      5       0.09800381      31.01443
2017    31      6       0.09964404      31.45586
2017    31      7       0.09871169      31.24084
2018    1       0       0.7993325       153.4805
2018    1       1       0.9009019       164.4457
2018    1       2       0.991228        173.4877
2018    1       3       0.9694012       171.3457
2018    1       4       0.9047331       164.7779
2018    1       5       0.9382683       168.2503
2018    1       6       0.9515515       170.0262
2018    1       7       0.9345616       169.0111
2018    2       0       0.8851445       163.7559
2018    2       1       0.8028769       154.3472
2018    2       2       0.7733983       150.7778
2018    2       3       0.7035989       141.7651
2018    2       4       0.6083339       128.9171
2018    2       5       0.9348532       170.2188
2018    2       6       1.040688        181.1251
2018    2       7       0.8349374       159.252
2018    3       0       0.817812        157.0187
2018    3       1       0.9525733       171.3055
2018    3       2       0.7943468       154.6446
2018    3       3       0.6047166       129.7193
2018    3       4       0.5570892       122.0979
2018    3       5       0.7144887       145.2814
2018    3       6       0.7296464       147.2754
2018    3       7       0.7804725       153.2474
2018    4       0       0.7159426       144.6814
2018    4       1       0.6094008       129.8194
2018    4       2       0.5704058       124.0104
2018    4       3       0.5547422       121.6496
2018    4       4       0.5715346       124.5101
2018    4       5       0.6942519       142.9942
2018    4       6       0.730436        148.2172
2018    4       7       0.5870808       127.3368
2018    5       0       0.4507761       104.172
2018    5       1       0.4480547       103.6891
2018    5       2       0.388038        92.74031
2018    5       3       0.3370837       82.58668
2018    5       4       0.3145835       78.28149
2018    5       5       0.2946049       74.53024
2018    5       6       0.2943624       74.77069
2018    5       7       0.2509805       65.61874
2018    6       0       0.2364402       62.52616
2018    6       1       0.2417965       63.83746
2018    6       2       0.2300879       61.51345
2018    6       3       0.2102704       57.23004
2018    6       4       0.2030009       55.58722
2018    6       5       0.2080082       56.65225
2018    6       6       0.1978839       54.18505
2018    6       7       0.1756913       49.01261
2018    7       0       0.1814976       50.34137
2018    7       1       0.1896674       52.22428
2018    7       2       0.1871622       51.6349
2018    7       3       0.1865374       51.24451
2018    7       4       0.1943408       52.9472
2018    7       5       0.2036702       55.13177
2018    7       6       0.2128248       57.06648
2018    7       7       0.2064511       55.68735
2018    8       0       0.2153504       57.59955
2018    8       1       0.2473767       64.5578
2018    8       2       0.2497543       65.18725
2018    8       3       0.2307788       61.06176
2018    8       4       0.2357495       61.96543
2018    8       5       0.245302        63.79156
2018    8       6       0.2201593       58.51627
2018    8       7       0.2285757       60.61727
2018    9       0       0.2913417       74.06838
2018    9       1       0.2680471       69.10023
2018    9       2       0.2296278       61.00037
2018    9       3       0.1991384       54.36206
2018    9       4       0.1952977       53.47455
2018    9       5       0.2071078       56.16971
2018    9       6       0.2953787       75.07641
2018    9       7       0.4572779       105.2486
2018    10      0       0.6438888       133.9732
2018    10      1       0.6958389       140.2881
2018    10      2       0.6746137       137.3989
2018    10      3       0.6541663       134.5733
2018    10      4       0.5753036       123.1
2018    10      5       0.6099904       128.1993
2018    10      6       0.8490886       158.9656
2018    10      7       1.131775        186.5815
2018    11      0       1.684521        222.8779
2018    11      1       2.053867        238.4611
2018    11      2       1.624228        219.8278
2018    11      3       1.328784        201.8422
2018    11      4       0.9530508       169.7882
2018    11      5       1.053484        179.361
2018    11      6       1.619936        219.5664
2018    11      7       1.4444          209.6814
2018    12      0       1.706902        224.6643
2018    12      1       1.384453        205.9432
2018    12      2       1.161557        189.1854
2018    12      3       1.048993        179.318
2018    12      4       1.033593        178.1546
2018    12      5       0.6681803       136.0961
2018    12      6       0.5442379       118.3122
2018    12      7       0.5305116       116.2936
2018    13      0       0.6368448       131.9227
2018    13      1       0.5345157       116.8302
2018    13      2       0.4813395       108.03
2018    13      3       0.4576526       103.1092
2018    13      4       0.5049003       110.2227
2018    13      5       0.4922402       107.5905
2018    13      6       0.7099399       139.582
2018    13      7       0.9912443       171.7145
2018    14      0       1.314371        200.8986
2018    14      1       1.399913        207.3083
2018    14      2       1.583883        218.0167
2018    14      3       1.790953        228.8171
2018    14      4       1.849753        231.3858
2018    14      5       1.620024        221.0101
2018    14      6       1.240608        197.6471
2018    14      7       0.8199311       157.8001
2018    15      0       0.4801826       110.0702
2018    15      1       0.2908567       74.69325
2018    15      2       0.2660113       69.42044
2018    15      3       0.234235        62.62652
2018    15      4       0.2293252       61.65964
2018    15      5       0.2302346       61.89213
2018    15      6       0.2048514       56.21315
2018    15      7       0.1733365       49.05497
2018    16      0       0.1754104       49.49386
2018    16      1       0.1914167       53.06822
2018    16      2       0.1848139       51.28481
2018    16      3       0.177335        49.39517
2018    16      4       0.1817101       50.15759
2018    16      5       0.2118902       56.65967
2018    16      6       0.2310668       61.01268
2018    16      7       0.2393505       62.57711
2018    17      0       0.2427618       63.16362
2018    17      1       0.2604085       66.70504
2018    17      2       0.2624831       66.27043
2018    17      3       0.278271        69.30572
2018    17      4       0.3540152       84.00505
2018    17      5       0.4432556       100.5248
2018    17      6       0.6761826       138.5664
2018    17      7       0.5636461       122.1376
2018    18      0       0.4446418       101.6578
2018    18      1       0.4757763       106.6162
2018    18      2       0.485364        108.5632
2018    18      3       0.4747288       106.9698
2018    18      4       0.4537616       103.5899
2018    18      5       0.4627755       105.2736
2018    18      6       0.496476        110.8096
2018    18      7       0.5182658       114.2081
2018    19      0       0.4973903       110.8103
2018    19      1       0.4707675       106.3864
2018    19      2       0.4482247       102.6187
2018    19      3       0.4392038       101.1656
2018    19      4       0.4544077       103.9388
2018    19      5       0.4461647       102.7109
2018    19      6       0.4239037       99.07399
2018    19      7       0.4244804       99.31818
2018    20      0       0.493171        110.9941
2018    20      1       0.5910431       126.3981
2018    20      2       0.5762543       124.447
2018    20      3       0.5838717       125.8513
2018    20      4       0.5852236       126.1448
2018    20      5       0.5444974       119.887
2018    20      6       0.4477859       103.8944
2018    20      7       0.3512578       86.2965
2018    21      0       0.3498767       85.88858
2018    21      1       0.3789861       91.01284
2018    21      2       0.3507981       85.79079
2018    21      3       0.3029345       76.68055
2018    21      4       0.261268        68.3304
2018    21      5       0.2632485       68.6887
2018    21      6       0.2154168       58.49653
2018    21      7       0.192463        53.32583
2018    22      0       0.1861649       51.8721
2018    22      1       0.1639848       46.83068
2018    22      2       0.2268295       60.66076
2018    22      3       0.2725725       70.1545
2018    22      4       0.2884553       73.07904
2018    22      5       0.2903648       73.23009
2018    22      6       0.376071        90.28354
2018    22      7       0.3282115       81.26783
2018    23      0       0.269236        69.04514
2018    23      1       0.3383861       82.92662
2018    23      2       0.3244299       80.41529
2018    23      3       0.3184931       79.00581
2018    23      4       0.3644534       87.63146
2018    23      5       0.4441495       102.037
2018    23      6       0.7058499       141.9744
2018    23      7       0.6578476       135.1521
2018    24      0       0.4726565       105.7747
2018    24      1       0.4689447       104.5855
2018    24      2       0.4310753       97.51346
2018    24      3       0.3586034       84.929
2018    24      4       0.346019        83.45081
2018    24      5       0.3410435       83.12937
2018    24      6       0.3622581       87.18529
2018    24      7       0.3981222       93.89054
2018    25      0       0.3377554       82.62156
2018    25      1       0.2965782       74.21449
2018    25      2       0.299834        74.99821
2018    25      3       0.3245199       79.75615
2018    25      4       0.4662534       105.5063
2018    25      5       1.020781        178.3162
2018    25      6       1.289351        200.8136
2018    25      7       1.231086        196.3709
2018    26      0       1.036242        179.06
2018    26      1       0.8842263       162.6577
2018    26      2       0.8197618       155.5943
2018    26      3       0.7236972       143.8735
2018    26      4       0.7607262       148.7834
2018    26      5       0.8756345       162.7687
2018    26      6       1.168948        191.7756
2018    26      7       1.012333        177.1833
2018    27      0       0.8054318       153.8182
2018    27      1       0.7651054       148.5601
2018    27      2       0.7322178       144.8889
2018    27      3       0.7418326       146.1799
2018    27      4       0.7021821       141.1715
2018    27      5       0.7099048       142.1974
2018    27      6       0.7632365       149.5497
2018    27      7       0.7993807       154.4039
2018    28      0       0.5208296       114.9034
2018    28      1       0.486208        108.7133
2018    28      2       0.4839834       108.2883
2018    28      3       0.5124078       112.676
2018    28      4       0.5001797       110.568
2018    28      5       0.4550616       103.2783
2018    28      6       0.6771283       138.1106
2018    28      7       0.8470612       159.572
2018    29      0       0.7683141       148.9069
2018    29      1       0.7408912       145.0959
2018    29      2       0.8206799       154.7956
2018    29      3       0.877112        161.2069
2018    29      4       0.8370507       156.6385
2018    29      5       0.8119767       153.416
2018    29      6       0.9001407       163.2704
2018    29      7       0.9084538       164.0119
2018    30      0       0.8627047       158.5987
2018    30      1       0.7998061       151.0962
2018    30      2       0.8070255       152.243
2018    30      3       0.8133677       153.4555
2018    30      4       0.7696388       148.5266
2018    30      5       0.7437307       145.2894
2018    30      6       0.782098        149.9181
2018    30      7       0.8516846       158.2921
2018    31      0       0.990723        173.9169
2018    31      1       1.081838        183.6667
2018    31      2       1.04008         179.5783
2018    31      3       0.8809499       161.9091
2018    31      4       0.8000462       152.2679
2018    31      5       0.9296267       166.9724
2018    31      6       1.516407        214.5703
2018    31      7       2.203258        243.5804
