####################################################################################################
# Month: 01Jan                                                                                     #
# Station: TRL                                                                                     #
# Frequency: 345 GHz                                                                               #
# Columns are: year    day     segment         tau     Tb (K)                                      #
####################################################################################################
2009    1       0       0.9321101       159.6119
2009    1       1       1.074803        174.3192
2009    1       2       1.145277        178.7098
2009    1       3       1.102697        174.826
2009    1       4       1.139844        178.01
2009    1       5       1.142027        178.6512
2009    1       6       1.117327        177.0837
2009    1       7       0.9905505       165.7155
2009    2       0       1.065062        173.1351
2009    2       1       1.05141         171.3496
2009    2       2       0.9698115       162.7497
2009    2       3       0.8388691       149.3197
2009    2       4       0.7853851       143.5638
2009    2       5       0.8550435       151.4351
2009    2       6       0.8532265       150.6836
2009    2       7       0.7411758       136.797
2009    3       0       0.6074809       118.819
2009    3       1       0.5517705       110.8755
2009    3       2       0.5700203       113.8685
2009    3       3       0.6382249       123.7791
2009    3       4       0.6798227       129.3694
2009    3       5       0.6707633       127.7725
2009    3       6       0.6847213       129.1694
2009    3       7       0.7097307       131.3253
2009    4       0       0.6749199       125.7837
2009    4       1       0.5594486       110.4542
2009    4       2       0.4493418       94.72812
2009    4       3       0.3366154       76.27467
2009    4       4       0.2532883       60.87515
2009    4       5       0.2971986       69.37383
2009    4       6       0.4689843       98.91649
2009    4       7       0.6330482       122.8371
2009    5       0       0.7357381       135.9009
2009    5       1       0.6989737       131.2982
2009    5       2       0.6021756       118.6009
2009    5       3       0.5254015       107.8814
2009    5       4       0.5189428       106.4844
2009    5       5       0.6219161       119.3805
2009    5       6       0.636551        120.7907
2009    5       7       0.6002133       116.4912
2009    6       0       0.6069214       117.7838
2009    6       1       0.6198139       119.5295
2009    6       2       0.6180734       119.6194
2009    6       3       0.6104166       118.9137
2009    6       4       0.6130449       119.3154
2009    6       5       0.6160354       119.8199
2009    6       6       0.6023265       118.2817
2009    6       7       0.5849991       115.983
2009    7       0       0.5889233       116.4642
2009    7       1       0.5820339       115.1556
2009    7       2       0.5563848       111.1362
2009    7       3       0.5201142       105.6902
2009    7       4       0.493626        101.442
2009    7       5       0.5048694       102.9646
2009    7       6       0.5047131       103.0104
2009    7       7       0.4973285       101.9393
2009    8       0       0.4919837       100.9875
2009    8       1       0.4979879       101.5833
2009    8       2       0.4947479       100.799
2009    8       3       0.4917033       100.0348
2009    8       4       0.449636        93.47827
2009    8       5       0.4518474       93.65375
2009    8       6       0.4485567       93.48007
2009    8       7       0.4790132       98.36133
2009    9       0       0.5108921       103.2298
2009    9       1       0.5463388       108.4807
2009    9       2       0.5840767       113.2852
2009    9       3       0.5647116       110.1213
2009    9       4       0.5811355       112.8158
2009    9       5       0.672007        125.2657
2009    9       6       0.6875494       127.5149
2009    9       7       0.6350012       120.9558
2009    10      0       0.4999019       102.3567
2009    10      1       0.4789191       99.22953
2009    10      2       0.4551796       95.57882
2009    10      3       0.5179317       105.2536
2009    10      4       0.5870555       114.5858
2009    10      5       0.6608519       123.5784
2009    10      6       0.5983102       115.5291
2009    10      7       0.4950164       100.9324
2009    11      0       0.4375649       92.39926
2009    11      1       0.3606121       79.56768
2009    11      2       0.3292587       74.08992
2009    11      3       0.3403391       75.76655
2009    11      4       0.3321227       74.00907
2009    11      5       0.3723943       80.79018
2009    11      6       0.3909943       83.78922
2009    11      7       0.4258014       89.30193
2009    12      0       0.4635654       95.18923
2009    12      1       0.4855005       98.59794
2009    12      2       0.4935258       100.0586
2009    12      3       0.5134458       103.1846
2009    12      4       0.4855494       99.11215
2009    12      5       0.4533197       94.64235
2009    12      6       0.4528782       94.75573
2009    12      7       0.4996922       102.3301
2009    13      0       0.5435257       109.2674
2009    13      1       0.563022        112.5588
2009    13      2       0.5784338       114.9234
2009    13      3       0.5701972       113.6119
2009    13      4       0.5416044       109.5476
2009    13      5       0.5273283       107.5914
2009    13      6       0.5987168       117.7114
2009    13      7       0.633799        122.2349
2009    14      0       0.6951671       129.6266
2009    14      1       0.693861        128.9094
2009    14      2       0.6486595       122.6802
2009    14      3       0.5735681       112.3752
2009    14      4       0.5419783       107.5919
2009    14      5       0.5267342       104.7433
2009    14      6       0.5099566       102.2518
2009    14      7       0.4572306       94.54534
2009    15      0       0.416264        88.20362
2009    15      1       0.4082484       86.934
2009    15      2       0.3983636       85.66216
2009    15      3       0.3926195       85.09406
2009    15      4       0.4034667       87.07973
2009    15      5       0.4134843       89.22258
2009    15      6       0.4214361       90.61862
2009    15      7       0.4636492       97.25459
2009    16      0       0.5307479       107.649
2009    16      1       0.5746133       113.5157
2009    16      2       0.5374729       107.641
2009    16      3       0.4603557       96.11292
2009    16      4       0.4194691       89.45724
2009    16      5       0.5683637       111.3305
2009    16      6       0.6446442       121.528
2009    16      7       0.5697941       111.7299
2009    17      0       0.5336081       106.82
2009    17      1       0.6203303       119.3592
2009    17      2       0.7465572       135.2893
2009    17      3       0.8108497       142.8013
2009    17      4       0.8122589       141.9202
2009    17      5       0.7345908       133.1981
2009    17      6       0.799681        141.7853
2009    17      7       1.054495        167.9119
2009    18      0       1.135324        174.7982
2009    18      1       1.183236        179.0344
2009    18      2       1.164451        177.2221
2009    18      3       1.14134         175.0677
2009    18      4       1.302443        187.9866
2009    18      5       1.273144        186.6385
2009    18      6       1.132503        176.241
2009    18      7       1.073769        171.4333
2009    19      0       1.169556        180.1326
2009    19      1       1.174738        180.4807
2009    19      2       1.098609        173.3972
2009    19      3       1.013827        165.6607
2009    19      4       1.131555        174.5056
2009    19      5       1.084335        169.9106
2009    19      6       0.9232763       155.1897
2009    19      7       0.9029372       152.8491
2009    20      0       0.8438769       146.1863
2009    20      1       0.8527154       147.1327
2009    20      2       0.8367978       146.0747
2009    20      3       0.8223629       145.4365
2009    20      4       0.887146        152.3854
2009    20      5       1.201021        179.6367
2009    20      6       1.242041        181.9645
2009    20      7       1.04571         165.5327
2009    21      0       0.7672082       138.0981
2009    21      1       0.5505133       110.8419
2009    21      2       0.557181        111.3682
2009    21      3       0.6186789       119.3681
2009    21      4       0.6042308       117.2261
2009    21      5       0.53283         106.961
2009    21      6       0.6784983       126.4365
2009    21      7       0.8853571       148.8235
2009    22      0       0.5707623       111.1272
2009    22      1       0.7837765       137.5058
2009    22      2       1.052517        164.238
2009    22      3       0.7825222       138.2609
2009    22      4       0.6478299       122.3481
2009    22      5       0.7462046       134.6067
2009    22      6       0.8574274       146.8143
2009    22      7       0.8843869       149.1471
2009    23      0       0.7170203       131.6125
2009    23      1       0.5940367       116.2757
2009    23      2       0.5306645       106.1619
2009    23      3       0.3892855       83.99391
2009    23      4       0.2462391       59.1083
2009    23      5       0.2397942       57.74078
2009    23      6       0.2369777       57.23142
2009    23      7       0.2346842       56.79222
2009    24      0       0.2333926       56.47209
2009    24      1       0.29346         67.58751
2009    24      2       0.3217597       72.35124
2009    24      3       0.3263721       72.90803
2009    24      4       0.3420135       75.64313
2009    24      5       0.3979307       85.2442
2009    24      6       0.3821686       82.81923
2009    24      7       0.3275772       73.64285
2009    25      0       0.3100171       70.5555
2009    25      1       0.3215185       72.63374
2009    25      2       0.3267049       73.59133
2009    25      3       0.3248791       73.24125
2009    25      4       0.3264013       73.38639
2009    25      5       0.2892447       66.80525
2009    25      6       0.2551782       60.67402
2009    25      7       0.2601918       61.70558
2009    26      0       0.290538        66.947
2009    26      1       0.3334395       74.29593
2009    26      2       0.4285247       90.14347
2009    26      3       0.5310996       106.7282
2009    26      4       0.5236592       106.5758
2009    26      5       0.4869799       101.1548
2009    26      6       0.482285        100.4331
2009    26      7       0.5173038       105.9021
2009    27      0       0.5724669       114.2364
2009    27      1       0.5286335       107.3527
2009    27      2       0.4481335       94.44572
2009    27      3       0.3682773       80.93376
2009    27      4       0.3347291       74.824
2009    27      5       0.2890377       66.76233
2009    27      6       0.5108128       104.3274
2009    27      7       0.8094587       145.3549
2009    28      0       0.6643337       127.0027
2009    28      1       0.550371        110.9447
2009    28      2       0.5641811       113.1361
2009    28      3       0.6214759       121.1745
2009    28      4       0.632977        122.2713
2009    28      5       0.5088892       104.0627
2009    28      6       0.4263263       90.90834
2009    28      7       0.4157121       88.67834
2009    29      0       0.4448585       93.90423
2009    29      1       0.4668855       97.82999
2009    29      2       0.4768935       99.52695
2009    29      3       0.533403        106.8377
2009    29      4       0.5238363       105.0351
2009    29      5       0.4759471       97.84545
2009    29      6       0.5605695       109.7428
2009    29      7       0.5664805       110.3529
2009    30      0       0.5439586       107.3004
2009    30      1       0.528203        105.554
2009    30      2       0.5379899       107.3489
2009    30      3       0.564835        111.2056
2009    30      4       0.54561         108.5824
2009    30      5       0.4826768       99.19489
2009    30      6       0.4701394       97.48477
2009    30      7       0.5292318       107.4075
2009    31      0       0.5760412       115.6817
2009    31      1       0.5386851       110.3716
2009    31      2       0.5754337       114.9699
2009    31      3       0.6264086       121.2688
2009    31      4       0.5875116       116.416
2009    31      5       0.4896748       102.2752
2009    31      6       0.4522859       95.9986
2009    31      7       0.4659909       97.87394
2010    1       0       0.5871476       115.3118
2010    1       1       0.6929802       130.1422
2010    1       2       0.8048327       144.2317
2010    1       3       0.9166794       156.9331
2010    1       4       0.7192112       134.383
2010    1       5       0.6163576       119.5474
2010    1       6       0.6156077       119.0833
2010    1       7       0.691538        129.4959
2010    2       0       0.8055738       144.1876
2010    2       1       0.8049039       143.8729
2010    2       2       0.6999948       131.2158
2010    2       3       0.6446862       125.0244
2010    2       4       0.736566        137.3485
2010    2       5       0.5289226       108.2775
2010    2       6       0.6233395       120.8829
2010    2       7       0.8901475       150.1034
2010    3       0       0.8493599       146.0785
2010    3       1       0.6959136       130.0128
2010    3       2       0.6520007       125.9463
2010    3       3       0.5939162       119.331
2010    3       4       0.6078446       121.8361
2010    3       5       0.6542669       128.4802
2010    3       6       0.6837033       132.1121
2010    3       7       0.7317154       137.8619
2010    4       0       0.7165264       135.6801
2010    4       1       0.6307926       124.1
2010    4       2       0.5630894       114.5306
2010    4       3       0.5333993       110.2718
2010    4       4       0.5488916       112.5526
2010    4       5       0.5154262       107.4482
2010    4       6       0.4129232       90.74863
2010    4       7       0.3680897       82.73244
2010    5       0       0.4111107       89.66518
2010    5       1       0.4386001       93.74541
2010    5       2       0.4242436       91.30755
2010    5       3       0.4046058       88.25925
2010    5       4       0.3441534       77.81302
2010    5       5       0.3071277       71.11942
2010    5       6       0.2981743       69.51225
2010    5       7       0.2840153       66.84488
2010    6       0       0.2631957       62.78992
2010    6       1       0.3039541       70.38674
2010    6       2       0.2854048       67.06927
2010    6       3       0.2153258       53.59501
2010    6       4       0.5191727       106.9594
2010    6       5       0.6103942       120.4635
2010    6       6       0.5278808       108.7293
2010    6       7       0.528894        108.7012
2010    7       0       0.5865515       116.8382
2010    7       1       0.6682249       127.9895
2010    7       2       0.7337231       135.7612
2010    7       3       0.7420263       136.4827
2010    7       4       0.6369865       122.9628
2010    7       5       0.5855042       115.7862
2010    7       6       0.6142855       119.7097
2010    7       7       0.7072344       132.3963
2010    8       0       0.8028603       144.7256
2010    8       1       0.8959467       155.4948
2010    8       2       0.9021301       156.1849
2010    8       3       0.8477834       150.215
2010    8       4       0.8694898       152.1819
2010    8       5       0.9833171       163.8661
2010    8       6       1.059625        170.8615
2010    8       7       1.11617         175.1903
2010    9       0       1.223856        183.3511
2010    9       1       1.179797        179.8151
2010    9       2       1.362899        194.2325
2010    9       3       1.497371        203.7299
2010    9       4       1.651129        212.2989
2010    9       5       1.683496        214.2329
2010    9       6       1.496945        203.4677
2010    9       7       1.486076        202.5754
2010    10      0       1.588615        207.3836
2010    10      1       1.519225        202.6427
2010    10      2       1.277707        187.6595
2010    10      3       1.245846        185.7803
2010    10      4       1.792479        215.4055
2010    10      5       1.716984        210.5112
2010    10      6       1.557942        201.943
2010    10      7       1.287757        184.9838
2010    11      0       1.059959        166.4841
2010    11      1       0.902292        151.119
2010    11      2       0.8397163       144.4148
2010    11      3       0.8482297       145.2032
2010    11      4       0.7522468       134.828
2010    11      5       0.8655504       147.3185
2010    11      6       0.7289139       131.2881
2010    11      7       0.6259572       117.8472
2010    12      0       0.5971289       114.5891
2010    12      1       0.558138        109.9757
2010    12      2       0.4908249       99.92511
2010    12      3       0.4635388       95.98581
2010    12      4       0.5260639       105.9779
2010    12      5       0.5670786       111.8344
2010    12      6       0.5334327       107.1572
2010    12      7       0.5050468       103.2378
2010    13      0       0.4838854       100.3289
2010    13      1       0.4785562       99.75839
2010    13      2       0.477224        99.65238
2010    13      3       0.483457        100.5502
2010    13      4       0.4635774       97.48997
2010    13      5       0.4208622       90.82692
2010    13      6       0.3442755       77.92178
2010    13      7       0.3204979       73.77439
2010    14      0       0.3149714       72.71876
2010    14      1       0.3030498       70.45726
2010    14      2       0.3207843       73.40907
2010    14      3       0.4226454       90.06822
2010    14      4       0.6163331       117.4911
2010    14      5       0.5953219       113.4716
2010    14      6       0.5544012       108.123
2010    14      7       0.5440643       107.6102
2010    15      0       0.573505        112.4421
2010    15      1       0.6148078       118.6132
2010    15      2       0.632718        120.6775
2010    15      3       0.6382321       120.585
2010    15      4       0.5493612       107.6083
2010    15      5       0.5472464       107.0254
2010    15      6       0.5577006       108.7711
2010    15      7       0.5555573       109.0737
2010    16      0       0.5224263       104.7995
2010    16      1       0.4501512       94.82096
2010    16      2       0.4243305       91.38611
2010    16      3       0.441806        93.72675
2010    16      4       0.4703511       97.80637
2010    16      5       0.6826159       128.3551
2010    16      6       0.8540752       149.5544
2010    16      7       0.9288508       156.3146
2010    17      0       0.8030169       143.4548
2010    17      1       0.7125536       134.0873
2010    17      2       0.697394        132.0366
2010    17      3       0.5875209       116.6907
2010    17      4       0.5033221       103.6295
2010    17      5       0.5340474       108.0048
2010    17      6       0.5841113       115.0991
2010    17      7       0.601709        117.2643
2010    18      0       0.6198335       119.8853
2010    18      1       0.640334        122.8262
2010    18      2       0.646162        123.4412
2010    18      3       0.6511193       124.0091
2010    18      4       0.6730192       126.3683
2010    18      5       0.6548815       123.7054
2010    18      6       0.6057878       117.469
2010    18      7       0.5931802       115.918
2010    19      0       0.6213351       119.5766
2010    19      1       0.6167892       118.7001
2010    19      2       0.5918745       115.4532
2010    19      3       0.5657395       112.3011
2010    19      4       0.5403075       108.9981
2010    19      5       0.528708        107.4881
2010    19      6       0.5339522       108.4745
2010    19      7       0.5510125       111.2385
2010    20      0       0.5505468       111.5811
2010    20      1       0.5169231       106.854
2010    20      2       0.4518244       96.74331
2010    20      3       0.4048512       88.9467
2010    20      4       0.4153443       90.43784
2010    20      5       0.4448258       95.04313
2010    20      6       0.4604344       97.7447
2010    20      7       0.4866649       102.1129
2010    21      0       0.5187487       106.871
2010    21      1       0.5536058       111.8382
2010    21      2       0.6355658       122.6566
2010    21      3       0.7006484       130.2392
2010    21      4       0.6912874       129.0597
2010    21      5       0.6810595       127.954
2010    21      6       0.6616498       125.971
2010    21      7       0.6362168       123.0632
2010    22      0       0.6538504       124.9925
2010    22      1       0.6627037       125.7352
2010    22      2       0.643682        123.4395
2010    22      3       0.6472188       123.9553
2010    22      4       0.643616        124.1315
2010    22      5       0.5856708       116.8476
2010    22      6       0.4398536       94.84965
2010    22      7       0.2953451       69.28181
2010    23      0       0.3178164       73.55089
2010    23      1       0.3289615       75.59767
2010    23      2       0.2869376       67.51191
2010    23      3       0.3582194       80.77534
2010    23      4       0.5718977       114.5561
2010    23      5       0.7143692       132.0636
2010    23      6       0.7520353       134.14
2010    23      7       0.8318999       141.0692
2010    24      0       0.800911        137.7596
2010    24      1       0.7036441       127.1559
2010    24      2       0.5985189       114.0576
2010    24      3       0.6019989       114.9578
2010    24      4       0.5825819       112.5581
2010    24      5       0.6308499       119.0205
2010    24      6       0.6060533       116.1004
2010    24      7       0.6113265       117.2531
2010    25      0       0.5948103       116.0943
2010    25      1       0.5645723       112.1343
2010    25      2       0.5278414       106.5669
2010    25      3       0.5027891       102.8556
2010    25      4       0.4952435       101.1452
2010    25      5       0.4316305       90.48759
2010    25      6       0.435941        91.04369
2010    25      7       0.6374826       119.6174
2010    26      0       0.6783059       124.7727
2010    26      1       0.5434705       106.9882
2010    26      2       0.5264897       104.3102
2010    26      3       0.5020252       100.6579
2010    26      4       0.5382114       106.5453
2010    26      5       0.5210878       104.7346
2010    26      6       0.5057556       102.8584
2010    26      7       0.4815561       99.38562
2010    27      0       0.4707346       97.84756
2010    27      1       0.4666753       97.24882
2010    27      2       0.4786779       99.05683
2010    27      3       0.4943907       101.4452
2010    27      4       0.5074604       103.5987
2010    27      5       0.5157918       105.1119
2010    27      6       0.511315        104.8389
2010    27      7       0.5029469       103.9837
2010    28      0       0.4710584       99.07088
2010    28      1       0.4212713       91.10687
2010    28      2       0.3650218       81.79425
2010    28      3       0.3378075       77.0692
2010    28      4       0.3586633       80.67197
2010    28      5       0.4168282       90.47101
2010    28      6       0.4455333       95.31047
2010    28      7       0.4684841       99.04668
2010    29      0       0.4919653       102.1135
2010    29      1       0.501981        103.1243
2010    29      2       0.4777409       99.27788
2010    29      3       0.4597074       96.46258
2010    29      4       0.4577586       96.39346
2010    29      5       0.4642134       97.69611
2010    29      6       0.4609647       97.53178
2010    29      7       0.4685572       98.56949
2010    30      0       0.4658707       98.01619
2010    30      1       0.4585799       96.97457
2010    30      2       0.464583        98.06336
2010    30      3       0.4765245       100.3151
2010    30      4       0.4977346       103.8133
2010    30      5       0.4988399       103.7445
2010    30      6       0.4825808       101.0555
2010    30      7       0.4652563       98.2361
2010    31      0       0.458974        96.97319
2010    31      1       0.4671152       97.99564
2010    31      2       0.485685        100.7018
2010    31      3       0.5024427       102.9563
2010    31      4       0.513386        103.849
2010    31      5       0.456383        94.63465
2010    31      6       0.3750503       81.7662
2010    31      7       0.3603919       79.53445
2011    1       0       0.4165783       88.07831
2011    1       1       0.4497013       93.42411
2011    1       2       0.4662744       96.0841
2011    1       3       0.4985631       101.0468
2011    1       4       0.5229011       104.6215
2011    1       5       0.6951762       127.8834
2011    1       6       0.8334747       143.5374
2011    1       7       0.6422167       121.135
2011    2       0       0.6329988       119.9875
2011    2       1       0.648314        122.0185
2011    2       2       0.5917867       114.4274
2011    2       3       0.511976        102.8792
2011    2       4       0.4767903       97.663
2011    2       5       0.5235663       104.8074
2011    2       6       0.3742184       81.44953
2011    2       7       0.2435754       58.06028
2011    3       0       0.2293502       55.39913
2011    3       1       0.2133857       52.29686
2011    3       2       0.1996176       49.57904
2011    3       3       0.1903192       47.76315
2011    3       4       0.2013854       50.03169
2011    3       5       0.3515377       77.58945
2011    3       6       0.4259264       89.80612
2011    3       7       0.3957191       85.18167
2011    4       0       0.3491789       77.66806
2011    4       1       0.3344207       75.23242
2011    4       2       0.2965962       68.13161
2011    4       3       0.2911126       66.8728
2011    4       4       0.3434232       75.89011
2011    4       5       0.408968        87.07575
2011    4       6       0.4858087       100.1827
2011    4       7       0.5754362       114.8583
2011    5       0       0.5794866       115.9717
2011    5       1       0.5749606       115.4052
2011    5       2       0.5740496       114.6048
2011    5       3       0.5338616       108.3832
2011    5       4       0.5106372       105.443
2011    5       5       0.4972425       103.6004
2011    5       6       0.5707051       114.2616
2011    5       7       0.6371412       123.0601
2011    6       0       0.6698139       126.9923
2011    6       1       0.6510993       124.1502
2011    6       2       0.6139014       119.1127
2011    6       3       0.5818432       114.6852
2011    6       4       0.5281426       106.7175
2011    6       5       0.4891911       100.2214
2011    6       6       0.4215819       89.42901
2011    6       7       0.3721062       81.37966
2011    7       0       0.3784729       82.59632
2011    7       1       0.4100263       87.95899
2011    7       2       0.4651207       96.66209
2011    7       3       0.5241946       105.3725
2011    7       4       0.5484876       108.961
2011    7       5       0.5629618       111.1092
2011    7       6       0.7205359       131.7442
2011    7       7       0.6429482       122.3307
2011    8       0       0.603777        117.9576
2011    8       1       0.6451278       124.5795
2011    8       2       0.7637904       139.8928
2011    8       3       0.7568056       139.1529
2011    8       4       0.6389765       123.3003
2011    8       5       0.5535416       110.6206
2011    8       6       0.5139805       105.1853
2011    8       7       0.6719238       127.5377
2011    9       0       0.7468901       136.8245
2011    9       1       0.8017761       143.2281
2011    9       2       0.9158571       155.001
2011    9       3       1.015344        165.1342
2011    9       4       0.9355936       157.8064
2011    9       5       0.9224506       157.2421
2011    9       6       0.7687698       139.2364
2011    9       7       0.6320467       121.1609
2011    10      0       0.4833566       99.83078
2011    10      1       0.4855788       100.6597
2011    10      2       0.5530159       111.4475
2011    10      3       0.6493373       125.5719
2011    10      4       0.7907797       143.2359
2011    10      5       0.9989257       164.2767
2011    10      6       1.145005        175.9095
2011    10      7       1.018042        164.3516
2011    11      0       0.753794        137.6066
2011    11      1       0.7059937       132.3344
2011    11      2       0.7557319       138.8219
2011    11      3       0.7942437       143.8322
2011    11      4       0.8098321       146.1034
2011    11      5       0.7922211       144.2739
2011    11      6       0.7845045       143.014
2011    11      7       0.797457        144.0569
2011    12      0       0.6444722       124.2949
2011    12      1       0.3113275       71.39731
2011    12      2       0.3304408       74.82757
2011    12      3       0.424484        90.40509
2011    12      4       0.4985729       101.8823
2011    12      5       0.4668724       97.22412
2011    12      6       0.4013679       87.01574
2011    12      7       0.3550298       79.33102
2011    13      0       0.3099641       71.54694
2011    13      1       0.3024912       70.28983
2011    13      2       0.2912231       68.4889
2011    13      3       0.2865895       67.95736
2011    13      4       0.3332107       76.40733
2011    13      5       0.3584589       80.80618
2011    13      6       0.3532485       80.10485
2011    13      7       0.3472279       78.89574
2011    14      0       0.354235        79.91427
2011    14      1       0.3800989       84.12907
2011    14      2       0.4073141       88.4109
2011    14      3       0.4831424       99.98173
2011    14      4       0.5464565       109.0966
2011    14      5       0.5492329       109.5168
2011    14      6       0.5214927       105.9081
2011    14      7       0.4816739       100.2103
2011    15      0       0.4241381       90.93565
2011    15      1       0.371942        82.0693
2011    15      2       0.3070784       70.75038
2011    15      3       0.2448356       59.33251
2011    15      4       0.2038647       51.31933
2011    15      5       0.2067091       51.91
2011    15      6       0.2093031       52.45465
2011    15      7       0.2713832       64.62061
2011    16      0       0.4209386       91.22419
2011    16      1       0.5609607       112.6219
2011    16      2       0.8232877       144.0743
2011    16      3       0.8755902       148.715
2011    16      4       0.905341        152.144
2011    16      5       0.8833824       150.6997
2011    16      6       0.8333683       145.6772
2011    16      7       0.7035982       131.2278
2011    17      0       0.4989152       103.713
2011    17      1       0.3813401       84.94664
2011    17      2       0.3288338       75.65743
2011    17      3       0.2828241       67.2385
2011    17      4       0.2610422       63.18406
2011    17      5       0.2694642       64.8207
2011    17      6       0.2819682       67.09741
2011    17      7       0.2565114       62.10537
2011    18      0       0.245131        59.69767
2011    18      1       0.2680553       64.05106
2011    18      2       0.3059518       71.15554
2011    18      3       0.2987866       69.90221
2011    18      4       0.2715369       64.53861
2011    18      5       0.2044636       51.05227
2011    18      6       0.1959234       49.35946
2011    18      7       0.2142971       53.48308
2011    19      0       0.2947878       69.85737
2011    19      1       0.2914459       69.37985
2011    19      2       0.3668235       82.69868
2011    19      3       0.7256939       134.2712
2011    19      4       1.052085        167.6154
2011    19      5       1.286587        185.6198
2011    19      6       1.360701        192.0624
2011    19      7       1.38443         194.7841
2011    20      0       1.350862        192.9488
2011    20      1       1.199546        182.6167
2011    20      2       1.099601        174.165
2011    20      3       1.088487        172.9893
2011    20      4       1.035068        169.2186
2011    20      5       0.9723233       164.1065
2011    20      6       0.8797456       154.7195
2011    20      7       0.7585869       140.7879
2011    21      0       0.6504935       126.4558
2011    21      1       0.457899        97.77354
2011    21      2       0.3269141       75.17946
2011    21      3       0.3045949       71.08591
2011    21      4       0.3043443       70.9723
2011    21      5       0.3005          70.18213
2011    21      6       0.3105568       71.96093
2011    21      7       0.3133263       72.32319
2011    22      0       0.2947928       68.624
2011    22      1       0.2790468       65.57945
2011    22      2       0.2773049       65.25524
2011    22      3       0.2723094       64.36046
2011    22      4       0.265469        63.11324
2011    22      5       0.2603373       62.11703
2011    22      6       0.2570019       61.44608
2011    22      7       0.2532427       60.69041
2011    23      0       0.2480935       59.64069
2011    23      1       0.2402645       58.0891
2011    23      2       0.2854584       66.62342
2011    23      3       0.398609        86.0462
2011    23      4       0.3488622       78.1285
2011    23      5       0.2513618       60.5619
2011    23      6       0.2550391       61.29791
2011    23      7       0.2643292       63.06859
2011    24      0       0.2655068       63.29698
2011    24      1       0.2618801       62.5825
2011    24      2       0.2810831       66.11558
2011    24      3       0.2569118       61.56136
2011    24      4       0.2334606       56.99834
2011    24      5       0.2508905       60.29539
2011    24      6       0.3582396       79.74086
2011    24      7       0.4518619       95.11335
2011    25      0       0.5408152       108.4756
2011    25      1       0.6451172       122.8565
2011    25      2       0.6607166       124.569
2011    25      3       0.68471         126.8906
2011    25      4       0.6998772       129.0861
2011    25      5       0.6430804       122.2222
2011    25      6       0.5663449       112.6117
2011    25      7       0.5003332       103.323
2011    26      0       0.4193354       90.37701
2011    26      1       0.3988533       86.98537
2011    26      2       0.3645114       81.08822
2011    26      3       0.310119        71.33149
2011    26      4       0.2938897       68.24294
2011    26      5       0.378           83.30776
2011    26      6       0.4599433       96.86849
2011    26      7       0.4997952       102.7964
2011    27      0       0.4348747       92.31242
2011    27      1       0.3643706       80.42078
2011    27      2       0.3774095       82.46911
2011    27      3       0.4093423       87.74385
2011    27      4       0.4099046       87.94305
2011    27      5       0.3436163       76.55011
2011    27      6       0.3836097       83.50337
2011    27      7       0.5471734       109.8504
2011    28      0       0.6558553       125.0758
2011    28      1       0.6333589       122.0446
2011    28      2       0.6140253       119.5143
2011    28      3       0.6443711       123.8371
2011    28      4       0.668111        127.526
2011    28      5       0.5847141       115.7476
2011    28      6       0.5589645       112.1349
2011    28      7       0.6893092       130.2499
2011    29      0       0.7125787       133.9695
2011    29      1       0.6858502       130.2385
2011    29      2       0.6318975       122.07
2011    29      3       0.5885103       115.5105
2011    29      4       0.5913328       115.4471
2011    29      5       0.6207937       119.2377
2011    29      6       0.6687383       126.8316
2011    29      7       0.6542374       125.6914
2011    30      0       0.611593        118.9636
2011    30      1       0.5643649       111.6422
2011    30      2       0.5088942       102.9446
2011    30      3       0.5552225       109.0888
2011    30      4       0.643475        120.9182
2011    30      5       0.6846678       126.0054
2011    30      6       0.6058614       116.222
2011    30      7       0.4750743       97.7539
2011    31      0       0.3984324       85.56959
2011    31      1       0.4090855       87.16692
2011    31      2       0.4055523       86.7381
2011    31      3       0.474297        98.08188
2011    31      4       0.5984341       116.3473
2011    31      5       0.626418        120.0223
2011    31      6       0.7085901       130.5163
2011    31      7       0.7472507       135.0863
2012    1       0       0.687378        126.5329
2012    1       1       0.6354601       120.0651
2012    1       2       0.6547628       123.0423
2012    1       3       0.7295846       132.9407
2012    1       4       0.630617        120.6912
2012    1       5       0.5837059       114.9719
2012    1       6       0.5932339       116.55
2012    1       7       0.6042722       117.9065
2012    2       0       0.5296232       106.4396
2012    2       1       0.4127753       87.60637
2012    2       2       0.3615689       78.87091
2012    2       3       0.3405717       75.12886
2012    2       4       0.3650453       79.22183
2012    2       5       0.4106743       86.59226
2012    2       6       0.4203272       88.14189
2012    2       7       0.4018219       85.46612
2012    3       0       0.3790245       82.49545
2012    3       1       0.3576032       79.49713
2012    3       2       0.3412178       76.50198
2012    3       3       0.4230408       89.24402
2012    3       4       0.4509056       92.71868
2012    3       5       0.4954733       99.68634
2012    3       6       0.5450774       106.6714
2012    3       7       0.591371        112.4364
2012    4       0       0.5884431       111.903
2012    4       1       0.5790424       110.6544
2012    4       2       0.5326706       104.0844
2012    4       3       0.5243338       102.9745
2012    4       4       0.635521        118.6637
2012    4       5       0.7700838       135.6646
2012    4       6       0.7671759       135.9281
2012    4       7       0.5978746       115.2906
2012    5       0       0.4792768       99.02534
2012    5       1       0.4778683       99.43401
2012    5       2       0.4709537       98.4524
2012    5       3       0.4573825       96.1886
2012    5       4       0.4373483       92.95793
2012    5       5       0.4612792       96.81096
2012    5       6       0.542701        109.2582
2012    5       7       0.7165518       132.3701
2012    6       0       0.8761949       148.2202
2012    6       1       0.6755186       122.7343
2012    6       2       0.5158688       101.4073
2012    6       3       0.4495645       91.98908
2012    6       4       0.4622868       94.8265
2012    6       5       0.5848889       113.2749
2012    6       6       0.5775214       112.2286
2012    6       7       0.7049491       127.972
2012    7       0       0.4264425       89.1876
2012    7       1       0.3286398       73.08126
2012    7       2       0.3596492       78.5322
2012    7       3       0.5227744       104.4923
2012    7       4       0.4629493       96.41942
2012    7       5       0.44362         93.32654
2012    7       6       0.4637523       96.4203
2012    7       7       0.512864        104.5692
2012    8       0       0.4948126       102.2209
2012    8       1       0.524604        106.5379
2012    8       2       0.6045919       116.9131
2012    8       3       0.5593698       109.8791
2012    8       4       0.4873156       99.33187
2012    8       5       0.4538678       94.49186
2012    8       6       0.4297139       91.13442
2012    8       7       0.4625395       96.71374
2012    9       0       0.6046936       117.0326
2012    9       1       0.7094632       128.8524
2012    9       2       0.5449278       106.0945
2012    9       3       0.3366985       74.48309
2012    9       4       0.5047965       101.5968
2012    9       5       0.5715488       111.8099
2012    9       6       0.5413778       108.1626
2012    9       7       0.5942116       115.9493
2012    10      0       0.6057935       117.5933
2012    10      1       0.5238815       105.5591
2012    10      2       0.4440247       93.0677
2012    10      3       0.4092422       87.4589
2012    10      4       0.5298133       105.7477
2012    10      5       0.7110797       129.3954
2012    10      6       0.8135121       141.544
2012    10      7       0.7814203       137.9379
2012    11      0       0.6688774       125.2407
2012    11      1       0.5702444       112.761
2012    11      2       0.4859687       100.597
2012    11      3       0.4517558       95.52345
2012    11      4       0.5848062       115.5062
2012    11      5       0.7273407       133.5129
2012    11      6       0.7635358       136.6555
2012    11      7       0.7725351       137.571
2012    12      0       0.8114614       142.9971
2012    12      1       0.8253114       145.5276
2012    12      2       0.8192554       145.2087
2012    12      3       0.7657823       138.8014
2012    12      4       0.6669988       126.5638
2012    12      5       0.5718927       114.1603
2012    12      6       0.5514249       111.2963
2012    12      7       0.5208446       106.7194
2012    13      0       0.5169494       105.8637
2012    13      1       0.4856631       100.568
2012    13      2       0.4283818       91.32241
2012    13      3       0.3420348       76.76611
2012    13      4       0.2651172       62.83838
2012    13      5       0.2271731       55.62841
2012    13      6       0.199569        50.1574
2012    13      7       0.1926233       48.75603
2012    14      0       0.2026008       50.79483
2012    14      1       0.2192347       54.13292
2012    14      2       0.2445868       59.09641
2012    14      3       0.2872482       67.12769
2012    14      4       0.3474504       77.79704
2012    14      5       0.379738        83.32483
2012    14      6       0.3752088       82.81783
2012    14      7       0.352004        78.97093
2012    15      0       0.3300218       74.97188
2012    15      1       0.3187368       72.78555
2012    15      2       0.3616848       79.96032
2012    15      3       0.4198151       89.20702
2012    15      4       0.4468532       93.47986
2012    15      5       0.462153        95.65244
2012    15      6       0.4739807       97.47994
2012    15      7       0.4783075       98.14998
2012    16      0       0.4894702       99.58709
2012    16      1       0.5071245       102.0258
2012    16      2       0.5440376       107.0751
2012    16      3       0.4487066       92.62552
2012    16      4       0.4281911       89.44769
2012    16      5       0.4516637       93.4952
2012    16      6       0.4390888       91.78596
2012    16      7       0.4433842       92.62252
2012    17      0       0.4374997       91.85065
2012    17      1       0.4252227       90.04327
2012    17      2       0.4430203       93.09451
2012    17      3       0.4806642       99.13712
2012    17      4       0.5016538       102.5604
2012    17      5       0.5152007       104.6726
2012    17      6       0.5011882       102.7716
2012    17      7       0.4817478       100.132
2012    18      0       0.5344217       106.922
2012    18      1       0.4586134       94.35879
2012    18      2       0.4428449       91.96052
2012    18      3       0.5000554       100.9901
2012    18      4       0.4737191       97.69578
2012    18      5       0.4569635       95.49589
2012    18      6       0.4349831       92.08819
2012    18      7       0.4059064       87.44428
2012    19      0       0.3981209       85.86804
2012    19      1       0.4155131       88.35649
2012    19      2       0.4338985       91.36474
2012    19      3       0.4444461       93.01836
2012    19      4       0.4587122       94.95102
2012    19      5       0.4702434       96.39167
2012    19      6       0.4481948       92.94681
2012    19      7       0.4546859       93.98085
2012    20      0       0.545422        106.8935
2012    20      1       0.4587516       93.74538
2012    20      2       0.4197924       87.68163
2012    20      3       0.4112713       86.8214
2012    20      4       0.4095172       86.95137
2012    20      5       0.3854277       83.25643
2012    20      6       0.3594218       79.12214
2012    20      7       0.3621372       79.68338
2012    21      0       0.3631593       79.96773
2012    21      1       0.3569711       78.94825
2012    21      2       0.3391376       75.60004
2012    21      3       0.3472456       76.73791
2012    21      4       0.3451624       76.74302
2012    21      5       0.3249429       73.62507
2012    21      6       0.2879855       66.77342
2012    21      7       0.2987627       68.49828
2012    22      0       0.3840268       82.99153
2012    22      1       0.4558865       94.2494
2012    22      2       0.4388861       91.40667
2012    22      3       0.3923875       84.34304
2012    22      4       0.4300897       90.90498
2012    22      5       0.5588878       111.2015
2012    22      6       0.7545786       136.6702
2012    22      7       0.6743564       127.0794
2012    23      0       0.7728169       138.2297
2012    23      1       0.6975712       128.2415
2012    23      2       0.569153        111.0062
2012    23      3       0.4907502       99.67287
2012    23      4       0.3781699       82.13633
2012    23      5       0.317179        71.62054
2012    23      6       0.3296001       73.94524
2012    23      7       0.3855638       83.51624
2012    24      0       0.4010131       85.99469
2012    24      1       0.4274135       90.34924
2012    24      2       0.4730875       97.72455
2012    24      3       0.5231457       105.5221
2012    24      4       0.5498319       108.9475
2012    24      5       0.5843871       112.1488
2012    24      6       0.4297689       89.58003
2012    24      7       0.3974343       84.59079
2012    25      0       0.4151484       87.06731
2012    25      1       0.4085586       85.52077
2012    25      2       0.398065        84.20396
2012    25      3       0.3934904       84.00143
2012    25      4       0.3793785       81.67147
2012    25      5       0.3257208       72.46487
2012    25      6       0.2661642       62.02959
2012    25      7       0.2548742       60.2258
2012    26      0       0.2458272       58.68718
2012    26      1       0.2229873       54.36185
2012    26      2       0.2354586       56.87262
2012    26      3       0.2484572       59.45087
2012    26      4       0.2002995       50.08036
2012    26      5       0.1643274       42.76587
2012    26      6       0.1644143       42.85797
2012    26      7       0.2277645       55.46192
2012    27      0       0.3011976       69.15841
2012    27      1       0.3612258       79.63911
2012    27      2       0.4431145       92.83023
2012    27      3       0.5226491       104.5583
2012    27      4       0.5463472       107.3922
2012    27      5       0.5452316       106.6455
2012    27      6       0.5310972       104.6261
2012    27      7       0.5233692       103.8928
2012    28      0       0.5172203       103.4451
2012    28      1       0.5094078       102.6227
2012    28      2       0.4988412       100.8024
2012    28      3       0.4558963       94.07843
2012    28      4       0.3962499       84.91529
2012    28      5       0.3522283       77.8505
2012    28      6       0.3247497       73.32973
2012    28      7       0.3149774       71.64645
2012    29      0       0.3421754       76.26429
2012    29      1       0.3740231       81.48344
2012    29      2       0.4127845       87.34614
2012    29      3       0.3915432       83.29172
2012    29      4       0.3787476       80.97864
2012    29      5       0.4244012       88.50714
2012    29      6       0.4587979       93.85386
2012    29      7       0.4669441       95.03513
2012    30      0       0.495659        99.95498
2012    30      1       0.4751194       97.75813
2012    30      2       0.4262165       90.45419
2012    30      3       0.3589627       78.83587
2012    30      4       0.3312503       73.56692
2012    30      5       0.373613        80.96761
2012    30      6       0.3661501       79.69494
2012    30      7       0.3243574       72.41333
2012    31      0       0.2845339       65.32923
2012    31      1       0.2993323       67.85318
2012    31      2       0.3133012       70.0905
2012    31      3       0.3211689       71.24264
2012    31      4       0.3379985       74.13551
2012    31      5       0.362414        78.37557
2012    31      6       0.3509576       76.82816
2012    31      7       0.3273636       73.05427
2013    1       0       0.6571221       124.9904
2013    1       1       0.8049234       144.7804
2013    1       2       0.8892178       153.9552
2013    1       3       0.7484428       137.3529
2013    1       4       0.6120291       119.4439
2013    1       5       0.6843731       128.4101
2013    1       6       0.7747952       138.312
2013    1       7       0.7537207       135.6492
2013    2       0       0.7073624       130.7054
2013    2       1       0.6004673       117.2595
2013    2       2       0.6870047       129.1722
2013    2       3       0.7744168       139.6796
2013    2       4       0.7256679       133.8797
2013    2       5       0.9041368       154.7197
2013    2       6       0.7046105       131.4328
2013    2       7       0.6464287       123.1011
2013    3       0       0.7276703       132.639
2013    3       1       0.8204131       143.26
2013    3       2       0.7428328       134.6506
2013    3       3       0.783977        141.0018
2013    3       4       0.8069793       144.44
2013    3       5       0.841177        148.4571
2013    3       6       0.862022        151.9527
2013    3       7       0.8464154       149.985
2013    4       0       0.8545351       149.6636
2013    4       1       0.7987436       142.7923
2013    4       2       0.9488334       157.7799
2013    4       3       0.9632978       158.2964
2013    4       4       0.7148999       132.4107
2013    4       5       0.8486034       148.2592
2013    4       6       0.9644529       160.6941
2013    4       7       1.03306         167.3096
2013    5       0       0.9598541       161.1657
2013    5       1       0.9377209       159.5311
2013    5       2       1.071845        172.1266
2013    5       3       1.070026        171.6019
2013    5       4       0.8387582       148.941
2013    5       5       0.8457612       149.479
2013    5       6       0.8853931       153.4238
2013    5       7       0.8474355       149.1711
2013    6       0       0.8461865       149.0808
2013    6       1       0.8331101       147.9259
2013    6       2       0.7885925       142.8367
2013    6       3       0.7647756       139.8339
2013    6       4       0.6737368       128.2268
2013    6       5       0.6851515       129.441
2013    6       6       0.6550047       125.9358
2013    6       7       0.616502        120.9202
2013    7       0       0.5846911       116.2609
2013    7       1       0.6025545       118.4326
2013    7       2       0.7586125       138.2917
2013    7       3       0.9189378       156.0826
2013    7       4       0.9442578       159.2263
2013    7       5       1.096454        173.2412
2013    7       6       1.038989        168.4402
2013    7       7       0.9230748       157.3461
2013    8       0       0.8788247       152.3484
2013    8       1       0.8426075       147.5923
2013    8       2       0.7418806       135.2742
2013    8       3       0.7329933       133.645
2013    8       4       0.8507665       146.2748
2013    8       5       0.9879163       159.1751
2013    8       6       0.9771193       158.4601
2013    8       7       0.8231508       143.218
2013    9       0       0.6994669       129.5763
2013    9       1       0.6259458       120.2214
2013    9       2       0.6419133       120.9457
2013    9       3       0.663865        123.0977
2013    9       4       0.6287064       119.7876
2013    9       5       0.6021114       116.9004
2013    9       6       0.5098028       104.4084
2013    9       7       0.4417229       94.2369
2013    10      0       0.4281642       92.14142
2013    10      1       0.4098923       88.55973
2013    10      2       0.5590393       110.5966
2013    10      3       0.8577793       145.4036
2013    10      4       0.6991229       127.8879
2013    10      5       0.8568187       146.6656
2013    10      6       0.9526293       156.4799
2013    10      7       0.9553594       157.5818
2013    11      0       0.9622818       158.4148
2013    11      1       0.9175528       154.1148
2013    11      2       1.104255        171.5273
2013    11      3       1.307916        188.2773
2013    11      4       1.375317        192.1487
2013    11      5       1.474703        199.075
2013    11      6       1.213388        183.4
2013    11      7       0.8712542       152.9915
2013    12      0       0.7809345       143.0344
2013    12      1       0.9055713       156.3113
2013    12      2       1.076299        172.1533
2013    12      3       1.016778        166.39
2013    12      4       0.7946711       142.4534
2013    12      5       0.8259248       145.766
2013    12      6       0.8064943       143.3081
2013    12      7       0.8388092       146.7892
2013    13      0       0.9447637       158.6373
2013    13      1       1.05481         169.0329
2013    13      2       1.040259        167.5029
2013    13      3       0.9490063       159.1133
2013    13      4       1.164767        179.2869
2013    13      5       1.224843        184.4629
2013    13      6       0.8551106       151.704
2013    13      7       0.8299182       150.2907
2013    14      0       0.9306365       160.1371
2013    14      1       0.8174544       147.0351
2013    14      2       0.7140204       134.3696
2013    14      3       0.668205        127.8829
2013    14      4       0.5519352       112.0004
2013    14      5       0.2741716       64.93494
2013    14      6       0.2736246       64.79605
2013    14      7       0.2748947       65.0565
2013    15      0       0.2753418       65.11087
2013    15      1       0.2758419       65.15007
2013    15      2       0.2723313       64.48117
2013    15      3       0.269601        64.00102
2013    15      4       0.4735573       100.2731
2013    15      5       0.8721023       153.213
2013    15      6       0.5656327       114.4674
2013    15      7       0.4860705       101.8411
2013    16      0       0.5848893       116.1448
2013    16      1       0.61634         120.6909
2013    16      2       0.4926358       102.3189
2013    16      3       0.2756458       65.35174
2013    16      4       0.3285421       74.71989
2013    16      5       0.5344987       108.0602
2013    16      6       0.6912489       129.8281
2013    16      7       0.838203        147.3991
2013    17      0       0.9222263       156.0262
2013    17      1       0.8160258       144.2621
2013    17      2       0.6412427       123.2074
2013    17      3       0.5957378       117.1555
2013    17      4       0.4559108       95.9531
2013    17      5       0.3725071       82.01978
2013    17      6       0.4091057       88.37173
2013    17      7       0.542055        109.0647
2013    18      0       0.5407936       108.4325
2013    18      1       0.5044446       102.9782
2013    18      2       0.5017853       102.9791
2013    18      3       0.5354107       108.2374
2013    18      4       0.5954973       116.8675
2013    18      5       0.6230689       120.6143
2013    18      6       0.6746371       126.7224
2013    18      7       0.7339622       133.1866
2013    19      0       0.7099645       130.7999
2013    19      1       0.6359137       122.0519
2013    19      2       0.5904243       116.0939
2013    19      3       0.6106716       119.049
2013    19      4       0.637312        122.8196
2013    19      5       0.6031966       118.1863
2013    19      6       0.5707654       113.7359
2013    19      7       0.5591091       112.2436
2013    20      0       0.5317478       108.4085
2013    20      1       0.4360674       93.5462
2013    20      2       0.4068118       88.7424
2013    20      3       0.4589569       97.10879
2013    20      4       0.4601229       97.26877
2013    20      5       0.4725043       99.51472
2013    20      6       0.4941861       103.0279
2013    20      7       0.4517726       96.34033
2013    21      0       0.3943332       87.10383
2013    21      1       0.4226557       91.86229
2013    21      2       0.5116626       105.4404
2013    21      3       0.5907294       116.4122
2013    21      4       0.6378828       121.4522
2013    21      5       0.5575839       110.1477
2013    21      6       0.485055        100.1005
2013    21      7       0.4562673       95.96845
2013    22      0       0.4147061       89.76177
2013    22      1       0.406128        88.63765
2013    22      2       0.4616981       97.30336
2013    22      3       0.4246187       91.16274
2013    22      4       0.3121454       72.0549
2013    22      5       0.3771021       83.66237
2013    22      6       0.3554981       80.05961
2013    22      7       0.2839082       67.22115
2013    23      0       0.2326832       57.08485
2013    23      1       0.2251926       55.44378
2013    23      2       0.3355161       76.34309
2013    23      3       0.4046292       88.42896
2013    23      4       0.4110499       89.613
2013    23      5       0.410794        89.66658
2013    23      6       0.4544738       97.26703
2013    23      7       0.52538         108.6881
2013    24      0       0.5572144       113.4726
2013    24      1       0.4430571       95.53559
2013    24      2       0.3705234       83.03459
2013    24      3       0.4025174       88.5496
2013    24      4       0.4209118       91.63717
2013    24      5       0.4150993       90.53221
2013    24      6       0.3987127       87.4908
2013    24      7       0.3651431       81.56953
2013    25      0       0.3407895       77.20576
2013    25      1       0.3070208       71.27538
2013    25      2       0.3371849       76.72288
2013    25      3       0.3082542       71.01824
2013    25      4       0.3252935       73.91793
2013    25      5       0.4788733       99.37502
2013    25      6       0.4869066       100.7007
2013    25      7       0.5389977       108.5701
2013    26      0       0.5784955       113.6176
2013    26      1       0.7239279       131.7331
2013    26      2       0.9162113       151.3259
2013    26      3       0.6808536       124.318
2013    26      4       0.527804        104.122
2013    26      5       0.4908239       99.26447
2013    26      6       0.4241186       90.1437
2013    26      7       0.35245         78.76698
2013    27      0       0.321043        72.90461
2013    27      1       0.3854431       83.70537
2013    27      2       0.3864859       84.42006
2013    27      3       0.3587611       80.07633
2013    27      4       0.346942        78.39663
2013    27      5       0.3214027       74.3593
2013    27      6       0.2748672       65.91855
2013    27      7       0.2538986       61.90241
2013    28      0       0.2559031       62.2237
2013    28      1       0.267132        64.21877
2013    28      2       0.3153067       72.67842
2013    28      3       0.5183228       104.196
2013    28      4       0.7027829       127.1626
2013    28      5       0.8164524       138.7326
2013    28      6       0.8484374       139.893
2013    28      7       0.7046826       123.0756
2013    29      0       0.5075566       98.61065
2013    29      1       0.4008145       83.41866
2013    29      2       0.3776379       80.18081
2013    29      3       0.3285025       72.60432
2013    29      4       0.3828661       81.0208
2013    29      5       0.4402512       89.87535
2013    29      6       0.4613428       93.69414
2013    29      7       0.5118517       101.7917
2013    30      0       0.5275569       104.5034
2013    30      1       0.5378302       106.1607
2013    30      2       0.4735361       96.05534
2013    30      3       0.4062938       85.18383
2013    30      4       0.38011         81.00365
2013    30      5       0.3711782       79.54959
2013    30      6       0.3504897       76.09305
2013    30      7       0.3164722       70.57666
2013    31      0       0.3129891       69.77451
2013    31      1       0.3837416       80.85311
2013    31      2       0.4394627       89.15326
2013    31      3       0.4794501       95.08563
2013    31      4       0.4934317       97.66762
2013    31      5       0.5047134       99.8319
2013    31      6       0.5021561       99.78116
2013    31      7       0.4176597       86.90842
2014    1       0       0.5637691       112.3742
2014    1       1       0.5676589       112.6233
2014    1       2       0.5191712       105.3674
2014    1       3       0.4881407       100.8063
2014    1       4       0.4810824       99.91324
2014    1       5       0.4767118       99.15051
2014    1       6       0.471636        98.57416
2014    1       7       0.4830829       100.5419
2014    2       0       0.4967927       102.5856
2014    2       1       0.4895954       101.1126
2014    2       2       0.4100642       88.44741
2014    2       3       0.3671824       81.11446
2014    2       4       0.4254306       90.63214
2014    2       5       0.3772746       83.14987
2014    2       6       0.2202489       54.92643
2014    2       7       0.2710082       64.4434
2014    3       0       0.4991974       102.0546
2014    3       1       0.6246803       119.3739
2014    3       2       0.6713747       123.6444
2014    3       3       0.7346578       130.2096
2014    3       4       0.7618206       133.6982
2014    3       5       0.8117826       138.473
2014    3       6       0.819353        139.0187
2014    3       7       0.6586422       121.176
2014    4       0       0.6087512       116.3436
2014    4       1       0.5747043       113.1225
2014    4       2       0.5945307       117.36
2014    4       3       0.6425883       125.2899
2014    4       4       0.6753207       129.1045
2014    4       5       0.6096102       119.1468
2014    4       6       0.5452525       110.095
2014    4       7       0.5114619       105.3901
2014    5       0       0.5595415       112.9146
2014    5       1       0.612235        120.7676
2014    5       2       0.6226642       121.9788
2014    5       3       0.6217673       121.6369
2014    5       4       0.6108594       120.2578
2014    5       5       0.567181        114.1
2014    5       6       0.4286824       92.51598
2014    5       7       0.268774        63.91803
2014    6       0       0.2583357       62.10931
2014    6       1       0.3037982       70.88406
2014    6       2       0.3517474       79.73774
2014    6       3       0.380788        84.80518
2014    6       4       0.3619571       81.62971
2014    6       5       0.3282357       75.77739
2014    6       6       0.3343083       77.12676
2014    6       7       0.3712935       83.86808
2014    7       0       0.4523597       96.84898
2014    7       1       0.6564523       124.877
2014    7       2       0.7911146       139.8184
2014    7       3       0.6315901       120.2711
2014    7       4       0.4600555       96.3158
2014    7       5       0.4395189       93.3042
2014    7       6       0.4325106       92.2553
2014    7       7       0.5027086       103.4474
2014    8       0       0.5563452       112.0617
2014    8       1       0.5915358       117.8944
2014    8       2       0.682636        129.4943
2014    8       3       0.7466369       136.0075
2014    8       4       0.7119654       130.645
2014    8       5       0.6796959       126.3035
2014    8       6       0.7055335       130.3268
2014    8       7       0.7285566       133.9191
2014    9       0       0.717367        133.4494
2014    9       1       0.7744597       140.7571
2014    9       2       0.8413974       148.051
2014    9       3       0.8169421       145.1886
2014    9       4       0.690133        130.2578
2014    9       5       0.6628607       127.1737
2014    9       6       0.7092186       133.5747
2014    9       7       0.6853151       130.5907
2014    10      0       0.6563169       126.4987
2014    10      1       0.6698043       128.2353
2014    10      2       0.6514546       125.526
2014    10      3       0.6266169       121.9248
2014    10      4       0.6388603       123.9608
2014    10      5       0.663207        127.3803
2014    10      6       0.6878598       130.4685
2014    10      7       0.714943        134.0087
2014    11      0       0.6927928       131.692
2014    11      1       0.6692705       128.417
2014    11      2       0.6650537       127.257
2014    11      3       0.667872        127.3289
2014    11      4       0.6694602       128.0374
2014    11      5       0.7348374       136.7048
2014    11      6       0.7761961       141.43
2014    11      7       0.7870691       142.3855
2014    12      0       0.8132176       144.9293
2014    12      1       0.9004201       153.2302
2014    12      2       0.9522935       156.9196
2014    12      3       0.9341693       153.9696
2014    12      4       0.8505581       145.2804
2014    12      5       0.8409063       143.7733
2014    12      6       0.8796992       147.8484
2014    12      7       0.7551243       135.4283
2014    13      0       0.6458482       122.8407
2014    13      1       0.7747862       138.5402
2014    13      2       0.6811181       128.0041
2014    13      3       0.7429131       136.4974
2014    13      4       0.7670985       139.5853
2014    13      5       0.8733646       151.5997
2014    13      6       1.011707        165.2611
2014    13      7       1.032152        167.0157
2014    14      0       0.9897679       163.2154
2014    14      1       0.9166042       155.9224
2014    14      2       0.8786344       152.4939
2014    14      3       0.8279737       147.5005
2014    14      4       0.7444259       137.9673
2014    14      5       0.6367182       124.41
2014    14      6       0.4637054       98.75706
2014    14      7       0.2950023       68.98825
2014    15      0       0.2157016       53.30433
2014    15      1       0.2687719       63.83112
2014    15      2       0.3410353       77.03277
2014    15      3       0.3718456       82.11032
2014    15      4       0.4125935       88.74744
2014    15      5       0.4895149       100.7997
2014    15      6       0.5875075       115.82
2014    15      7       0.743442        137.0517
2014    16      0       0.9696799       160.3851
2014    16      1       0.9106843       152.9585
2014    16      2       0.8017185       141.4619
2014    16      3       0.7602517       137.2207
2014    16      4       0.8218067       144.1826
2014    16      5       0.9280765       154.3966
2014    16      6       0.8323775       145.5355
2014    16      7       0.7186241       133.3367
2014    17      0       0.6842192       128.9071
2014    17      1       0.6296336       121.6785
2014    17      2       0.5779113       114.8691
2014    17      3       0.5694103       113.8575
2014    17      4       0.5643604       113.3164
2014    17      5       0.5525223       111.6524
2014    17      6       0.5551915       111.7992
2014    17      7       0.5737586       114.2733
2014    18      0       0.5656347       112.7118
2014    18      1       0.5270036       106.6
2014    18      2       0.5210659       105.4531
2014    18      3       0.5905388       114.7966
2014    18      4       0.6108811       116.8148
2014    18      5       0.6315542       119.5624
2014    18      6       0.6189705       117.6309
2014    18      7       0.5170611       103.327
2014    19      0       0.4491188       93.22976
2014    19      1       0.416246        88.19547
2014    19      2       0.3886226       83.76837
2014    19      3       0.3991231       85.5484
2014    19      4       0.4347565       91.20844
2014    19      5       0.4902928       99.9231
2014    19      6       0.6203514       118.3907
2014    19      7       0.739397        134.3507
2014    20      0       0.8147285       143.6226
2014    20      1       0.7565731       136.9114
2014    20      2       0.7500845       135.6721
2014    20      3       0.7411377       134.0729
2014    20      4       0.7703627       137.8371
2014    20      5       0.6154633       119.1734
2014    20      6       0.6267996       120.6452
2014    20      7       0.6600731       124.7325
2014    21      0       0.7123893       130.1659
2014    21      1       0.6536489       121.8633
2014    21      2       0.4785432       97.45351
2014    21      3       0.4771486       97.14069
2014    21      4       0.5700509       110.4233
2014    21      5       0.5772707       111.5113
2014    21      6       0.4928099       99.50915
2014    21      7       0.4221614       88.75757
2014    22      0       0.4126096       87.394
2014    22      1       0.3904766       83.96572
2014    22      2       0.3677214       80.40238
2014    22      3       0.3746733       81.78572
2014    22      4       0.3913664       84.847
2014    22      5       0.404419        87.11644
2014    22      6       0.4262693       90.75833
2014    22      7       0.4479796       94.27625
2014    23      0       0.4966796       101.6133
2014    23      1       0.6056011       116.6971
2014    23      2       0.6795921       125.7027
2014    23      3       0.6262966       118.729
2014    23      4       0.5326516       106.0913
2014    23      5       0.519914        104.3517
2014    23      6       0.5738061       112.0848
2014    23      7       0.6151545       117.7579
2014    24      0       0.572496        112.3109
2014    24      1       0.5700302       112.2248
2014    24      2       0.5930852       115.8327
2014    24      3       0.6267233       120.7111
2014    24      4       0.7260807       133.159
2014    24      5       0.6811716       127.6064
2014    24      6       0.6207566       119.7123
2014    24      7       0.5728062       112.9751
2014    25      0       0.5255685       105.8193
2014    25      1       0.4494593       93.9118
2014    25      2       0.3667295       80.23042
2014    25      3       0.3185142       71.93863
2014    25      4       0.3078371       70.38939
2014    25      5       0.2976998       68.83677
2014    25      6       0.2883132       67.2128
2014    25      7       0.2718407       64.2399
2014    26      0       0.2728134       64.46628
2014    26      1       0.2880336       67.23933
2014    26      2       0.3405211       76.7569
2014    26      3       0.4283249       91.64661
2014    26      4       0.4790052       99.47014
2014    26      5       0.5137504       104.3694
2014    26      6       0.531998        106.846
2014    26      7       0.5322863       106.6466
2014    27      0       0.5353677       106.195
2014    27      1       0.5354172       105.5125
2014    27      2       0.5406922       106.2894
2014    27      3       0.5527532       107.9008
2014    27      4       0.5457366       106.6917
2014    27      5       0.5289807       104.103
2014    27      6       0.5266056       103.7635
2014    27      7       0.5289967       104.0438
2014    28      0       0.5147207       102.2372
2014    28      1       0.5064519       101.1904
2014    28      2       0.5077359       100.8601
2014    28      3       0.4767761       95.78049
2014    28      4       0.4701417       94.6753
2014    28      5       0.4568252       92.63019
2014    28      6       0.4267539       88.43948
2014    28      7       0.3904523       83.15589
2014    29      0       0.3533638       77.064
2014    29      1       0.3173018       70.90136
2014    29      2       0.3160734       70.72492
2014    29      3       0.3335844       73.83187
2014    29      4       0.3436699       75.72262
2014    29      5       0.3638687       79.35686
2014    29      6       0.3617491       78.99015
2014    29      7       0.3412485       75.49005
2014    30      0       0.3073006       69.62759
2014    30      1       0.2955946       67.48315
2014    30      2       0.2951854       67.42014
2014    30      3       0.2798583       64.70331
2014    30      4       0.2236962       54.29893
2014    30      5       0.2795907       64.94623
2014    30      6       0.4036319       86.14041
2014    30      7       0.3767957       81.63384
2014    31      0       0.314157        71.03343
2014    31      1       0.2713019       63.40793
2014    31      2       0.2440899       58.35285
2014    31      3       0.2954163       67.56486
2014    31      4       0.3603494       78.4507
2014    31      5       0.3614146       78.42099
2014    31      6       0.338729        74.6072
2014    31      7       0.3495189       76.47085
2015    1       0       0.5108614       103.0402
2015    1       1       0.4917346       100.5842
2015    1       2       0.439542        92.81208
2015    1       3       0.3676746       81.17334
2015    1       4       0.2935767       68.16662
2015    1       5       0.27644         65.16144
2015    1       6       0.2916431       68.12051
2015    1       7       0.3615701       80.66831
2015    2       0       0.4462752       94.93626
2015    2       1       0.5010218       103.6734
2015    2       2       0.4873924       101.5669
2015    2       3       0.439823        93.86685
2015    2       4       0.3753636       82.97346
2015    2       5       0.3876447       84.70268
2015    2       6       0.3990069       86.36995
2015    2       7       0.3849039       84.10421
2015    3       0       0.411308        88.56611
2015    3       1       0.4271935       91.21028
2015    3       2       0.4379747       93.20541
2015    3       3       0.4220278       90.49789
2015    3       4       0.4381736       92.45659
2015    3       5       0.5110121       102.8093
2015    3       6       0.5104006       102.9425
2015    3       7       0.5091275       103.0152
2015    4       0       0.5345057       107.0306
2015    4       1       0.5470226       109.2136
2015    4       2       0.5328686       107.4835
2015    4       3       0.5135833       104.8796
2015    4       4       0.5046505       103.9751
2015    4       5       0.5022069       104.025
2015    4       6       0.4952197       103.1088
2015    4       7       0.4806574       100.829
2015    5       0       0.472656        99.44798
2015    5       1       0.4617212       97.43128
2015    5       2       0.4577097       96.40454
2015    5       3       0.4737728       98.93272
2015    5       4       0.5095337       104.5993
2015    5       5       0.532715        107.9597
2015    5       6       0.5436554       109.7583
2015    5       7       0.5331406       108.5068
2015    6       0       0.4949507       102.6253
2015    6       1       0.4288417       92.10251
2015    6       2       0.3635008       81.00132
2015    6       3       0.3501018       78.36277
2015    6       4       0.3657238       80.98796
2015    6       5       0.4256325       90.73379
2015    6       6       0.4894604       100.3488
2015    6       7       0.5474752       108.5737
2015    7       0       0.5729327       112.0119
2015    7       1       0.530336        105.9738
2015    7       2       0.4513412       93.92085
2015    7       3       0.3968819       84.9697
2015    7       4       0.411624        87.07496
2015    7       5       0.5471176       107.5786
2015    7       6       0.5971937       115.4475
2015    7       7       0.6681694       124.8205
2015    8       0       0.619663        118.4323
2015    8       1       0.6260175       119.0978
2015    8       2       0.5924049       113.4689
2015    8       3       0.4957568       99.32451
2015    8       4       0.4440989       92.26568
2015    8       5       0.4434309       92.9527
2015    8       6       0.4393746       92.17609
2015    8       7       0.3906701       84.1508
2015    9       0       0.3749228       81.65536
2015    9       1       0.3783231       82.27529
2015    9       2       0.3880796       83.95025
2015    9       3       0.3861072       83.66452
2015    9       4       0.3640943       80.00176
2015    9       5       0.3805258       82.76289
2015    9       6       0.3689001       80.76531
2015    9       7       0.3489439       77.27604
2015    10      0       0.3375422       75.29357
2015    10      1       0.3288346       73.94757
2015    10      2       0.3142578       71.69376
2015    10      3       0.3225732       73.3124
2015    10      4       0.353537        78.32642
2015    10      5       0.4312535       90.23732
2015    10      6       0.4972961       100.1559
2015    10      7       0.5466717       107.0766
2015    11      0       0.5487645       107.3738
2015    11      1       0.4811834       97.46113
2015    11      2       0.4250735       89.03729
2015    11      3       0.5005071       101.624
2015    11      4       0.5448141       109.3723
2015    11      5       0.5410975       109.0054
2015    11      6       0.4443173       94.29159
2015    11      7       0.3486267       78.28862
2015    12      0       0.3070582       70.4477
2015    12      1       0.2735501       64.10371
2015    12      2       0.300666        69.03678
2015    12      3       0.3111881       70.82679
2015    12      4       0.428808        90.55338
2015    12      5       0.4807029       98.09401
2015    12      6       0.654751        121.9483
2015    12      7       0.5784709       112.2668
2015    13      0       0.5603095       109.9245
2015    13      1       0.5056427       102.1525
2015    13      2       0.3733509       81.30715
2015    13      3       0.2379991       57.19799
2015    13      4       0.251255        59.75136
2015    13      5       0.3579218       78.86493
2015    13      6       0.4124723       88.3187
2015    13      7       0.4214818       90.07088
2015    14      0       0.422992        90.55758
2015    14      1       0.4126725       88.94458
2015    14      2       0.4033987       87.10404
2015    14      3       0.3976913       85.98173
2015    14      4       0.4016786       86.57318
2015    14      5       0.4360133       92.0502
2015    14      6       0.4653355       96.72424
2015    14      7       0.4771911       98.56969
2015    15      0       0.5038183       102.7315
2015    15      1       0.5506625       109.5757
2015    15      2       0.6018093       115.914
2015    15      3       0.6433374       120.3165
2015    15      4       0.5591462       108.2349
2015    15      5       0.5018567       100.4129
2015    15      6       0.6928735       126.2679
2015    15      7       0.6012159       115.7909
2015    16      0       0.6800733       127.5428
2015    16      1       0.8201097       144.9553
2015    16      2       0.8809017       150.8982
2015    16      3       0.7945357       141.1345
2015    16      4       0.7544722       136.6368
2015    16      5       1.027148        164.7425
2015    16      6       0.7748925       138.3792
2015    16      7       0.5897247       114.4976
2015    17      0       0.4424585       92.9829
2015    17      1       0.4351503       92.7262
2015    17      2       0.4678097       98.75324
2015    17      3       0.3219551       74.0233
2015    17      4       0.3653702       80.73959
2015    17      5       0.5158331       104.9276
2015    17      6       0.7698682       139.4575
2015    17      7       0.7899707       141.2343
2015    18      0       0.7963753       142.189
2015    18      1       0.7412966       134.1837
2015    18      2       0.6977715       128.2292
2015    18      3       0.8164361       142.9663
2015    18      4       0.6638386       125.949
2015    18      5       0.6408361       123.3079
2015    18      6       0.7159299       133.3468
2015    18      7       0.9614761       161.1773
2015    19      0       1.007087        165.9635
2015    19      1       0.7468177       138.3322
2015    19      2       0.7915982       143.2072
2015    19      3       0.7963987       142.2373
2015    19      4       0.4783887       98.74131
2015    19      5       0.2761411       64.57673
2015    19      6       0.4119622       87.79056
2015    19      7       0.7046583       128.0327
2015    20      0       0.7418147       133.1938
2015    20      1       0.6231578       119.2602
2015    20      2       0.4870026       100.3458
2015    20      3       0.361062        80.19128
2015    20      4       0.3562891       79.24341
2015    20      5       0.3874415       84.76757
2015    20      6       0.4561941       96.07097
2015    20      7       0.577505        113.8632
2015    21      0       0.6056118       117.7218
2015    21      1       0.6069339       118.2584
2015    21      2       0.5653054       111.9635
2015    21      3       0.5622274       110.8038
2015    21      4       0.5536031       109.7921
2015    21      5       0.4068228       87.91379
2015    21      6       0.1625314       42.95807
2015    21      7       0.1446163       39.16522
2015    22      0       0.2044688       51.58825
2015    22      1       0.2681629       63.81614
2015    22      2       0.3296645       74.98169
2015    22      3       0.3011721       70.36787
2015    22      4       0.2656987       64.33588
2015    22      5       0.2853234       68.39756
2015    22      6       0.3241683       75.51873
2015    22      7       0.3424852       78.43168
2015    23      0       0.328684        75.37697
2015    23      1       0.3358407       76.23764
2015    23      2       0.3401818       77.20088
2015    23      3       0.3248432       74.59406
2015    23      4       0.3110437       71.98433
2015    23      5       0.3612335       80.68846
2015    23      6       0.4260928       91.20817
2015    23      7       0.4118914       88.88907
2015    24      0       0.376481        82.94076
2015    24      1       0.3549227       78.98135
2015    24      2       0.371897        81.79961
2015    24      3       0.3867047       84.34244
2015    24      4       0.4108372       88.23798
2015    24      5       0.4343047       91.82345
2015    24      6       0.4291652       91.18383
2015    24      7       0.4363836       92.41111
2015    25      0       0.4853588       99.79518
2015    25      1       0.500472        102.1839
2015    25      2       0.4177293       89.74319
2015    25      3       0.3320349       75.52007
2015    25      4       0.3106614       71.81686
2015    25      5       0.3591806       80.37155
2015    25      6       0.3981343       86.87555
2015    25      7       0.3934224       85.66619
2015    26      0       0.4200202       89.5132
2015    26      1       0.410087        87.73598
2015    26      2       0.3783541       82.52071
2015    26      3       0.3738096       81.69098
2015    26      4       0.394787        85.04067
2015    26      5       0.4081549       87.16253
2015    26      6       0.3980048       85.56837
2015    26      7       0.4124991       88.1405
2015    27      0       0.4365417       92.24171
2015    27      1       0.4540479       95.263
2015    27      2       0.4735683       98.21986
2015    27      3       0.5138689       103.64
2015    27      4       0.451608        93.82288
2015    27      5       0.4065863       86.76428
2015    27      6       0.4407832       92.45157
2015    27      7       0.4332504       91.35513
2015    28      0       0.403086        86.82274
2015    28      1       0.3977894       86.19459
2015    28      2       0.4330648       91.52323
2015    28      3       0.4866278       99.20065
2015    28      4       0.4869398       99.21447
2015    28      5       0.5036702       102.0621
2015    28      6       0.509808        103.7132
2015    28      7       0.494068        102.0386
2015    29      0       0.4861144       100.9313
2015    29      1       0.466607        97.50072
2015    29      2       0.484907        100.2881
2015    29      3       0.5110162       104.412
2015    29      4       0.4961616       102.5582
2015    29      5       0.4607122       97.23334
2015    29      6       0.4261896       91.30425
2015    29      7       0.3974098       86.29713
2015    30      0       0.39084         85.07022
2015    30      1       0.4004663       86.56719
2015    30      2       0.4220887       90.15785
2015    30      3       0.4620066       96.61761
2015    30      4       0.5137501       105.0162
2015    30      5       0.5091224       104.5071
2015    30      6       0.4802866       99.44731
2015    30      7       0.4400549       92.73447
2015    31      0       0.4113272       88.02218
2015    31      1       0.3996497       85.97227
2015    31      2       0.3950112       85.00559
2015    31      3       0.3897909       83.96028
2015    31      4       0.38719         83.46793
2015    31      5       0.3968145       85.13656
2015    31      6       0.4282506       90.34148
2015    31      7       0.4426434       92.6659
2016    1       0       1.05999         166.7472
2016    1       1       1.082857        166.6717
2016    1       2       1.101962        168.174
2016    1       3       1.169034        173.2428
2016    1       4       1.078571        165.5814
2016    1       5       1.097399        167.1477
2016    1       6       1.051519        163.8135
2016    1       7       0.8785904       147.6506
2016    5       0       0.6086084       118.4091
2016    5       1       0.7148822       132.3197
2016    5       2       0.7541178       136.618
2016    5       3       0.5304835       106.8859
2016    5       4       0.5116389       104.5355
2016    5       5       0.5355056       108.5076
2016    5       6       0.5748329       113.9317
2016    5       7       0.5933576       116.4628
2016    6       0       0.6069503       118.5601
2016    6       1       0.5744292       114.0711
2016    6       2       0.497149        102.5287
2016    6       3       0.4738905       98.63372
2016    6       4       0.4736823       98.76883
2016    6       5       0.4695915       98.44007
2016    6       6       0.4298471       91.32976
2016    6       7       0.3728867       81.36662
2016    7       0       0.3862653       83.25039
2016    7       1       0.4168833       87.81482
2016    7       2       0.4560349       92.96804
2016    7       3       0.4303965       87.62856
2016    7       4       0.4482177       90.62948
2016    7       5       0.4407734       90.31933
2016    7       6       0.4843278       97.66829
2016    7       7       0.49581         99.47256
2016    8       0       0.469308        95.03601
2016    8       1       0.4436985       91.06389
2016    8       2       0.4181378       87.17604
2016    8       3       0.4477191       92.24726
2016    8       4       0.6246632       118.2496
2016    8       5       0.5532215       109.7972
2016    8       6       0.5575291       110.7723
2016    8       7       0.518491        104.7377
2016    9       0       0.4556232       94.86883
2016    9       1       0.3760851       81.96761
2016    9       2       0.3646236       80.06093
2016    9       3       0.4156114       88.37875
2016    9       4       0.4775914       98.17364
2016    9       5       0.5217334       105.0045
2016    9       6       0.5051039       102.8145
2016    9       7       0.4084251       87.88467
2016    10      0       0.4907562       100.549
2016    10      1       0.6253032       119.1758
2016    10      2       0.6899763       127.3843
2016    10      3       0.7397338       132.9689
2016    10      4       0.6626911       122.3967
2016    10      5       0.6129246       116.1706
2016    10      6       0.5425564       108.0151
2016    10      7       0.537363        107.6198
2016    11      0       0.5596318       110.8098
2016    11      1       0.5335679       106.806
2016    11      2       0.4587681       94.95348
2016    11      3       0.3934199       84.29577
2016    11      4       0.3468508       76.66
2016    11      5       0.3049543       69.43642
2016    11      6       0.3818848       82.86934
2016    11      7       0.4419739       93.05109
2016    12      0       0.4428561       93.53544
2016    12      1       0.3902099       85.1857
2016    12      2       0.3400047       76.60082
2016    12      3       0.267668        63.47107
2016    12      4       0.2366651       57.6195
2016    12      5       0.2450412       59.24732
2016    12      6       0.2878792       67.35149
2016    12      7       0.2958673       68.82212
2016    13      0       0.3201916       73.26236
2016    13      1       0.3913408       85.56119
2016    13      2       0.4827539       99.99261
2016    13      3       0.6288179       120.5189
2016    13      4       0.7084403       130.5564
2016    13      5       0.6672744       125.3167
2016    13      6       0.7045416       129.6122
2016    13      7       1.021519        161.8533
2016    14      0       0.8896789       149.3749
2016    14      1       0.789209        139.2638
2016    14      2       0.7171965       131.1767
2016    14      3       0.7225923       131.9152
2016    14      4       0.6694809       125.5757
2016    14      5       0.6539519       123.7352
2016    14      6       0.7231277       131.9178
2016    14      7       0.64035         121.1104
2016    15      0       0.5062128       102.6086
2016    15      1       0.4251212       90.50128
2016    15      2       0.3532525       79.00634
2016    15      3       0.2852689       67.03845
2016    15      4       0.221592        54.74007
2016    15      5       0.2233567       55.1277
2016    15      6       0.2751989       65.13061
2016    15      7       0.2867207       67.04444
2016    16      0       0.3210552       73.18526
2016    16      1       0.8704973       148.7233
2016    16      2       0.9556669       157.4365
2016    16      3       0.943756        156.9533
2016    16      4       1.092308        171.5096
2016    16      5       1.089624        172.2098
2016    16      6       1.23554         183.5266
2016    16      7       1.048436        167.447
2016    17      0       0.9271051       155.6426
2016    17      1       0.8869029       151.5042
2016    17      2       0.8464431       147.2185
2016    17      3       0.8057206       142.7233
2016    17      4       0.7822176       139.9313
2016    17      5       0.7696615       137.9041
2016    17      6       0.6869377       127.1365
2016    17      7       0.5088459       102.8241
2016    18      0       0.3914846       84.96675
2016    18      1       0.3698964       81.51496
2016    18      2       0.3557172       78.81217
2016    18      3       0.3038986       69.51511
2016    18      4       0.3010032       68.96664
2016    18      5       0.306169        70.05217
2016    18      6       0.2378802       57.4922
2016    18      7       0.2383064       57.67439
2016    19      0       0.3430569       77.23388
2016    19      1       0.4560508       96.0414
2016    19      2       0.5168576       105.2229
2016    19      3       0.5489897       110.0752
2016    19      4       0.5955344       116.2198
2016    19      5       0.7812402       138.4962
2016    19      6       0.841675        144.7964
2016    19      7       0.81723         141.9657
2016    20      0       0.74237         133.6352
2016    20      1       0.7275828       131.6001
2016    20      2       0.6926461       126.6038
2016    20      3       0.681844        124.9102
2016    20      4       0.7312154       131.1892
2016    20      5       0.7666307       136.0832
2016    20      6       0.8704277       147.0633
2016    20      7       0.7988862       139.2172
2016    21      0       0.7566617       134.6983
2016    21      1       0.7514903       133.2682
2016    21      2       0.6237584       118.0708
2016    21      3       0.6217113       118.2912
2016    21      4       0.7078253       130.0807
2016    21      5       0.552972        110.2468
2016    21      6       0.4962173       101.6959
2016    21      7       0.4805491       98.45118
2016    22      0       0.4082352       86.33363
2016    22      1       0.364789        79.16768
2016    22      2       0.2912646       66.24236
2016    22      3       0.3060209       68.759
2016    22      4       0.4234691       88.65776
2016    22      5       0.4812645       97.98856
2016    22      6       0.5340607       106.2268
2016    22      7       0.5446734       108.188
2016    23      0       0.575217        112.648
2016    23      1       0.560983        110.7082
2016    23      2       0.5509506       109.2505
2016    23      3       0.5633825       110.5604
2016    23      4       0.5466749       108.261
2016    23      5       0.5051995       102.1109
2016    23      6       0.5319679       105.6358
2016    23      7       0.4796389       98.02801
2016    24      0       0.5444188       107.9117
2016    24      1       0.5538317       109.3244
2016    24      2       0.560866        110.1364
2016    24      3       0.5429197       107.723
2016    24      4       0.5392836       107.5742
2016    24      5       0.5198615       105.2576
2016    24      6       0.6109459       118.0958
2016    24      7       0.5932411       115.8247
2016    25      0       0.6197432       119.4245
2016    25      1       0.6416545       122.1118
2016    25      2       0.6201259       118.9065
2016    25      3       0.5432417       107.6384
2016    25      4       0.4927624       100.5463
2016    25      5       0.5170333       104.6192
2016    25      6       0.5480371       109.7432
2016    25      7       0.6246106       120.3906
2016    26      0       0.6771403       126.6734
2016    26      1       0.5890621       114.2173
2016    26      2       0.4751531       97.14413
2016    26      3       0.454702        93.75453
2016    26      4       0.4590888       94.55542
2016    26      5       0.4015353       85.66279
2016    26      6       0.495229        100.0623
2016    26      7       0.4829938       97.84858
2016    27      0       0.3280736       72.6997
2016    27      1       0.2052726       50.07668
2016    27      2       0.1876485       46.61149
2016    27      3       0.233592        55.37076
2016    27      4       0.2772697       63.26943
2016    27      5       0.3188136       70.48716
2016    27      6       0.3351773       73.23109
2016    27      7       0.3218113       71.07548
2016    28      0       0.3121895       69.65668
2016    28      1       0.3310261       73.13529
2016    28      2       0.4474684       92.00884
2016    28      3       0.4569453       93.44026
2016    28      4       0.4984769       99.90877
2016    28      5       0.5617247       109.3693
2016    28      6       0.5942386       113.7379
2016    28      7       0.4997381       100.3271
2016    29      0       0.4695454       95.95181
2016    29      1       0.4806435       97.83698
2016    29      2       0.4848924       98.55012
2016    29      3       0.4628355       95.17857
2016    29      4       0.4035342       85.89246
2016    29      5       0.3664472       80.00703
2016    29      6       0.3210635       72.19779
2016    29      7       0.2855712       65.73364
2016    30      0       0.2790895       64.48475
2016    30      1       0.2311882       55.5359
2016    30      2       0.2318798       55.70963
2016    30      3       0.2633791       61.61204
2016    30      4       0.3375492       75.20568
2016    30      5       0.3840864       83.44044
2016    30      6       0.4420225       93.44073
2016    30      7       0.4907948       101.4885
2016    31      0       0.530224        108.2246
2016    31      1       0.5340179       109.3116
2016    31      2       0.503559        104.475
2016    31      3       0.5144396       105.4177
2016    31      4       0.5164223       104.9671
2016    31      5       0.472168        97.90505
2016    31      6       0.5029509       102.5659
2016    31      7       0.5655655       111.4729
2017    1       0       0.6541642       125.2835
2017    1       1       0.6558893       125.6336
2017    1       2       0.674181        127.8421
2017    1       3       0.6708705       127.1553
2017    1       4       0.6539259       124.9433
2017    1       5       0.6598695       125.637
2017    1       6       0.6731864       127.2278
2017    1       7       0.6653598       126.2979
2017    2       0       0.6548091       125.0691
2017    2       1       0.6309016       121.9897
2017    2       2       0.6031          118.0675
2017    2       3       0.5746196       114.0088
2017    2       4       0.5671342       113.1399
2017    2       5       0.5884431       116.2382
2017    2       6       0.636077        123.1528
2017    2       7       0.7573486       139.0161
2017    3       0       0.8335578       148.155
2017    3       1       0.7718629       141.2584
2017    3       2       0.9729446       162.0931
2017    3       3       1.383357        194.9305
2017    3       4       1.553641        205.0933
2017    3       5       1.624357        208.8466
2017    3       6       1.763162        215.1604
2017    3       7       1.7237          213.025
2017    4       0       1.474607        200.2754
2017    4       1       1.436489        198.3269
2017    4       2       1.732378        214.1474
2017    4       3       1.57125         205.7538
2017    4       4       1.808549        216.6862
2017    4       5       1.590823        206.1076
2017    4       6       1.3955          194.775
2017    4       7       1.349822        191.7111
2017    5       0       1.684346        210.5675
2017    5       1       1.538164        203.0248
2017    5       2       1.081153        170.7685
2017    5       3       0.9863866       162.0537
2017    5       4       0.9279999       156.6254
2017    5       5       0.9551674       159.4679
2017    5       6       0.8811886       152.0952
2017    5       7       0.8351746       147.2398
2017    6       0       0.7975063       142.9431
2017    6       1       0.7659808       139.3485
2017    6       2       0.6735091       128.3559
2017    6       3       0.5618496       113.6982
2017    6       4       0.5149971       107.1565
2017    6       5       0.5747548       115.6673
2017    6       6       0.6558041       126.1809
2017    6       7       0.7247632       134.5588
2017    7       0       0.7966938       142.9436
2017    7       1       0.7797974       141.2363
2017    7       2       1.083328        172.3513
2017    7       3       0.6631033       127.3219
2017    7       4       0.6373625       123.6437
2017    7       5       0.6901368       130.2543
2017    7       6       0.7946972       142.4985
2017    7       7       0.8777952       151.3549
2017    8       0       0.8492784       148.2651
2017    8       1       0.8478075       148.0521
2017    8       2       0.8277289       145.9445
2017    8       3       0.7935071       142.1762
2017    8       4       0.7963147       142.4369
2017    8       5       0.8154873       144.5842
2017    8       6       0.7980887       142.9035
2017    8       7       0.8134587       144.7317
2017    9       0       0.8201507       145.6102
2017    9       1       0.8447839       148.4024
2017    9       2       0.8411117       148.069
2017    9       3       0.8028836       143.7222
2017    9       4       0.7241678       134.1197
2017    9       5       0.6174206       120.2683
2017    9       6       0.5575328       111.9015
2017    9       7       0.5312384       108.1163
2017    10      0       0.6427278       123.7605
2017    10      1       0.4905541       102.201
2017    10      2       0.4729946       99.66627
2017    10      3       0.4786581       100.4545
2017    10      4       0.477073        100.3289
2017    10      5       0.4623064       98.21837
2017    10      6       0.4442354       95.46855
2017    10      7       0.4278658       92.86997
2017    11      0       0.4316443       93.54275
2017    11      1       0.4434772       95.53006
2017    11      2       0.4557535       97.42355
2017    11      3       0.4694554       99.54811
2017    11      4       0.4912427       102.9139
2017    11      5       0.5210751       107.284
2017    11      6       0.5913229       117.3505
2017    11      7       0.7352991       135.8935
2017    12      0       0.7806559       141.0661
2017    12      1       0.7621034       138.8551
2017    12      2       0.8034897       143.3605
2017    12      3       0.8635769       149.825
2017    12      4       0.8821503       151.7471
2017    12      5       1.03166         165.9611
2017    12      6       1.07652         170.114
2017    12      7       1.133145        175.123
2017    13      0       1.245354        183.9956
2017    13      1       1.397996        194.6686
2017    13      2       1.512427        201.6339
2017    13      3       1.475416        199.6746
2017    13      4       1.427273        197.5069
2017    13      5       1.523148        202.9793
2017    13      6       1.567962        205.0143
2017    13      7       1.510491        201.6895
2017    14      0       1.556991        204.2621
2017    14      1       1.559882        204.5004
2017    14      2       1.582257        205.6516
2017    14      3       1.517581        202.0367
2017    14      4       1.306804        189.072
2017    14      5       1.143573        177.0733
2017    14      6       0.7551593       138.2046
2017    14      7       0.6071435       119.0849
2017    15      0       0.5883895       116.6429
2017    15      1       0.5952886       117.7403
2017    15      2       0.5776884       115.4211
2017    15      3       0.559625        112.931
2017    15      4       0.5505163       111.7608
2017    15      5       0.5363073       109.748
2017    15      6       0.5223026       107.7349
2017    15      7       0.4431343       95.2814
2017    16      0       0.4235818       92.12757
2017    16      1       0.4396638       94.84603
2017    16      2       0.4526836       96.82963
2017    16      3       0.4396918       94.56668
2017    16      4       0.3945628       86.95682
2017    16      5       0.3765641       83.79774
2017    16      6       0.4035103       88.15049
2017    16      7       0.4343625       93.07807
2017    17      0       0.4794687       100.3077
2017    17      1       0.5152099       105.697
2017    17      2       0.5245199       106.8031
2017    17      3       0.5121905       104.9533
2017    17      4       0.5177677       105.8748
2017    17      5       0.5271847       107.2356
2017    17      6       0.5100548       104.6112
2017    17      7       0.4380248       93.27872
2017    18      0       0.4779942       99.79796
2017    18      1       0.459866        97.20156
2017    18      2       0.4368561       93.61295
2017    18      3       0.4303527       92.46101
2017    18      4       0.4175971       90.26334
2017    18      5       0.4198386       90.53833
2017    18      6       0.4241291       91.12725
2017    18      7       0.4088679       88.65667
2017    19      0       0.4157059       90.01623
2017    19      1       0.4459232       94.94585
2017    19      2       0.4640921       97.6325
2017    19      3       0.4656979       97.80557
2017    19      4       0.4581925       96.65793
2017    19      5       0.4443094       94.49199
2017    19      6       0.4366065       93.3115
2017    19      7       0.4398195       93.80426
2017    20      0       0.4617819       97.28347
2017    20      1       0.4710825       98.75437
2017    20      2       0.4616659       97.41491
2017    20      3       0.4439414       94.74023
2017    20      4       0.4338252       93.23425
2017    20      5       0.4438609       94.89492
2017    20      6       0.4539269       96.23437
2017    20      7       0.5291589       107.4901
2017    21      0       0.6215395       120.4918
2017    21      1       0.6742089       127.4133
2017    21      2       0.6538694       124.8464
2017    21      3       0.6322422       121.9818
2017    21      4       0.6666462       126.5829
2017    21      5       0.699362        130.7289
2017    21      6       0.704818        131.1864
2017    21      7       0.7013631       130.7364
2017    22      0       0.7036684       131.1003
2017    22      1       0.7073615       131.6414
2017    22      2       0.695408        130.3778
2017    22      3       0.6429028       123.9741
2017    22      4       0.5979465       118.3007
2017    22      5       0.5741579       115.2182
2017    22      6       0.5925296       117.6732
2017    22      7       0.6374274       123.6657
2017    23      0       0.5846824       116.5851
2017    23      1       0.8241415       146.8381
2017    23      2       0.7789958       141.5184
2017    23      3       0.6965088       131.3625
2017    23      4       0.7483314       137.5143
2017    23      5       0.8433419       148.2399
2017    23      6       0.855593        149.6756
2017    23      7       0.8446191       148.6722
2017    24      0       1.124899        175.161
2017    24      1       1.218303        182.6453
2017    24      2       1.168174        178.666
2017    24      3       1.104241        173.2123
2017    24      4       1.013302        165.4388
2017    24      5       0.9360362       158.2761
2017    24      6       0.8227037       146.1406
2017    24      7       0.6859234       129.9608
2017    25      0       0.5609879       113.5199
2017    25      1       0.418473        91.51939
2017    25      2       0.3375973       77.51375
2017    25      3       0.3049819       71.60386
2017    25      4       0.323307        75.04578
2017    25      5       0.3500055       79.95191
2017    25      6       0.3379695       77.86103
2017    25      7       0.3113159       72.98469
2017    26      0       0.2989623       70.83613
2017    26      1       0.2987291       70.89277
2017    26      2       0.3162675       73.94082
2017    26      3       0.3356538       77.25836
2017    26      4       0.3453841       79.02398
2017    26      5       0.3388389       77.88851
2017    26      6       0.3323703       76.70501
2017    26      7       0.3318961       76.54446
2017    27      0       0.3587501       81.22442
2017    27      1       0.3912594       86.71955
2017    27      2       0.3990707       87.89864
2017    27      3       0.3938641       86.86005
2017    27      4       0.3818799       84.63835
2017    27      5       0.3629047       81.34582
2017    27      6       0.3283401       75.29856
2017    27      7       0.3281361       75.46656
2017    28      0       0.353642        80.2182
2017    28      1       0.3462519       78.95544
2017    28      2       0.3090604       72.29486
2017    28      3       0.2743036       65.83364
2017    28      4       0.2528789       61.80631
2017    28      5       0.249702        61.25683
2017    28      6       0.2481871       61.00432
2017    28      7       0.237057        58.95554
2017    29      0       0.2464804       60.88346
2017    29      1       0.2579425       63.20412
2017    29      2       0.263094        64.29954
2017    29      3       0.2592763       63.51946
2017    29      4       0.2753614       66.64267
2017    29      5       0.2906118       69.55825
2017    29      6       0.341621        78.82862
2017    29      7       0.3713551       84.00724
2017    30      0       0.4114851       90.77038
2017    30      1       0.4716704       100.5943
2017    30      2       0.4634926       99.29455
2017    30      3       0.4066128       89.9741
2017    30      4       0.3800613       85.43107
2017    30      5       0.3683997       83.31415
2017    30      6       0.3604199       81.85639
2017    30      7       0.3649883       82.61776
2017    31      0       0.387682        86.30103
2017    31      1       0.3973502       88.19521
2017    31      2       0.3835781       85.68164
2017    31      3       0.3549825       80.65041
2017    31      4       0.3313135       76.72116
2017    31      5       0.3045808       72.30361
2017    31      6       0.2787855       67.66645
2017    31      7       0.2724585       65.92656
2018    1       0       0.4659903       98.32714
2018    1       1       0.4687348       98.78305
2018    1       2       0.4685117       98.7689
2018    1       3       0.4737791       99.53758
2018    1       4       0.4860877       101.2462
2018    1       5       0.4948487       102.4789
2018    1       6       0.502186        103.5194
2018    1       7       0.5084757       104.3712
2018    2       0       0.5068804       104.1371
2018    2       1       0.5024081       103.5181
2018    2       2       0.5163215       105.5892
2018    2       3       0.5569732       111.515
2018    2       4       0.5747192       113.9633
2018    2       5       0.5836763       115.0806
2018    2       6       0.5968036       116.6972
2018    2       7       0.6021014       117.4614
2018    3       0       0.6020003       117.5738
2018    3       1       0.6080551       118.5129
2018    3       2       0.6171027       119.7885
2018    3       3       0.6297721       121.4639
2018    3       4       0.6422104       123.0884
2018    3       5       0.634496        122.1249
2018    3       6       0.6015615       117.912
2018    3       7       0.5521075       111.2247
2018    4       0       0.4921779       102.6017
2018    4       1       0.4518822       96.54668
2018    4       2       0.449117        96.1278
2018    4       3       0.4690261       99.1145
2018    4       4       0.473155        99.70885
2018    4       5       0.5068453       104.8134
2018    4       6       0.5803951       115.5034
2018    4       7       0.6389921       123.5836
2018    5       0       0.7361604       135.9925
2018    5       1       0.8068949       144.1994
2018    5       2       0.8669649       150.7034
2018    5       3       0.9257264       156.7231
2018    5       4       1.150364        176.9543
2018    5       5       1.081694        171.3402
2018    5       6       1.022933        166.153
2018    5       7       0.9416836       158.4893
2018    6       0       0.7565937       138.3655
2018    6       1       0.6433848       124.0649
2018    6       2       0.6129105       120.0141
2018    6       3       0.6018103       118.5979
2018    6       4       0.6012627       118.5077
2018    6       5       0.6203851       121.1018
2018    6       6       0.6187134       120.9946
2018    6       7       0.6146317       120.5438
2018    7       0       0.6303017       122.6077
2018    7       1       0.6397335       123.8081
2018    7       2       0.6428013       124.2594
2018    7       3       0.6778859       129.0474
2018    7       4       0.7073667       133.079
2018    7       5       0.6697487       128.4577
2018    7       6       0.6095486       120.8296
2018    7       7       0.5929992       119.0945
2018    8       0       0.6124426       121.7809
2018    8       1       0.6498632       126.3628
2018    8       2       1.089141        172.9086
2018    8       3       1.358418        192.8988
2018    8       4       1.285413        187.1474
2018    8       5       1.310821        188.6976
2018    8       6       1.354975        191.7942
2018    8       7       1.446906        197.6002
2018    9       0       1.429266        196.5
2018    9       1       1.387936        193.9792
2018    9       2       1.388965        193.973
2018    9       3       1.36182         192.0123
2018    9       4       1.268561        185.4854
2018    9       5       1.185415        179.2386
2018    9       6       1.14212         175.835
2018    9       7       1.105801        172.8868
2018    10      0       1.044002        167.8289
2018    10      1       1.0106          165.1096
2018    10      2       1.016554        165.6306
2018    10      3       0.9960431       163.7759
2018    10      4       0.9805343       162.2003
2018    10      5       0.9256642       156.774
2018    10      6       0.7931991       142.5653
2018    10      7       0.732517        135.3541
2018    11      0       0.7723256       140.0136
2018    11      1       0.8291829       146.3917
2018    11      2       0.8384712       147.3291
2018    11      3       0.8745029       151.0657
2018    11      4       0.9361409       156.8892
2018    11      5       0.8790595       150.7621
2018    11      6       0.8501839       147.5283
2018    11      7       0.8263049       144.8452
2018    12      0       0.8651719       149.2082
2018    12      1       0.8908431       152.0685
2018    12      2       0.9060888       153.6202
2018    12      3       0.9169242       154.8475
2018    12      4       0.9226734       155.592
2018    12      5       0.9007106       153.5634
2018    12      6       0.8971465       153.2901
2018    12      7       0.878806        151.435
2018    13      0       0.8235161       146.0284
2018    13      1       0.8044185       144.1054
2018    13      2       0.715825        134.1663
2018    13      3       0.6401486       124.8779
2018    13      4       0.5807307       116.9128
2018    13      5       0.5585957       113.6019
2018    13      6       0.5789126       116.1353
2018    13      7       0.6053705       119.4046
2018    14      0       0.6929471       130.4133
2018    14      1       0.7623495       138.6255
2018    14      2       0.7914927       142.0666
2018    14      3       0.7849779       141.6009
2018    14      4       0.8259432       146.0117
2018    14      5       0.8235821       145.7263
2018    14      6       0.7787573       140.9438
2018    14      7       0.7472038       137.4519
2018    15      0       0.757019        138.8355
2018    15      1       0.8094872       145.0515
2018    15      2       0.7763859       141.3061
2018    15      3       0.7900483       142.915
2018    15      4       0.8316326       147.6728
2018    15      5       0.8619453       151.0756
2018    15      6       0.8837367       153.1785
2018    15      7       1.028248        167.2551
2018    16      0       1.133914        176.4942
2018    16      1       1.09912         173.7362
2018    16      2       1.123441        175.9597
2018    16      3       0.817264        146.4213
2018    16      4       0.7693121       140.7602
2018    16      5       0.8069355       144.7054
2018    16      6       0.8261783       146.5462
2018    16      7       0.750876        137.7304
2018    17      0       0.7154159       133.2089
2018    17      1       0.6949977       130.5346
2018    17      2       0.6436379       123.8151
2018    17      3       0.60976         119.0397
2018    17      4       0.6316984       121.8072
2018    17      5       0.6430876       123.2865
2018    17      6       0.5598149       112.0055
2018    17      7       0.4867879       101.2307
2018    18      0       0.4649509       97.86248
2018    18      1       0.4820721       100.414
2018    18      2       0.5415068       109.2049
2018    18      3       0.6058514       118.2453
2018    18      4       0.7196191       132.7343
2018    18      5       0.7021481       130.6117
2018    18      6       0.6078735       118.2254
2018    18      7       0.5873512       115.3973
2018    19      0       0.5809227       114.4222
2018    19      1       0.5685659       112.6898
2018    19      2       0.5274693       107.0301
2018    19      3       0.5047109       103.8174
2018    19      4       0.4959632       102.5679
2018    19      5       0.4618016       97.37457
2018    19      6       0.4133932       89.87117
2018    19      7       0.4338832       93.39694
2018    20      0       0.4531042       96.54633
2018    20      1       0.4645679       98.32195
2018    20      2       0.5231888       107.2767
2018    20      3       0.5292563       108.0897
2018    20      4       0.7189211       133.2286
2018    20      5       0.9050371       153.8402
2018    20      6       1.00716         163.9287
2018    20      7       1.101368        172.1274
2018    21      0       1.132699        174.5269
2018    21      1       1.023013        165.0505
2018    21      2       0.990309        162.2663
2018    21      3       0.7124614       132.4603
2018    21      4       0.651531        124.6951
2018    21      5       0.7334818       134.7565
2018    21      6       0.8892444       152.0713
2018    21      7       1.013985        164.432
2018    22      0       1.088266        171.0783
2018    22      1       1.122401        173.9989
2018    22      2       1.065362        169.2663
2018    22      3       1.004541        163.7992
2018    22      4       0.9052529       153.8846
2018    22      5       0.8655966       149.5372
2018    22      6       0.9016098       153.1729
2018    22      7       0.963008        159.1895
2018    23      0       0.801689        142.411
2018    23      1       0.7491668       136.2709
2018    23      2       0.760067        137.7081
2018    23      3       0.7615615       137.9642
2018    23      4       0.7133169       132.1317
2018    23      5       0.7329509       134.5026
2018    23      6       0.8247464       144.9042
2018    23      7       0.9384314       156.7463
2018    24      0       0.8375326       146.6384
2018    24      1       0.884676        151.7131
2018    24      2       0.9849485       161.4981
2018    24      3       1.02389         165.1735
2018    24      4       1.09304         171.1143
2018    24      5       1.195984        179.2312
2018    24      6       1.148527        175.641
2018    24      7       1.164398        176.8773
2018    25      0       1.198545        179.7053
2018    25      1       1.132205        174.6933
2018    25      2       1.122205        174.041
2018    25      3       1.069108        169.7368
2018    25      4       1.184903        178.8709
2018    25      5       1.166036        176.9362
2018    25      6       1.006358        163.2316
2018    25      7       0.9194064       154.983
2018    26      0       0.8457664       147.5605
2018    26      1       0.8736452       150.7749
2018    26      2       0.8758361       151.0257
2018    26      3       0.8112384       144.1204
2018    26      4       0.7712512       139.5084
2018    26      5       0.7204697       133.3282
2018    26      6       0.7435257       136.3729
2018    26      7       0.7614192       138.4869
2018    27      0       1.284526        186.3877
2018    27      1       1.306156        187.7756
2018    27      2       1.10727         172.6633
2018    27      3       1.030514        165.9604
2018    27      4       1.002526        163.176
2018    27      5       0.8909334       151.9115
2018    27      6       0.8190878       144.3144
2018    27      7       0.79804         142.0953
2018    28      0       0.811153        143.2919
2018    28      1       0.7701225       138.5285
2018    28      2       0.7331066       134.2101
2018    28      3       0.7882371       140.6146
2018    28      4       0.833758        145.4995
2018    28      5       0.8478576       146.7569
2018    28      6       0.8356763       145.2263
2018    28      7       0.7876518       139.6949
2018    29      0       0.7138288       131.0515
2018    29      1       0.6799853       126.9896
2018    29      2       0.734236        133.521
2018    29      3       0.7538491       135.6705
2018    29      4       0.7132952       130.9312
2018    29      5       0.7198525       131.8412
2018    29      6       0.7858551       139.477
2018    29      7       0.7206268       131.8531
2018    30      0       0.6483514       122.8854
2018    30      1       0.6299542       120.4945
2018    30      2       0.605622        117.2307
2018    30      3       0.5874341       114.792
2018    30      4       0.5992901       116.4078
2018    30      5       0.6351922       121.1358
2018    30      6       0.6820074       127.1114
2018    30      7       0.7987267       140.8756
2018    31      0       0.9902791       160.3071
2018    31      1       1.115053        171.1976
2018    31      2       1.144527        173.7362
2018    31      3       1.103919        170.5343
2018    31      4       0.9546648       157.0156
2018    31      5       0.678854        126.6446
2018    31      6       0.5220864       105.4508
2018    31      7       0.5395769       107.9764
