####################################################################################################
# Month: 05May                                                                                     #
# Station: ORG                                                                                     #
# Frequency: 230 GHz                                                                               #
# Columns are: year    day     tau     Tb (K)                                                      #
####################################################################################################
2009    1       0.6613003       129.6950675
2009    2       0.69363328      133.2184275
2009    3       0.54957562      113.60735
2009    4       0.54143755      111.06626375
2009    5       0.51581743      108.091645
2009    6       0.534167        111.07773
2009    7       0.31880836      75.6345875
2009    8       0.1722942       45.7439075
2009    9       0.16400435      44.02409875
2009    10      0.21073916      54.13598375
2009    11      0.33719209      79.8698375
2009    12      0.24457216      60.36607
2009    13      0.25289199      60.66356
2009    14      0.6142074       122.9714175
2009    15      0.27133231      65.27826625
2009    16      0.30147624      73.6310525
2009    17      0.33837696      81.75467375
2009    18      0.38813305      91.48787625
2009    19      0.40974516      94.29926625
2009    20      0.31372082      75.22911375
2009    21      0.2318665       59.60567
2009    22      0.32292086      77.75009
2009    23      0.42361098      95.64541
2009    24      0.63852393      129.082575
2009    25      0.48550186      106.36329875
2009    26      0.38241728      88.48288875
2009    27      0.45017608      101.137275
2009    28      0.50392764      110.3280125
2009    29      0.5320473       114.6162475
2009    30      0.63079511      129.8467375
2009    31      0.96260944      168.6537625
2010    1       0.25762342      62.92729875
2010    2       0.20979335      52.9716175
2010    3       0.36834241      83.71406125
2010    4       0.19253905      47.8810275
2010    5       0.24491438      59.93584875
2010    6       0.1774705       45.9170475
2010    7       0.15658376      41.44512375
2010    8       0.37572779      83.56404875
2010    9       0.4590626       98.326745
2010    10      0.48860891      102.89343625
2010    11      0.44668404      96.55367125
2010    12      0.34745615      79.42695125
2010    13      0.24656208      60.8719425
2010    14      0.24202151      60.9379075
2010    15      0.30080867      72.747165
2010    16      0.39321175      88.52217375
2010    17      0.6267076       125.616225
2010    18      0.61368645      122.69355
2010    19      0.3189636       76.14929625
2010    20      0.3932958       84.28361125
2010    21      0.29624046      69.0487025
2010    22      0.39852979      87.1763375
2010    23      0.3243572       74.7626425
2010    24      0.34529609      78.25334
2010    25      0.34895347      80.18613125
2010    26      0.55290965      113.8622875
2010    27      0.44599186      96.48746375
2010    28      0.40040774      88.2428875
2010    29      0.39395769      88.64694375
2010    30      0.3480745       81.05136125
2010    31      0.58000202      119.11321375
2011    1       0.12973216      35.7268825
2011    2       0.20105588      51.14552
2011    3       0.33278196      75.48674875
2011    4       0.1315652       36.60261875
2011    5       0.22101858      56.19224125
2011    6       0.52618592      110.09982
2011    7       0.80827401      149.5047
2011    8       0.70509649      134.6399875
2011    9       0.32088578      73.87698125
2011    10      0.45562529      100.02604375
2011    11      0.37101042      83.82072875
2011    12      0.51382252      109.31425125
2011    13      0.37889184      88.0418475
2011    14      0.63479159      128.7607875
2011    15      0.61015324      120.74269
2011    16      0.34351135      77.7898225
2011    17      0.31600172      72.5959625
2011    18      0.42314249      91.87918375
2011    19      0.46459066      100.16008125
2011    20      0.2873472       69.31588375
2011    21      0.4628152       99.23116
2011    22      0.60371664      121.78759375
2011    23      0.51481431      108.17427375
2011    24      0.3326338       74.68106625
2011    25      0.43082228      93.72382625
2011    26      0.37893506      84.2884775
2011    27      0.49459141      103.74613
2011    28      0.43682735      94.68339125
2011    29      0.41294286      90.821125
2011    30      0.40842496      90.3292525
2011    31      0.41093254      91.17273875
2012    1       0.26318062      59.91496875
2012    2       0.20667896      52.463955
2012    3       0.61130248      122.6837625
2012    4       0.42048688      93.2328975
2012    5       0.23327328      57.1211175
2012    6       0.15157554      41.15217875
2012    7       0.13425706      37.38767375
2012    8       0.18450718      49.08893875
2012    9       0.31503156      76.1003475
2012    10      0.33430462      76.56823375
2012    11      0.1467808       40.60488375
2012    12      0.13664997      38.509325
2012    13      0.1321891       37.97183875
2012    14      0.1405065       39.77168375
2012    15      0.27630352      68.79199375
2012    16      0.38108721      89.397085
2012    17      0.55673079      114.67999125
2012    18      0.3030683       68.36686375
2012    19      0.29078227      69.67047875
2012    20      0.59144022      121.919885
2012    21      0.59542199      124.390875
2012    22      0.4564831       100.5626125
2012    23      0.27673706      66.7044
2012    24      0.33943009      78.65590875
2012    25      0.4664694       100.0876725
2012    26      0.43735196      95.54782125
2012    27      0.42802816      93.7878975
2012    28      0.32273689      76.67642125
2012    29      0.35514435      83.77129625
2012    30      0.3913114       89.91534875
2012    31      0.5486331       117.172475
2013    1       0.08939665      26.78367
2013    2       0.1379082       37.79643875
2013    3       0.16499652      44.6231225
2013    4       0.32985068      76.52386
2013    5       0.34475044      80.2718225
2013    6       0.51934887      109.85580125
2013    7       0.61761553      123.87630625
2013    8       0.58332632      120.21225125
2013    9       0.5002431       107.82999875
2013    10      0.4023177       92.01187375
2013    11      0.39558656      91.0337325
2013    12      0.51098732      111.52455
2013    13      0.52987131      113.420595
2013    14      0.37899235      89.185575
2013    15      0.45339629      101.09928625
2013    16      0.84331916      152.46045
2013    17      0.69047191      133.1956875
2013    18      0.37272849      84.42091
2013    19      0.44467881      97.26753625
2013    20      0.23896195      59.497875
2013    21      0.30566191      72.65774625
2013    22      0.1725264       45.70335625
2013    23      0.22069555      53.69115875
2013    24      0.22944624      57.54533625
2013    25      0.31762938      75.246695
2013    26      0.4182479       92.79863
2013    27      0.5194369       106.48035375
2013    28      0.70274439      134.62671875
2013    29      0.37956399      86.43528375
2013    30      0.28290555      69.24589375
2013    31      0.20094195      52.52692625
2014    1       0.1374833       38.61331
2014    2       0.2695679       67.49965
2014    3       0.24496046      61.93145
2014    4       0.44470919      98.0593
2014    5       0.52847219      111.2262075
2014    6       0.39316812      87.50263625
2014    7       0.38961319      87.5148025
2014    8       0.37521682      83.1603725
2014    9       0.58501329      118.50688125
2014    10      0.33170614      76.78876625
2014    11      0.25105284      61.43086875
2014    12      0.22170882      56.818815
2014    13      0.21115361      54.28124375
2014    14      0.2874566       70.938925
2014    15      0.29706581      73.35267625
2014    16      0.35717059      83.33612625
2014    17      0.29770771      72.20736375
2014    18      0.43644374      97.0134925
2014    19      0.48558835      103.6882325
2014    20      0.46651496      100.72660375
2014    21      0.62076286      124.6388125
2014    22      0.33914391      78.7143175
2014    23      0.32839815      79.19047375
2014    24      0.57039693      115.14661625
2014    25      0.50178611      109.2502575
2014    26      0.36817711      87.18857375
2014    27      0.40395438      93.297605
2014    28      0.28446955      70.280695
2014    29      0.13014149      36.85955375
2014    30      0.21115978      53.2782
2014    31      0.3392848       80.4679225
2015    1       0.1227632       35.0796425
2015    2       0.36238701      85.33002625
2015    3       0.39757255      91.49673625
2015    4       0.38688644      89.374515
2015    5       0.51541551      110.3692375
2015    6       0.32504364      75.6918375
2015    7       0.27912365      66.20366125
2015    8       0.45451925      98.60649
2015    9       0.30002481      70.59202875
2015    10      0.19693061      51.525075
2015    11      0.47018905      102.12960125
2015    12      0.39382322      88.1200775
2015    13      0.31798515      74.03029625
2015    14      0.50973286      106.57896375
2015    15      0.54436562      112.80081125
2015    16      0.5823156       118.6580625
2015    17      0.48828881      104.30865625
2015    18      0.65256016      128.26365
2015    19      0.78943429      146.58185
2015    20      0.7983926       148.303525
2015    21      0.61131005      122.7214
2015    22      0.60832575      122.73265
2015    23      0.79957512      148.31595
2015    24      0.6131341       124.4818625
2015    25      0.61355069      124.0460375
2015    26      0.49536395      104.62729125
2015    27      0.41890841      94.300695
2015    28      0.42492254      96.8317925
2015    29      0.45727211      102.81313
2015    30      0.63843667      129.6717625
2015    31      0.4106629       94.84728625
2016    1       0.37251006      84.6062025
2016    2       0.3025216       72.89890625
2016    3       0.29856164      72.9069175
2016    4       0.49601079      106.9739225
2016    5       0.54689998      115.3231025
2016    6       0.53516491      111.6075675
2016    7       0.82001035      151.7231375
2016    8       0.94835585      165.3561375
2016    9       0.20776188      53.3301175
2016    10      0.17966768      47.37917625
2016    11      0.18588104      48.9682075
2016    12      0.19865234      52.64834125
2016    13      0.45331758      101.71566875
2016    14      0.41286292      93.50521375
2016    15      0.50926664      106.87760625
2016    16      0.62259591      123.5026
2016    17      0.3967042       89.0020125
2016    18      0.39325425      89.86146
2016    19      0.71144321      135.339835
2016    20      0.41585089      91.77264125
2016    21      0.42674624      91.57516
2016    22      0.43472809      94.0370325
2016    23      0.39236588      87.7554175
2016    24      0.51205526      107.510005
2016    25      0.61276496      123.3125
2016    26      0.48423251      104.63265625
2016    27      0.40098446      90.40507375
2016    28      0.2810639       68.88186625
2016    29      0.33251911      79.53758375
2016    30      0.39948355      91.07940125
2016    31      0.32118451      77.9024575
2017    1       0.33854968      79.6855075
2017    2       0.61494161      124.9616125
2017    3       0.5787702       121.062375
2017    4       0.38183325      90.13064
2017    5       0.60972175      125.70093875
2017    6       0.61100171      124.79065
2017    7       0.57297135      117.04714125
2017    8       0.14691436      40.154145
2017    9       0.19492884      51.38410625
2017    10      0.29271619      72.18295125
2017    11      0.47159408      102.53164125
2017    12      0.38024619      86.2650575
2017    13      0.26404671      62.62288
2017    14      0.29235111      68.6674525
2017    15      0.2906808       69.74171125
2017    16      0.53565504      108.7966125
2017    17      0.45507001      96.6807875
2017    18      0.47701844      102.711355
2017    19      0.37358626      86.46358625
2017    20      0.37470261      87.22903375
2017    21      0.30543854      74.26974
2017    22      0.22925601      59.36972125
2017    23      0.25786616      66.0430675
2017    24      0.53080935      116.36606875
2017    25      0.25989345      64.72108
2017    26      0.50674824      107.79807125
2017    27      0.30988145      74.66800125
2017    28      0.23517308      60.949125
2017    29      0.28424834      71.351095
2017    30      0.35903976      85.72347
2017    31      0.66065526      131.91501875
2018    1       0.32587049      75.190105
2018    2       0.24371282      60.1194325
2018    3       0.3014464       72.87796
2018    4       0.4380331       97.9255425
2018    5       0.64896151      130.9412125
2018    6       0.45507072      101.09815375
2018    7       0.3006443       73.52232375
2018    8       0.34400238      82.94070625
2018    9       0.48167288      105.40201
2018    10      0.40231586      91.457
2018    11      0.4674191       100.04754875
2018    12      0.6910734       133.300775
2018    13      0.70561246      137.151425
2018    14      0.36751232      84.90502875
2018    15      0.49434674      106.97926625
2018    16      0.59021802      121.7884375
2018    17      0.84789425      153.8933375
2018    18      0.58120785      116.71725375
2018    19      0.4500608       99.13341375
2018    20      0.75379126      143.452825
2018    21      0.70130752      136.5020625
2018    22      0.80358676      149.7310875
2018    23      0.77948188      147.2877125
2018    24      0.81921091      152.181575
2018    25      0.59453544      123.6428
2018    26      0.62460611      125.8853875
2018    27      0.5662417       117.2316425
2018    28      0.50348766      109.977275
2018    29      0.38820875      90.18384875
2018    30      0.53311289      115.29553
2018    31      0.46357182      101.550475
