####################################################################################################
# Month: 12Dec                                                                                     #
# Station: ORG                                                                                     #
# Frequency: 230 GHz                                                                               #
# Columns are: year    day     tau     Tb (K)                                                      #
####################################################################################################
2009    1       0.18441282      48.52486
2009    2       0.12343942      34.68559625
2009    3       0.09447651      27.90884875
2009    4       0.16097958      42.91449875
2009    5       0.15783343      41.07633625
2009    6       0.16316069      41.8165925
2009    7       0.13613115      36.19810625
2009    8       0.10299489      29.00782125
2009    9       0.09827181      28.124515
2009    10      0.09870758      28.6843525
2009    11      0.22881694      54.54326625
2009    12      0.41601741      91.17917875
2009    13      0.39356858      87.42632125
2009    14      0.18360514      47.1418075
2009    15      0.46236074      97.754975
2009    16      0.52919468      111.02213375
2009    17      0.35653978      81.77905375
2009    18      0.38161005      86.66643375
2009    19      0.2268778       56.56283125
2009    20      0.32059651      75.76892875
2009    21      0.28920065      68.70412875
2009    22      0.32856371      74.4922625
2009    23      0.16911645      44.48874125
2009    24      0.16401694      43.72267875
2009    25      0.19088244      49.57358625
2009    26      0.09620296      28.34908375
2009    27      0.25529085      61.16828
2009    28      0.19699101      50.0425675
2009    29      0.30670821      70.66237875
2009    30      0.31729124      72.93266
2009    31      0.32517508      71.753965
2010    1       0.52987868      110.72586375
2010    2       0.52028576      109.456095
2010    3       0.54501068      112.06605125
2010    4       0.5197425       108.96178625
2010    5       0.36797717      84.91039875
2010    6       0.42278601      93.07044875
2010    7       0.34393589      80.56622
2010    8       0.35399062      80.1372725
2010    9       0.43592856      95.34326875
2010    10      0.44748161      96.413705
2010    11      0.61224762      119.9139875
2010    12      0.28530475      66.3479325
2010    13      0.40542064      89.6844525
2010    14      0.53498636      109.77491
2010    15      0.27649911      62.70086875
2010    16      0.0929012       27.4027
2010    17      0.17765896      45.66675875
2010    18      0.45149108      97.64733
2010    19      0.48136786      102.58882875
2010    20      0.2769385       65.42189625
2010    21      0.32604332      75.29960125
2010    22      0.31251326      73.2538925
2010    23      0.28911898      68.79260625
2010    24      0.20820648      52.94993875
2010    25      0.18054878      47.5889225
2010    26      0.33500087      76.34415875
2010    27      0.3121487       72.81582
2010    28      0.52788378      109.00774
2010    29      0.54394495      109.64761125
2010    30      0.15948154      40.8977525
2010    31      0.08483518      24.8843075
2011    1       0.11424489      31.25103125
2011    2       0.1562565       41.645205
2011    3       0.10972389      30.991575
2011    4       0.2391022       59.26904625
2011    5       0.1543535       40.97082625
2011    6       0.27070701      66.1098075
2011    7       0.21025885      54.1287525
2011    8       0.13887197      37.65311375
2011    9       0.15383284      41.640875
2011    10      0.12678485      35.90532625
2011    11      0.15578713      41.2935475
2011    12      0.22862488      56.1810575
2011    13      0.19791692      50.362805
2011    14      0.1640562       43.43410375
2011    15      0.28758662      67.89978
2011    16      0.23024152      57.78151625
2011    17      0.24531341      61.50287
2011    18      0.15139141      41.67234
2011    19      0.1608506       42.52064875
2011    20      0.22359274      55.83127125
2011    21      0.14673612      38.3555925
2011    22      0.06061244      19.42294875
2011    23      0.11442408      32.05048375
2011    24      0.21723126      54.9994175
2011    25      0.1796549       47.11631875
2011    26      0.16405004      43.77353875
2011    27      0.24611566      59.662295
2011    28      0.56491675      113.34826375
2011    29      0.48020994      102.35571625
2011    30      0.51284137      106.2466475
2011    31      0.1756644       45.060855
2012    1       0.52821084      110.7932325
2012    2       0.62946507      125.8942
2012    3       0.1778714       46.12912375
2012    4       0.6219638       121.822855
2012    5       0.68471787      133.20705375
2012    6       0.16376819      43.44740375
2012    7       0.21889105      54.78838875
2012    8       0.30882561      72.04578
2012    9       0.3470165       79.7388675
2012    10      0.29234634      70.07159125
2012    11      0.22396782      56.094535
2012    12      0.37038649      82.2618525
2012    13      0.2935666       69.44063125
2012    14      0.18769335      48.02705
2012    15      0.21689594      53.34738125
2012    16      0.40885698      89.13171625
2012    17      0.39217668      88.01421625
2012    18      0.16042268      41.57258
2012    19      0.14973266      39.2512125
2012    20      0.22815476      56.528
2012    21      0.23608251      58.282905
2012    22      0.34130345      78.39089875
2012    23      0.38079316      84.4292425
2012    24      0.33614525      75.2202125
2012    25      0.28141988      63.8394675
2012    26      0.53009968      109.17272125
2012    27      0.30351799      70.56007625
2012    28      0.11211021      31.55575875
2012    29      0.26431853      62.6165875
2012    30      0.24088238      57.951595
2012    31      0.09988963      28.8126925
2013    1       0.37054486      84.901245
2013    2       0.408927        89.88963125
2013    3       0.24856801      58.88206125
2013    4       0.1634475       41.75112
2013    5       0.08834026      25.60911375
2013    6       0.14076517      37.0888375
2013    7       0.25676488      60.60156
2013    8       0.0917442       26.24775375
2013    9       0.13066549      35.5919275
2013    10      0.20444222      52.37674125
2013    11      0.22495926      56.66084125
2013    12      0.15597429      42.56651
2013    13      0.26702256      64.25022125
2013    14      0.22560287      56.92741875
2013    15      0.30521845      73.22754
2013    16      0.20394381      52.829375
2013    17      0.22244204      57.33432625
2013    18      0.22902606      57.5327475
2013    19      0.23158439      55.16816875
2013    20      0.22136635      53.78019
2013    21      0.37834509      83.78287375
2013    22      0.3790877       85.09380375
2013    23      0.39649405      89.5748775
2013    24      0.18893533      45.9140025
2013    25      0.09602559      28.216595
2013    26      0.18015201      47.4537
2013    27      0.14986856      41.40360875
2013    28      0.15638818      41.54399
2013    29      0.16148194      42.761715
2013    30      0.24296741      60.97870875
2013    31      0.49055502      104.5773025
2014    1       0.34022442      78.7616925
2014    2       0.30647054      72.24829375
2014    3       0.53603544      111.65875875
2014    4       0.60510039      122.9668125
2014    5       0.43461146      95.35094125
2014    6       0.511216        108.226415
2014    7       0.2487009       61.981095
2014    8       0.31581864      73.875455
2014    9       0.48758266      105.54434
2014    10      0.30099748      72.69781375
2014    11      0.43590728      95.74562875
2014    12      0.43768722      96.328815
2014    13      0.28015875      65.909415
2014    14      0.11852042      33.27536
2014    15      0.31464159      72.28931375
2014    16      0.4220624       92.4874075
2014    17      0.2704808       64.78000375
2014    18      0.31528869      74.02058875
2014    19      0.44694088      96.99011
2014    20      0.50563339      105.9317325
2014    21      0.78408432      146.741125
2014    22      0.66713422      130.00505625
2014    23      0.27984078      68.3548725
2014    24      0.28121485      68.06638125
2014    25      0.30598101      69.8866125
2014    26      0.17712214      45.70291
2014    27      0.1640477       42.76872625
2014    28      0.31620041      73.45661875
2014    29      0.30018866      69.1687275
2014    30      0.13743694      36.40436
2014    31      0.11409109      31.626395
2015    1       0.20329212      52.07375125
2015    2       0.42076032      89.94590375
2015    3       0.38917951      88.78253625
2015    4       0.38929119      85.91631375
2015    5       0.1964649       49.507465
2015    6       0.35849148      81.36633875
2015    7       0.60731465      122.4907075
2015    8       0.55157201      113.67835875
2015    9       0.3371582       76.14741625
2015    10      0.48898371      101.24704875
2015    11      0.34822188      79.18210125
2015    12      0.3456997       78.7447675
2015    13      0.5672913       116.85292375
2015    14      0.31445454      72.10476375
2015    15      0.17541338      45.347985
2015    16      0.22369863      54.8149425
2015    17      0.45713226      95.41493125
2015    18      0.40043614      87.40719625
2015    19      0.42627525      92.26863375
2015    20      0.31351229      71.35149125
2015    21      0.44427826      95.43394
2015    22      0.48339041      102.0593675
2015    23      0.32818467      75.12170125
2015    24      0.27563029      64.696575
2015    25      0.20018816      49.53082375
2015    26      0.09797443      28.0267025
2015    27      0.18652925      47.59162625
2015    28      0.35580525      79.86524375
2015    29      0.19536395      49.0411125
2015    30      0.26934388      63.76004125
2015    31      0.08238438      24.67656875
2016    1       0.20676005      52.01213625
2016    2       0.1658071       43.29948875
2016    3       0.32549736      76.40606625
2016    4       0.42181618      92.1552425
2016    5       0.23035465      53.33714
2016    6       0.18050791      45.78878625
2016    7       0.10785861      29.59228
2016    8       0.37761478      82.08836625
2016    9       0.52456611      109.55162
2016    10      0.73413136      138.5840375
2016    11      0.12609123      34.9117575
2016    12      0.1264979       35.04752
2016    13      0.20106572      50.5844675
2016    14      0.63740665      125.11043
2016    15      0.65267747      127.20327875
2016    16      0.5002968       99.9640325
2016    17      0.08343259      24.68694375
2016    18      0.09993978      28.75125875
2016    19      0.26370836      61.17824875
2016    20      0.57172506      118.4878375
2016    21      0.13893621      36.3170275
2016    22      0.10390356      30.068725
2016    23      0.27764885      65.56517
2016    24      0.37116404      82.9118425
2016    25      0.1479854       39.26239875
2016    26      0.08858067      26.12487375
2016    27      0.35227449      79.7125825
2016    28      0.24953855      61.19860875
2016    29      0.1703142       45.59896375
2016    30      0.18790338      49.15069625
2016    31      0.18750322      47.85898
2017    1       0.30678125      70.9217075
2017    2       0.28926279      68.5292375
2017    3       0.45414332      96.95991875
2017    4       0.12931537      35.08087375
2017    5       0.15568596      41.8527875
2017    6       0.15542794      41.8949125
2017    7       0.11301423      32.54041875
2017    8       0.09529573      28.6089175
2017    9       0.05709003      19.18633125
2017    10      0.07952654      24.36170375
2017    11      0.07137503      22.73268
2017    12      0.05351068      18.34931125
2017    13      0.15281228      40.8358425
2017    14      0.13886974      38.48900125
2017    15      0.21006122      52.782685
2017    16      0.28971032      65.77543625
2017    17      0.25014766      61.2464025
2017    18      0.29596641      70.89345875
2017    19      0.31122019      73.199365
2017    20      0.28328133      66.49640625
2017    21      0.15741687      40.94343125
2017    22      0.32122446      72.39992375
2017    23      0.51201479      105.7313575
2017    24      0.39003925      85.19527125
2017    25      0.36591298      81.3062475
2017    26      0.14530734      39.39544625
2017    27      0.22555486      56.48219375
2017    28      0.18692666      48.60349125
2017    29      0.14744568      39.89033875
2017    30      0.31198784      72.48529875
2017    31      0.15441996      41.38059375
2018    1       0.3342041       75.53614125
2018    2       0.30697671      70.75096
2018    3       0.15857376      41.3511625
2018    4       0.08861288      26.07555
2018    5       0.36191616      81.810155
2018    6       0.18235268      47.96769625
2018    7       0.17104726      45.67821875
2018    8       0.18865745      48.825755
2018    9       0.09370347      27.69545625
2018    10      0.30390518      70.66827375
2018    11      0.19496767      48.75740125
2018    12      0.32143877      72.41274875
2018    13      0.24559178      60.33331375
2018    14      0.24184881      59.86047625
2018    15      0.32535402      76.19593125
2018    16      0.26520409      65.19198875
2018    17      0.52388372      108.43619375
2018    18      0.38913248      86.94346875
2018    19      0.35332378      81.08493625
2018    20      0.20350844      52.6181775
2018    21      0.33871182      76.59859625
2018    22      0.15022499      40.1198475
2018    23      0.42020108      91.5307775
2018    24      0.4653704       99.26257
2018    25      0.32781617      76.4360975
2018    26      0.17891776      46.0924175
2018    27      0.3009418       70.052155
2018    28      0.14665458      38.7303275
2018    29      0.39176841      86.8988025
2018    30      0.29937214      71.484645
2018    31      0.19977936      49.8355325
