####################################################################################################
# Month: 08Aug                                                                                     #
# Station: NOB                                                                                     #
# Frequency: 345 GHz                                                                               #
# Columns are: year    day     tau     Tb (K)                                                      #
####################################################################################################
2009,1,7.7725525,287.4268125
2009,2,7.1267825,286.0293625
2009,3,5.53416275,286.763175
2009,4,7.13230062,288.8135875
2009,5,7.70430225,288.6215125
2009,6,9.43019612,289.3944375
2009,7,8.56630538,288.2917375
2009,8,7.94373325,288.6412375
2009,9,7.53555738,287.661725
2009,10,8.75213462,288.8335875
2009,11,7.42157575,288.8748375
2009,12,9.034443,290.5425
2009,13,9.50039375,291.162125
2009,14,7.09546412,288.061525
2009,15,7.08303175,286.662225
2009,16,3.52820625,277.177
2009,17,4.53445675,283.0859375
2009,18,6.31827788,285.5067
2009,19,5.60057912,283.959175
2009,20,5.04646388,283.271825
2009,21,8.48062313,288.0179
2009,22,4.64002388,281.20855
2009,23,3.01295988,264.7775
2009,24,3.535072,274.0032125
2009,25,4.643926,280.5924
2009,26,4.60754675,281.3372125
2009,27,5.89662025,284.5781875
2009,28,6.52043425,285.6680125
2009,29,7.2833455,285.9146375
2009,30,6.496604,285.8689375
2009,31,7.43437225,286.9038625
2010,1,9.02514062,289.887825
2010,2,7.6302175,288.9867625
2010,3,7.67218725,288.12645
2010,4,6.37163662,288.4554625
2010,5,6.5816305,288.9791125
2010,6,7.7774725,287.7987375
2010,7,6.06368125,286.2063625
2010,8,6.42292838,285.820225
2010,9,7.07932425,287.1092
2010,10,8.77647125,288.3222125
2010,11,7.93287725,288.44285
2010,12,7.68411825,287.8253625
2010,13,7.75129212,287.9184375
2010,14,9.518685,289.6625375
2010,15,8.06726637,289.0138125
2010,16,6.43086475,288.234025
2010,17,5.78095675,287.6368625
2010,18,6.4183905,287.4666375
2010,19,7.32841775,287.902125
2010,20,6.18689813,286.793925
2010,21,5.876489,286.81985
2010,22,5.33384213,286.83985
2010,23,5.81171425,288.050575
2010,24,7.38327688,288.212275
2010,25,6.44704638,287.52885
2010,26,6.867182,287.661775
2010,27,6.93829775,287.72465
2010,28,5.888972,287.1205375
2010,29,5.2785405,286.1504125
2010,30,5.58824588,287.200475
2010,31,7.22984912,288.3420625
2011,1,7.23628288,288.4163125
2011,2,9.40778475,289.37015
2011,3,8.683587,288.67595
2011,4,7.14906588,287.67095
2011,5,8.20108125,288.479475
2011,6,8.540327,288.5778875
2011,7,8.57707075,288.77545
2011,8,7.54043175,289.0024625
2011,9,7.68870012,289.9665125
2011,10,7.38058838,290.0256375
2011,11,5.91201825,284.8301125
2011,12,5.00554325,285.74725
2011,13,7.933714,289.3805
2011,14,7.21263412,288.985475
2011,15,7.69980675,287.6476875
2011,16,6.801883,287.8477375
2011,17,8.702084,288.792425
2011,18,8.55418075,288.5617625
2011,19,8.61884075,286.349225
2011,20,8.11795175,285.462275
2011,21,7.88348975,285.492525
2011,22,7.79148412,286.1891125
2011,23,5.63845762,283.2071375
2011,24,6.56634662,285.765575
2011,25,8.088348,287.2002
2011,26,8.51863375,286.652025
2011,27,7.79381912,286.8713125
2011,28,7.76517838,288.0120125
2011,29,6.34678325,287.390875
2011,30,6.25301025,287.144125
2011,31,7.79251,287.8428125
2012,1,6.79340838,288.4956625
2012,2,6.51068412,287.9274375
2012,3,5.03498863,280.600275
2012,4,4.65637225,283.077025
2012,5,6.15868812,287.2224125
2012,6,7.15043288,286.766275
2012,7,4.24368575,279.5486
2012,8,4.5702235,281.681775
2012,9,4.47231,283.2169125
2012,10,6.03508262,285.80075
2012,11,7.83320462,286.8523375
2012,12,7.32417688,287.2077875
2012,13,8.73816212,288.235425
2012,14,6.77947388,286.4670375
2012,15,6.80059012,286.7362375
2012,16,7.95171425,288.1519375
2012,17,8.15464138,287.95895
2012,18,6.62125588,285.685675
2012,19,4.61537063,283.3579
2012,20,4.41116187,283.512375
2012,21,5.87866612,286.6044125
2012,22,6.08448988,286.6680375
2012,23,5.46156625,285.939925
2012,24,5.24666925,285.527425
2012,25,4.23260262,283.05415
2012,26,4.6420985,284.28655
2012,27,4.6590125,284.5890875
2012,28,4.92136975,285.6264125
2012,29,7.58228987,287.9990375
2012,30,8.94158325,288.7531625
2012,31,6.01856438,286.60355
2013,1,5.5897405,285.9781
2013,2,4.8163005,283.700725
2013,3,5.079797,284.2732375
2013,4,7.75070238,287.0084
2013,5,7.88975938,287.9276125
2013,6,6.99489525,286.5428625
2013,7,5.69816587,287.6867875
2013,8,6.922145,289.8133625
2013,9,6.86070188,290.3374125
2013,10,7.230521,291.9167125
2013,11,6.51759612,291.6578375
2013,12,5.304093,288.6945875
2013,13,5.79813838,290.0894125
2013,14,6.16789475,291.24015
2013,15,6.69136675,289.886525
2013,16,6.09256475,289.26515
2013,17,5.03380525,287.5456875
2013,18,6.0364955,288.6158125
2013,19,6.55324462,289.2507375
2013,20,8.56751187,289.1502375
2013,21,7.78458875,289.3664125
2013,22,6.5136935,288.9103375
2013,23,8.56675575,288.5208625
2013,24,5.55857638,284.6662375
2013,25,3.81049288,272.085875
2013,26,5.15835037,282.18175
2013,27,3.3668555,272.6428375
2013,28,4.100973,278.9433625
2013,29,5.67054825,285.3370125
2013,30,7.870486,288.9918
2013,31,7.7530295,288.9536875
2014,1,6.9518125,288.268375
2014,2,6.53892,286.874
2014,3,7.75341588,287.4379875
2014,4,7.640793,287.7205
2014,5,6.67784238,287.7271125
2014,6,6.66257688,287.77655
2014,7,5.6986555,286.2471375
2014,8,7.70618325,285.869475
2014,9,7.4307935,286.0211875
2014,10,8.43981,288.320125
2014,11,5.5167365,285.1491875
2014,12,6.99194725,286.24315
2014,13,6.404518,286.0793125
2014,14,7.70473838,288.486825
2014,15,8.73857725,289.32155
2014,16,8.0761315,288.567175
2014,17,7.10787288,287.754525
2014,18,6.3300595,286.786075
2014,19,6.580645,287.1641375
2014,20,5.8038005,286.7453875
2014,21,6.32478238,287.409225
2014,22,5.9534685,285.633375
2014,23,5.99379012,284.3034875
2014,24,7.68674525,285.9532625
2014,25,8.49784113,287.2707125
2014,26,6.90682488,287.1350125
2014,27,7.04017062,286.0171
2014,28,5.58076588,283.472825
2014,29,5.88697675,282.8841625
2014,30,6.20787138,283.41435
2014,31,6.29229275,283.45635
2015,1,5.25873525,288.837625
2015,2,6.34767675,289.4094125
2015,3,6.55975375,289.5266875
2015,4,6.89985988,289.2705375
2015,5,6.78454288,289.0169875
2015,6,7.63450713,289.2197375
2015,7,5.34180337,286.5557875
2015,8,5.08185863,285.332075
2015,9,5.3583915,286.2621125
2015,10,5.834606,286.517525
2015,11,7.0358365,287.06085
2015,12,6.13546538,285.293075
2015,13,7.3298835,288.093575
2015,14,5.73433575,283.464225
2015,15,4.41179262,282.0892875
2015,16,5.80346188,283.4714875
2015,17,7.86670012,287.2032625
2015,18,4.42178038,281.9884
2015,19,5.96788175,284.3823875
2015,20,7.65509625,285.4432125
2015,21,8.07983013,286.764825
2015,22,7.19412488,287.9875375
2015,23,7.3506955,286.8212375
2015,24,6.34091738,285.516275
2015,25,6.01502338,284.53235
2015,26,5.80686812,285.153975
2015,27,6.23339475,284.735275
2015,28,7.68693512,285.0569
2015,29,7.431245,284.7907125
2015,30,7.79617425,285.6639
2015,31,5.855872,282.9880125
2016,1,7.895673,287.237425
2016,2,8.83481888,287.283675
2016,3,8.46273712,287.8949875
2016,4,8.14767562,288.82445
2016,5,7.31086025,289.3068875
2016,6,6.13794312,288.6706375
2016,7,6.161197,288.6001625
2016,8,5.92096838,287.8691
2016,9,5.35513875,287.3489625
2016,10,5.47476125,286.3439625
2016,11,5.58270563,286.8150875
2016,12,6.13663475,288.8813375
2016,13,7.39856188,289.4245625
2016,14,7.7741365,289.4754625
2016,15,8.08203112,289.509775
2016,16,7.18252875,288.3454375
2016,17,7.64277788,288.97865
2016,18,8.55117412,289.360875
2016,19,7.43385325,288.8962875
2016,20,9.10733962,289.2217375
2016,21,7.87834575,289.8168375
2016,22,7.23826775,287.9915125
2016,23,7.39871638,287.6147375
2016,24,7.27723812,287.215175
2016,25,6.86589725,287.8307875
2016,26,7.7152765,286.8223375
2016,27,7.93513212,285.702675
2016,28,7.17884125,287.1543
2016,29,8.23170525,287.7437125
2016,30,5.04663238,279.1309625
2016,31,3.20712762,268.2486125
2017,1,6.8441515,285.9492625
2017,2,6.68088462,286.283525
2017,3,6.98297762,287.6038
2017,4,8.98277912,289.074025
2017,5,8.44909362,289.9596875
2017,6,8.21980725,289.574425
2017,7,9.41475525,289.8886875
2017,8,7.2019495,287.94225
2017,9,6.41286125,288.1805375
2017,10,9.56041937,289.9280875
2017,11,8.193965,288.8272875
2017,12,8.10424775,287.9011875
2017,13,8.9712365,287.4533
2017,14,7.57803562,286.4262125
2017,15,8.83910062,287.1815
2017,16,8.022737,287.5163
2017,17,7.8300075,288.4951875
2017,18,8.307491,287.863075
2017,19,6.733331,286.9099625
2017,20,7.83481862,287.2747125
2017,21,6.42649312,286.5232875
2017,22,6.49749638,286.455325
2017,23,6.79362688,287.0901625
2017,24,7.64809575,288.8752125
2017,25,8.00296688,288.9066625
2017,26,4.33582362,281.224425
2017,27,3.86061525,278.5791625
2017,28,6.29927738,285.5557125
2017,29,6.60821338,286.5597375
2017,30,7.13716625,287.2263125
2017,31,5.65366575,280.9187
2018,1,6.92406175,290.0562125
2018,2,5.90988788,289.5778625
2018,3,6.09444812,289.5877125
2018,4,6.20104275,290.4332875
2018,5,6.40319188,290.23205
2018,6,7.12900762,290.10455
2018,7,7.666174,288.575575
2018,8,8.6411,290.2460125
2018,9,8.11732588,292.17015
2018,10,8.83893025,290.910625
2018,11,7.67688662,289.694375
2018,12,8.77421125,289.6570625
2018,13,9.2714975,289.58965
2018,14,8.09148088,289.915825
2018,15,8.94310938,289.238875
2018,16,6.54398025,284.9294
2018,17,3.07922788,267.604725
2018,18,3.52862488,277.5479
2018,19,3.28617412,274.5676625
2018,20,6.844801,287.765525
2018,21,6.7302315,287.9164625
2018,22,5.44047812,287.522325
2018,23,7.90517188,288.21095
2018,24,7.50684938,289.29655
2018,25,7.87276712,288.9592
2018,26,6.03648012,287.134025
2018,27,6.3922145,286.9969625
2018,28,7.02028838,285.8698375
2018,29,6.26731638,285.597325
2018,30,6.77493825,286.9953
2018,31,7.23734125,286.544275
