####################################################################################################
# Month: 05May                                                                                     #
# Station: YAN                                                                                     #
# Frequency: 345 GHz                                                                               #
# Columns are: year    day     segment         tau     Tb (K)                                      #
####################################################################################################
2009    1       0       1.119911        181.3045
2009    1       1       1.053048        175.0863
2009    1       2       1.033213        172.7814
2009    1       3       0.9050328       159.9442
2009    1       4       0.8472305       153.1651
2009    1       5       1.005743        168.2294
2009    1       6       0.9780372       166.6188
2009    1       7       0.9817508       167.9815
2009    2       0       0.7917829       148.4171
2009    2       1       0.5743851       119.9847
2009    2       2       0.5002509       108.6077
2009    2       3       0.4675692       103.1857
2009    2       4       0.5017316       108.5748
2009    2       5       0.7503128       142.7995
2009    2       6       1.062063        176.0653
2009    2       7       1.185413        186.8083
2009    3       0       1.150386        183.8705
2009    3       1       0.9526719       165.9702
2009    3       2       0.7780112       146.7546
2009    3       3       0.6828743       134.5896
2009    3       4       0.7021414       136.8496
2009    3       5       0.6933766       135.7005
2009    3       6       0.6399241       128.6192
2009    3       7       0.7899347       147.6888
2009    4       0       0.6687731       132.8706
2009    4       1       0.4755966       104.7563
2009    4       2       0.3561393       84.21962
2009    4       3       0.3021759       74.02498
2009    4       4       0.2465773       62.91579
2009    4       5       0.2328964       60.14194
2009    4       6       0.267558        67.25564
2009    4       7       0.2436221       62.39867
2009    5       0       0.1911294       51.17344
2009    5       1       0.1826865       49.34813
2009    5       2       0.1841379       49.69645
2009    5       3       0.2088556       54.93859
2009    5       4       0.2348334       60.40161
2009    5       5       0.2709203       67.89853
2009    5       6       0.3896261       90.19636
2009    5       7       0.5334812       113.975
2009    6       0       0.517783        111.632
2009    6       1       0.5331832       113.6844
2009    6       2       0.4722311       104.3515
2009    6       3       0.3286964       79.01841
2009    6       4       0.227421        59.11094
2009    6       5       0.3019686       73.93185
2009    6       6       0.3968014       91.18591
2009    6       7       0.3797475       88.20957
2009    7       0       0.221109        57.66733
2009    7       1       0.2329437       60.10523
2009    7       2       0.3439726       81.8274
2009    7       3       0.3966478       91.2096
2009    7       4       0.3588065       84.33997
2009    7       5       0.5101282       109.3768
2009    7       6       0.579999        119.7832
2009    7       7       0.5055202       108.7842
2009    8       0       0.3632344       85.06849
2009    8       1       0.4020231       91.53909
2009    8       2       0.5455467       114.1902
2009    8       3       0.5904762       120.6662
2009    8       4       0.5343609       112.8492
2009    8       5       0.5977503       122.1891
2009    8       6       0.7227116       138.7252
2009    8       7       0.7679746       144.6026
2009    9       0       0.7975627       147.9962
2009    9       1       0.857269        154.7927
2009    9       2       0.9208894       161.5798
2009    9       3       0.915085        160.7972
2009    9       4       0.8050815       148.5707
2009    9       5       0.7963026       147.0583
2009    9       6       0.9337777       162.3098
2009    9       7       0.977459        167.1083
2009    10      0       0.789189        147.5321
2009    10      1       0.6486758       129.5641
2009    10      2       0.5435331       114.6603
2009    10      3       0.4871474       105.8784
2009    10      4       0.4656035       102.2218
2009    10      5       0.5443474       114.1839
2009    10      6       0.7833638       145.2355
2009    10      7       0.9606035       164.2912
2009    11      0       0.884983        156.5222
2009    11      1       0.7441763       140.3289
2009    11      2       0.6517039       128.6276
2009    11      3       0.4692372       102.0322
2009    11      4       0.3194668       75.76069
2009    11      5       0.3541033       82.51059
2009    11      6       0.5472998       114.1839
2009    11      7       0.7320487       139.4385
2009    12      0       0.6719401       131.8377
2009    12      1       0.6560968       129.4782
2009    12      2       0.6514912       128.355
2009    12      3       0.6509585       128.2697
2009    12      4       0.6603602       129.5912
2009    12      5       0.699902        134.5081
2009    12      6       0.8089484       147.4158
2009    12      7       0.8732594       154.6062
2009    13      0       0.7651234       143.1033
2009    13      1       0.673643        131.6498
2009    13      2       0.6001895       121.2027
2009    13      3       0.566634        116.0233
2009    13      4       0.5446576       112.689
2009    13      5       0.5420729       112.415
2009    13      6       0.5829137       118.7369
2009    13      7       0.5729561       117.5518
2009    14      0       0.4610813       100.6054
2009    14      1       0.3588359       82.58069
2009    14      2       0.2802949       68.20776
2009    14      3       0.2112562       54.8513
2009    14      4       0.2104066       54.82951
2009    14      5       0.3077862       74.42519
2009    14      6       0.4988391       107.4187
2009    14      7       0.6700993       131.9222
2009    15      0       0.613779        124.9289
2009    15      1       0.5180529       111.1229
2009    15      2       0.4638985       102.5866
2009    15      3       0.4053783       92.90728
2009    15      4       0.3157235       76.88942
2009    15      5       0.4021114       92.08089
2009    15      6       0.5015523       108.4253
2009    15      7       0.6179845       125.7163
2009    16      0       0.4887248       106.3496
2009    16      1       0.2186544       57.26902
2009    16      2       0.1584853       44.34813
2009    16      3       0.1451512       41.12275
2009    16      4       0.1462562       41.393
2009    16      5       0.2947181       72.19968
2009    16      6       0.5254437       111.9017
2009    16      7       0.6414379       128.6903
2009    17      0       0.5619631       117.5995
2009    17      1       0.5998297       122.8758
2009    17      2       0.6522096       129.9228
2009    17      3       0.7604702       143.7076
2009    17      4       0.7867215       146.9805
2009    17      5       0.7422002       141.5492
2009    17      6       0.7603555       143.9572
2009    17      7       0.7575298       143.3165
2009    18      0       0.6548185       129.9161
2009    18      1       0.6898261       134.8927
2009    18      2       0.8435753       153.4422
2009    18      3       0.9780767       167.0775
2009    18      4       0.962306        165.5468
2009    18      5       1.226032        188.2809
2009    18      6       1.24679         189.836
2009    18      7       1.16858         183.9387
2009    19      0       1.171063        184.4362
2009    19      1       1.034677        172.6472
2009    19      2       0.8650652       155.5672
2009    19      3       0.8154196       149.5301
2009    19      4       0.7934001       146.9252
2009    19      5       0.7810368       145.8796
2009    19      6       1.029392        171.9113
2009    19      7       1.249414        189.9824
2009    20      0       0.9553342       164.9399
2009    20      1       0.8377195       152.7961
2009    20      2       0.8169504       150.5383
2009    20      3       0.6681058       132.6852
2009    20      4       0.554037        116.7823
2009    20      5       0.5889976       121.8428
2009    20      6       0.7115882       137.9991
2009    20      7       0.8188017       151.2395
2009    21      0       0.9078042       160.9975
2009    21      1       0.8700748       157.1112
2009    21      2       0.7353269       141.7106
2009    21      3       0.6229683       127.1291
2009    21      4       0.5804828       120.9584
2009    21      5       0.5814243       121.0087
2009    21      6       0.6209751       126.4704
2009    21      7       0.7258282       140.442
2009    22      0       0.7466202       142.6611
2009    22      1       0.6016664       123.7188
2009    22      2       0.5945775       122.4175
2009    22      3       0.6231174       126.0255
2009    22      4       0.633952        127.4834
2009    22      5       0.6767427       133.0928
2009    22      6       0.6775137       132.8962
2009    22      7       0.7033883       136.7296
2009    23      0       0.6988897       136.1692
2009    23      1       0.5858367       121.0001
2009    23      2       0.5354652       113.62
2009    23      3       0.4501075       100.0588
2009    23      4       0.4186766       95.01936
2009    23      5       0.4378827       98.17238
2009    23      6       0.4972086       107.6977
2009    23      7       0.5341439       113.3881
2009    24      0       0.5105821       110.2822
2009    24      1       0.4815769       105.9211
2009    24      2       0.6146106       125.768
2009    24      3       0.8249051       151.9056
2009    24      4       0.8988152       158.9472
2009    24      5       0.8578516       154.7557
2009    24      6       0.9346324       163.402
2009    24      7       1.007082        171.2347
2009    25      0       1.03841         173.9919
2009    25      1       0.9874626       169.3611
2009    25      2       0.8904952       159.7377
2009    25      3       0.7595468       145.0537
2009    25      4       0.6070727       125.1944
2009    25      5       0.6231753       127.1283
2009    25      6       0.7052795       137.7354
2009    25      7       0.8462879       154.8407
2009    26      0       0.9029923       160.6521
2009    26      1       0.9110501       161.1728
2009    26      2       0.9608979       165.9638
2009    26      3       1.054087        174.5615
2009    26      4       1.051868        174.4063
2009    26      5       0.9227136       162.3054
2009    26      6       0.9778946       167.715
2009    26      7       0.9786615       167.5896
2009    27      0       0.7839658       145.7759
2009    27      1       0.6734009       131.303
2009    27      2       0.6076729       121.9513
2009    27      3       0.6575748       128.6015
2009    27      4       0.6071421       122.3249
2009    27      5       0.5705371       117.5059
2009    27      6       0.5819389       119.0794
2009    27      7       0.5782666       118.9117
2009    28      0       0.5403971       113.7569
2009    28      1       0.442099        98.5451
2009    28      2       0.4456862       99.16887
2009    28      3       0.3919157       90.12862
2009    28      4       0.2765569       69.01391
2009    28      5       0.2560839       65.06176
2009    28      6       0.2684418       67.52659
2009    28      7       0.2877921       71.25942
2009    29      0       0.2431881       62.05983
2009    29      1       0.2023572       53.54652
2009    29      2       0.2440092       62.25479
2009    29      3       0.20352         53.62104
2009    29      4       0.1535716       42.47998
2009    29      5       0.1826322       48.83172
2009    29      6       0.2964334       72.52326
2009    29      7       0.3106974       75.47599
2009    30      0       0.249349        63.39038
2009    30      1       0.2048329       54.21351
2009    30      2       0.1495413       42.17476
2009    30      3       0.1584259       43.86892
2009    30      4       0.2622354       65.30992
2009    30      5       0.3252721       77.52172
2009    30      6       0.3088412       74.77824
2009    30      7       0.2680813       67.00202
2009    31      0       0.2116439       55.3489
2009    31      1       0.204054        53.69075
2009    31      2       0.2235719       57.8262
2009    31      3       0.236187        60.46258
2009    31      4       0.2172202       56.62688
2009    31      5       0.2409407       61.74073
2009    31      6       0.2811079       69.71449
2009    31      7       0.2563447       64.94718
2010    1       0       1.15881         184.328
2010    1       1       1.11662         180.966
2010    1       2       1.022546        172.7505
2010    1       3       0.8460523       154.5807
2010    1       4       0.7144107       139.2497
2010    1       5       0.8109509       151.0623
2010    1       6       0.845462        155.2488
2010    1       7       0.743438        143.7304
2010    2       0       0.5000601       109.6508
2010    2       1       0.3927532       91.50297
2010    2       2       0.3111652       76.42605
2010    2       3       0.3104055       75.99852
2010    2       4       0.2597597       66.14257
2010    2       5       0.2150896       56.93454
2010    2       6       0.2534115       64.73182
2010    2       7       0.1141465       34.439
2010    3       0       0.08184139      26.6696
2010    3       1       0.07527925      25.05185
2010    3       2       0.07223641      24.29627
2010    3       3       0.07486499      25.0021
2010    3       4       0.06966046      23.76405
2010    3       5       0.07748002      25.72611
2010    3       6       0.1254805       37.12656
2010    3       7       0.2314139       60.27438
2010    4       0       0.170209        47.33755
2010    4       1       0.1461209       42.04233
2010    4       2       0.1434308       41.43252
2010    4       3       0.1075607       32.92742
2010    4       4       0.152796        43.35646
2010    4       5       0.577846        120.8325
2010    4       6       0.9651004       167.6589
2010    4       7       1.054503        175.6189
2010    5       0       0.7802596       147.2194
2010    5       1       0.6540166       131.8906
2010    5       2       0.611011        126.1441
2010    5       3       0.7627714       145.7198
2010    5       4       0.7580549       145.3854
2010    5       5       0.8941327       161.5137
2010    5       6       0.8957557       162.0964
2010    5       7       1.00467         173.2132
2010    6       0       0.9955196       172.6173
2010    6       1       0.9156579       164.5338
2010    6       2       0.7834439       149.6654
2010    6       3       0.7981165       151.398
2010    6       4       0.763282        147.4366
2010    6       5       0.8966668       162.6359
2010    6       6       1.044851        177.0812
2010    6       7       1.233072        192.8225
2010    7       0       1.331727        199.1638
2010    7       1       1.178228        187.5888
2010    7       2       0.9609903       168.1875
2010    7       3       0.7434593       143.9354
2010    7       4       0.5822811       122.1863
2010    7       5       0.6357996       129.5687
2010    7       6       0.8781612       159.536
2010    7       7       1.057052        177.1453
2010    8       0       1.136651        184.053
2010    8       1       1.064009        177.8246
2010    8       2       1.023386        174.01
2010    8       3       0.9818924       169.9395
2010    8       4       0.8126132       152.1027
2010    8       5       1.158955        185.5896
2010    8       6       1.670678        218.5395
2010    8       7       1.372964        201.0515
2010    9       0       0.6123086       126.1066
2010    9       1       0.3251877       79.28773
2010    9       2       0.3416033       82.47709
2010    9       3       0.3668966       87.31851
2010    9       4       0.4518692       101.662
2010    9       5       0.6987358       137.0045
2010    9       6       1.006705        170.601
2010    9       7       1.14235         182.4834
2010    10      0       1.206411        187.7277
2010    10      1       1.14159         182.6222
2010    10      2       0.8979237       160.0889
2010    10      3       0.682123        134.6813
2010    10      4       0.5297165       112.8569
2010    10      5       0.5257257       112.1931
2010    10      6       0.5979057       122.6602
2010    10      7       0.7766366       146.1724
2010    11      0       0.7997491       149.1266
2010    11      1       0.6403042       129.1453
2010    11      2       0.5579981       117.5699
2010    11      3       0.5632268       118.2945
2010    11      4       0.5560325       117.1109
2010    11      5       0.5878544       121.8249
2010    11      6       0.6715139       133.3682
2010    11      7       0.9131054       161.2036
2010    12      0       0.9102542       161.2166
2010    12      1       0.7691326       145.4242
2010    12      2       0.530678        113.1393
2010    12      3       0.406368        92.65913
2010    12      4       0.2986288       72.46939
2010    12      5       0.3627179       84.80445
2010    12      6       0.5211857       111.322
2010    12      7       0.7695613       144.9248
2010    13      0       0.8089657       149.6514
2010    13      1       0.7726308       145.2816
2010    13      2       0.7264657       139.708
2010    13      3       0.6979619       135.8889
2010    13      4       0.6862861       134.1212
2010    13      5       0.8058725       147.9671
2010    13      6       0.9985098       168.7037
2010    13      7       1.051967        173.2248
2010    14      0       0.8644909       154.1228
2010    14      1       0.6522944       128.7518
2010    14      2       0.6620038       130.5093
2010    14      3       0.6032415       122.9736
2010    14      4       0.5243895       111.4943
2010    14      5       0.6322216       126.7125
2010    14      6       0.6755776       132.6138
2010    14      7       0.7301227       139.9843
2010    15      0       0.7102977       137.359
2010    15      1       0.7593041       142.9571
2010    15      2       0.7784308       145.3005
2010    15      3       0.6814532       133.8141
2010    15      4       0.576572        119.2668
2010    15      5       0.6462737       128.771
2010    15      6       0.7643127       144.0228
2010    15      7       0.8067409       149.4379
2010    16      0       0.961137        165.8911
2010    16      1       1.045638        174.2008
2010    16      2       0.7380012       141.3464
2010    16      3       0.640571        128.5103
2010    16      4       0.5034425       108.2201
2010    16      5       0.4318361       96.5195
2010    16      6       0.4584082       100.5742
2010    16      7       0.4963913       106.5918
2010    17      0       0.558382        116.5664
2010    17      1       0.7014245       136.6511
2010    17      2       0.6536612       130.5386
2010    17      3       0.4268455       95.95705
2010    17      4       0.3217111       77.04549
2010    17      5       0.3619034       84.22281
2010    17      6       0.4221503       94.87369
2010    17      7       0.4229979       95.36494
2010    18      0       0.3897145       90.01713
2010    18      1       0.428444        96.91772
2010    18      2       0.6971954       136.9925
2010    18      3       0.8192868       151.753
2010    18      4       0.7496286       143.5648
2010    18      5       0.7992719       149.4795
2010    18      6       0.8096135       150.8519
2010    18      7       1.01448         171.9857
2010    19      0       1.158275        184.3155
2010    19      1       1.278783        192.7049
2010    19      2       1.132562        180.7245
2010    19      3       0.9258218       161.3786
2010    19      4       0.8617208       155.6663
2010    19      5       1.182856        186.0354
2010    19      6       1.142814        182.8486
2010    19      7       1.102331        179.9377
2010    20      0       1.267234        192.4198
2010    20      1       1.314832        195.5843
2010    20      2       1.362864        198.8124
2010    20      3       1.345514        196.8502
2010    20      4       1.214772        187.3505
2010    20      5       1.191389        186.4511
2010    20      6       1.016239        171.5785
2010    20      7       0.8392979       154.1285
2010    21      0       0.8463811       154.8936
2010    21      1       0.9376875       164.349
2010    21      2       1.003401        171.2347
2010    21      3       1.047558        174.7702
2010    21      4       0.9678777       167.2928
2010    21      5       1.114231        180.4168
2010    21      6       1.084353        177.704
2010    21      7       0.825175        152.6008
2010    22      0       0.6051362       124.882
2010    22      1       0.6564341       131.4145
2010    22      2       0.6270519       127.3651
2010    22      3       0.5643068       117.6139
2010    22      4       0.5239588       112.1664
2010    22      5       0.5107463       110.0598
2010    22      6       0.4292756       96.91377
2010    22      7       0.2343114       60.5861
2010    23      0       0.1652126       45.81294
2010    23      1       0.2097732       55.31476
2010    23      2       0.251246        63.68495
2010    23      3       0.2271328       58.77389
2010    23      4       0.195549        52.06251
2010    23      5       0.1860928       49.81858
2010    23      6       0.229755        59.09087
2010    23      7       0.1825376       49.25807
2010    24      0       0.17234         46.93512
2010    24      1       0.1600811       44.27209
2010    24      2       0.1356142       38.80596
2010    24      3       0.1276095       36.88374
2010    24      4       0.1230092       35.61341
2010    24      5       0.1531588       42.2995
2010    24      6       0.1983549       52.27535
2010    24      7       0.2615703       65.20656
2010    25      0       0.4005938       91.44043
2010    25      1       0.5166673       110.5934
2010    25      2       0.486045        105.9434
2010    25      3       0.4232895       95.86249
2010    25      4       0.3716575       85.97555
2010    25      5       0.5791698       119.028
2010    25      6       0.8420983       153.466
2010    25      7       0.7754854       145.4156
2010    26      0       0.8608858       154.4322
2010    26      1       0.8879423       155.7673
2010    26      2       0.8378867       150.9872
2010    26      3       0.6888252       133.6597
2010    26      4       0.6203745       125.0592
2010    26      5       0.821467        150.691
2010    26      6       0.9365332       163.3499
2010    26      7       0.9494293       164.1473
2010    27      0       0.8775941       155.275
2010    27      1       0.8783541       155.4526
2010    27      2       1.061153        173.3577
2010    27      3       1.260271        190.1316
2010    27      4       1.269648        191.1832
2010    27      5       1.251076        190.085
2010    27      6       1.151712        183.1535
2010    27      7       1.078784        176.0385
2010    28      0       0.7747253       144.1703
2010    28      1       0.6535694       129.0054
2010    28      2       0.6956553       134.8698
2010    28      3       0.6723977       132.2894
2010    28      4       0.6013907       122.6695
2010    28      5       0.6014537       122.4084
2010    28      6       0.7130919       137.332
2010    28      7       0.8121778       148.9267
2010    29      0       0.6346631       126.9029
2010    29      1       0.433401        96.41708
2010    29      2       0.3989346       90.66788
2010    29      3       0.4012733       91.13683
2010    29      4       0.3811981       87.84989
2010    29      5       0.4609192       102.1086
2010    29      6       0.6261537       127.9312
2010    29      7       0.8817525       159.6853
2010    30      0       0.9815895       169.4955
2010    30      1       0.9490203       165.7771
2010    30      2       0.8362102       153.5528
2010    30      3       0.7139855       138.5585
2010    30      4       0.6339562       128.0643
2010    30      5       0.6111122       125.1908
2010    30      6       0.7078846       138.1456
2010    30      7       0.81872         151.3664
2010    31      0       0.8066502       150.1705
2010    31      1       0.7949056       148.9271
2010    31      2       0.8101734       150.7243
2010    31      3       0.9980296       170.5608
2010    31      4       0.7179501       139.5104
2010    31      5       0.4885445       106.7753
2010    31      6       0.4682882       103.4308
2010    31      7       0.3778805       88.2951
2011    1       0       0.2151005       56.31389
2011    1       1       0.1892566       50.7191
2011    1       2       0.2054743       54.1452
2011    1       3       0.205804        54.29853
2011    1       4       0.1765448       48.17461
2011    1       5       0.2890358       71.42479
2011    1       6       0.6085956       123.8917
2011    1       7       0.7855709       147.4018
2011    2       0       0.8808621       158.0982
2011    2       1       0.9649906       166.802
2011    2       2       0.9131586       161.294
2011    2       3       0.727384        140.2394
2011    2       4       0.6037509       123.4913
2011    2       5       0.6956918       135.2896
2011    2       6       0.8688064       155.2112
2011    2       7       0.9468585       164.2239
2011    3       0       0.9522007       164.3354
2011    3       1       0.9252018       160.5253
2011    3       2       0.8847302       156.4048
2011    3       3       0.7122637       137.2221
2011    3       4       0.5371208       113.7877
2011    3       5       0.528437        112.4266
2011    3       6       0.7122951       137.778
2011    3       7       0.688927        135.208
2011    4       0       0.6775842       133.9667
2011    4       1       0.6340725       127.7359
2011    4       2       0.488464        106.2091
2011    4       3       0.3807779       88.4042
2011    4       4       0.3234293       78.08575
2011    4       5       0.4490319       99.41369
2011    4       6       0.6075843       123.5283
2011    4       7       0.7143099       138.1715
2011    5       0       0.830651        152.2246
2011    5       1       1.005654        169.8256
2011    5       2       0.7362515       141.129
2011    5       3       0.5783403       120.1937
2011    5       4       0.5417728       114.6847
2011    5       5       0.5883038       121.2212
2011    5       6       0.8147831       149.8101
2011    5       7       0.886013        157.3512
2011    6       0       0.74023         140.6103
2011    6       1       0.4349679       96.8818
2011    6       2       0.3282878       78.28861
2011    6       3       0.2557294       64.42248
2011    6       4       0.2708712       67.20175
2011    6       5       0.3027051       73.53618
2011    6       6       0.6249362       125.8184
2011    6       7       0.7028579       136.0507
2011    7       0       0.5708888       118.1442
2011    7       1       0.4634154       101.4361
2011    7       2       0.4368528       96.97402
2011    7       3       0.3946257       90.03116
2011    7       4       0.4216637       94.968
2011    7       5       0.7068699       136.8981
2011    7       6       0.9378802       163.0996
2011    7       7       1.01558         170.2799
2011    8       0       0.8591425       154.9674
2011    8       1       0.5467449       115.1745
2011    8       2       0.4600034       101.8869
2011    8       3       0.4305845       96.66897
2011    8       4       0.4212385       95.15415
2011    8       5       0.4735918       103.9954
2011    8       6       0.7900561       147.3924
2011    8       7       1.064077        174.6216
2011    9       0       1.179217        184.4899
2011    9       1       1.06381         175.1221
2011    9       2       0.8976389       159.4633
2011    9       3       0.7551013       143.0944
2011    9       4       0.712179        137.5108
2011    9       5       0.7102364       137.3451
2011    9       6       0.919971        161.3639
2011    9       7       1.20972         186.828
2011    10      0       1.260704        190.6881
2011    10      1       1.191932        185.5613
2011    10      2       1.010835        170.5728
2011    10      3       0.8423528       153.2878
2011    10      4       0.6453025       129.0111
2011    10      5       0.7469345       142.4787
2011    10      6       0.9620978       166.2127
2011    10      7       1.138892        182.1378
2011    11      0       0.7147387       138.3176
2011    11      1       0.4400015       98.89373
2011    11      2       0.3342413       80.632
2011    11      3       0.2827661       70.99897
2011    11      4       0.2848155       71.38762
2011    11      5       0.3773497       88.53613
2011    11      6       0.4340274       98.73863
2011    11      7       0.5800621       121.6257
2011    12      0       0.7404807       143.5697
2011    12      1       0.7226435       141.5204
2011    12      2       0.8224052       153.3686
2011    12      3       1.068448        177.1453
2011    12      4       0.9090406       161.5626
2011    12      5       0.775285        146.8478
2011    12      6       0.7853591       148.1567
2011    12      7       0.844547        154.7588
2011    13      0       0.938656        164.807
2011    13      1       0.9857909       169.0871
2011    13      2       0.9309759       162.9632
2011    13      3       0.9286668       162.6662
2011    13      4       0.8115298       150.4081
2011    13      5       0.7870209       147.5741
2011    13      6       0.8427155       154.2593
2011    13      7       0.8553652       155.6808
2011    14      0       0.5226911       111.9096
2011    14      1       0.4055414       92.58999
2011    14      2       0.5718278       118.7603
2011    14      3       0.746386        142.1936
2011    14      4       0.6474799       129.8743
2011    14      5       0.6981193       136.3781
2011    14      6       0.8206524       151.0348
2011    14      7       0.9689011       166.7769
2011    15      0       1.023759        171.6835
2011    15      1       0.9158019       161.3452
2011    15      2       0.865116        156.1243
2011    15      3       0.8552524       154.9979
2011    15      4       0.757721        143.8392
2011    15      5       0.7682461       145.0937
2011    15      6       0.8309648       152.5819
2011    15      7       0.8902623       159.3114
2011    16      0       0.7917998       148.4887
2011    16      1       0.5760073       120.3079
2011    16      2       0.4617975       102.8159
2011    16      3       0.3952946       91.4279
2011    16      4       0.2845079       71.07098
2011    16      5       0.3520089       83.40781
2011    16      6       0.4887861       106.4546
2011    16      7       0.3746511       87.41382
2011    17      0       0.1969156       52.67404
2011    17      1       0.1564315       43.70913
2011    17      2       0.1237694       36.37594
2011    17      3       0.1093019       33.07462
2011    17      4       0.1052452       32.1099
2011    17      5       0.1312234       38.02898
2011    17      6       0.1493651       42.16404
2011    17      7       0.1372817       39.41774
2011    18      0       0.1177162       34.89464
2011    18      1       0.1359024       39.13155
2011    18      2       0.1313239       38.13996
2011    18      3       0.113327        33.93544
2011    18      4       0.09339174      29.2447
2011    18      5       0.1299827       37.95943
2011    18      6       0.1895602       51.31378
2011    18      7       0.1747861       48.17516
2011    19      0       0.150744        42.81711
2011    19      1       0.1733208       47.81187
2011    19      2       0.289658        71.69273
2011    19      3       0.2354142       60.76824
2011    19      4       0.2781649       69.32305
2011    19      5       0.5370438       114.1806
2011    19      6       0.3706494       86.88998
2011    19      7       0.2998076       73.52991
2011    20      0       0.3284788       78.86646
2011    20      1       0.3779097       87.78854
2011    20      2       0.4028698       92.28192
2011    20      3       0.3894616       89.87053
2011    20      4       0.3384898       80.54314
2011    20      5       0.3520674       82.92419
2011    20      6       0.3886319       89.47632
2011    20      7       0.3378019       80.21378
2011    21      0       0.2682439       66.76537
2011    21      1       0.2283          58.81162
2011    21      2       0.2259553       58.23121
2011    21      3       0.2365389       60.39797
2011    21      4       0.3853349       88.53891
2011    21      5       0.6156201       124.5217
2011    21      6       0.7702663       144.8356
2011    21      7       0.7351082       140.6239
2011    22      0       0.673527        132.7426
2011    22      1       0.8161299       149.7849
2011    22      2       0.9591836       164.8523
2011    22      3       1.04509         173.0473
2011    22      4       1.057953        174.5803
2011    22      5       0.9256159       161.9471
2011    22      6       0.9499328       164.3312
2011    22      7       0.9515447       164.6504
2011    23      0       1.057687        174.4456
2011    23      1       1.155839        182.618
2011    23      2       1.174047        183.4034
2011    23      3       1.138559        180.3722
2011    23      4       0.9258262       161.3788
2011    23      5       0.9186711       161.0476
2011    23      6       1.055415        174.3809
2011    23      7       1.071484        175.8932
2011    24      0       1.057753        175.1407
2011    24      1       0.8678966       155.7345
2011    24      2       0.740749        140.8669
2011    24      3       0.6717994       132.075
2011    24      4       0.6360419       127.4481
2011    24      5       0.6749783       132.9535
2011    24      6       0.8091544       149.5985
2011    24      7       0.9217067       161.5504
2011    25      0       0.9328207       162.9917
2011    25      1       0.9256499       162.1154
2011    25      2       0.7508985       142.4186
2011    25      3       0.6556324       129.8073
2011    25      4       0.559246        116.3648
2011    25      5       0.5752624       118.9769
2011    25      6       0.7908593       147.5021
2011    25      7       0.9707162       167.2248
2011    26      0       0.8645351       156.3609
2011    26      1       0.5915149       121.7704
2011    26      2       0.3007201       73.22277
2011    26      3       0.1992954       52.94498
2011    26      4       0.1634607       45.23877
2011    26      5       0.1536692       43.23984
2011    26      6       0.3394833       81.42776
2011    26      7       0.4885728       107.112
2011    27      0       0.4390201       98.89661
2011    27      1       0.4449587       99.88246
2011    27      2       0.4673175       103.5728
2011    27      3       0.5222348       112.018
2011    27      4       0.4805831       105.5421
2011    27      5       0.4810595       105.5139
2011    27      6       0.7847051       146.6684
2011    27      7       0.8067375       149.5275
2011    28      0       0.4643768       102.9628
2011    28      1       0.4645269       103.1582
2011    28      2       0.523392        112.2516
2011    28      3       0.5528839       116.2857
2011    28      4       0.490291        106.7224
2011    28      5       0.3644418       85.45832
2011    28      6       0.3652801       85.8548
2011    28      7       0.3209659       77.8971
2011    29      0       0.1663946       46.28047
2011    29      1       0.1072367       32.69152
2011    29      2       0.1009708       31.16343
2011    29      3       0.1016974       31.16942
2011    29      4       0.1089637       32.50625
2011    29      5       0.1318233       37.52867
2011    29      6       0.1962074       51.99459
2011    29      7       0.2149556       56.10122
2011    30      0       0.1422669       40.02827
2011    30      1       0.1477094       41.18015
2011    30      2       0.1544258       42.52847
2011    30      3       0.1382541       38.93721
2011    30      4       0.1306624       37.17684
2011    30      5       0.137603        38.59083
2011    30      6       0.2085929       54.14083
2011    30      7       0.2318488       59.0863
2011    31      0       0.1709151       46.17465
2011    31      1       0.1516381       41.90098
2011    31      2       0.1460181       40.72109
2011    31      3       0.1438574       40.31868
2011    31      4       0.1495641       41.36319
2011    31      5       0.1445484       40.26057
2011    31      6       0.198917        52.65372
2011    31      7       0.2680391       66.68942
2012    1       0       1.000616        170.3205
2012    1       1       0.9134489       161.5161
2012    1       2       0.8679458       156.4123
2012    1       3       0.9449335       163.9355
2012    1       4       1.011352        169.7882
2012    1       5       1.117664        179.222
2012    1       6       1.216017        187.217
2012    1       7       1.221823        187.7648
2012    2       0       1.218385        187.6103
2012    2       1       1.065402        174.7191
2012    2       2       0.8499128       152.9409
2012    2       3       0.743919        140.5755
2012    2       4       0.6211712       124.5821
2012    2       5       0.6249225       125.1681
2012    2       6       0.8238367       150.1843
2012    2       7       0.9650075       165.1378
2012    3       0       0.9303877       162.1049
2012    3       1       0.7656832       144.4206
2012    3       2       0.5923497       121.6079
2012    3       3       0.5624924       117.2021
2012    3       4       0.541786        114.1792
2012    3       5       0.5000188       108.0716
2012    3       6       0.5616881       117.528
2012    3       7       0.7330292       140.6912
2012    4       0       0.7015632       137.4138
2012    4       1       0.6216188       127.0517
2012    4       2       0.609133        125.0499
2012    4       3       0.4617366       102.6471
2012    4       4       0.3364424       80.82087
2012    4       5       0.348781        83.19646
2012    4       6       0.5405056       115.209
2012    4       7       0.8074562       150.2022
2012    5       0       0.7391942       142.1821
2012    5       1       0.6602547       131.9655
2012    5       2       0.6656034       132.3923
2012    5       3       0.6882448       134.995
2012    5       4       0.6505171       129.9034
2012    5       5       0.701891        136.9473
2012    5       6       0.8420469       153.7616
2012    5       7       0.965362        166.5111
2012    6       0       0.9316477       163.28
2012    6       1       0.7978516       149.0201
2012    6       2       0.6636288       132.4493
2012    6       3       0.6716036       133.1379
2012    6       4       0.7011468       136.8581
2012    6       5       0.8464652       154.0736
2012    6       6       1.051035        174.5151
2012    6       7       1.231625        189.9262
2012    7       0       0.9685342       167.0788
2012    7       1       0.6850829       135.1816
2012    7       2       0.4760447       105.0247
2012    7       3       0.3906419       90.54225
2012    7       4       0.3679061       86.61838
2012    7       5       0.4152055       95.17546
2012    7       6       0.5893688       122.4832
2012    7       7       0.6657853       133.3027
2012    8       0       0.5443388       116.2551
2012    8       1       0.4269985       97.47035
2012    8       2       0.4213486       96.28777
2012    8       3       0.4147905       95.06067
2012    8       4       0.4189542       96.00015
2012    8       5       0.4484647       101.1453
2012    8       6       0.6438409       130.5286
2012    8       7       0.9172215       162.9613
2012    9       0       0.9998646       171.267
2012    9       1       0.9615707       167.6248
2012    9       2       0.9442123       165.9115
2012    9       3       0.7361268       142.5983
2012    9       4       0.6225632       127.6761
2012    9       5       0.7516515       144.1211
2012    9       6       1.041661        174.9128
2012    9       7       1.22614         189.8894
2012    10      0       1.148043        183.7615
2012    10      1       0.8592796       156.7677
2012    10      2       0.6011331       124.4032
2012    10      3       0.4019548       93.03228
2012    10      4       0.2616591       66.78645
2012    10      5       0.2762548       69.70024
2012    10      6       0.3685793       87.10315
2012    10      7       0.5634332       118.7785
2012    11      0       0.5354338       114.887
2012    11      1       0.4188084       96.08444
2012    11      2       0.3753913       88.17853
2012    11      3       0.3895118       90.26026
2012    11      4       0.3284955       79.01669
2012    11      5       0.4770397       104.4891
2012    11      6       0.6167249       125.0383
2012    11      7       0.5516639       116.1031
2012    12      0       0.3924335       90.49889
2012    12      1       0.3096546       75.5158
2012    12      2       0.2946892       72.42674
2012    12      3       0.26802         67.02874
2012    12      4       0.2962368       72.48027
2012    12      5       0.3916252       90.03263
2012    12      6       0.4318877       97.36743
2012    12      7       0.4763653       104.8902
2012    13      0       0.508396        109.9101
2012    13      1       0.4624576       102.5554
2012    13      2       0.3897979       90.20907
2012    13      3       0.3209138       77.42675
2012    13      4       0.2438901       62.4623
2012    13      5       0.2830049       70.26933
2012    13      6       0.3075892       75.17478
2012    13      7       0.2332982       60.79835
2012    14      0       0.1625747       45.13233
2012    14      1       0.1399152       39.97396
2012    14      2       0.1445078       40.79387
2012    14      3       0.1397173       39.65539
2012    14      4       0.1396009       39.71806
2012    14      5       0.1797254       48.49297
2012    14      6       0.2388877       61.03255
2012    14      7       0.3227731       77.70717
2012    15      0       0.2606952       65.73712
2012    15      1       0.1755076       48.00959
2012    15      2       0.1921316       51.53644
2012    15      3       0.2266227       58.66121
2012    15      4       0.2328942       59.94877
2012    15      5       0.3388509       80.56272
2012    15      6       0.4484256       99.80217
2012    15      7       0.5142336       110.5014
2012    16      0       0.3457767       82.3205
2012    16      1       0.2627509       66.02273
2012    16      2       0.2339316       60.06043
2012    16      3       0.2705102       67.63475
2012    16      4       0.3576249       83.90553
2012    16      5       0.4741618       103.4973
2012    16      6       0.5336697       113.1837
2012    16      7       0.5228093       111.9197
2012    17      0       0.3562251       84.04145
2012    17      1       0.2515451       63.87726
2012    17      2       0.1942981       51.7809
2012    17      3       0.1876356       50.15444
2012    17      4       0.2055891       53.7794
2012    17      5       0.2195275       56.79945
2012    17      6       0.2324637       59.65955
2012    17      7       0.267           66.53328
2012    18      0       0.2902569       71.12692
2012    18      1       0.3039453       73.9312
2012    18      2       0.3173856       76.47006
2012    18      3       0.3167185       76.22858
2012    18      4       0.256643        64.58682
2012    18      5       0.252802        63.63877
2012    18      6       0.2709104       67.19677
2012    18      7       0.2605835       65.28083
2012    19      0       0.2478346       62.90824
2012    19      1       0.2122325       55.65533
2012    19      2       0.2059113       54.40535
2012    19      3       0.2165173       56.5146
2012    19      4       0.2457759       62.51421
2012    19      5       0.2566681       64.6668
2012    19      6       0.3077236       74.54732
2012    19      7       0.2760508       68.66236
2012    20      0       0.1781965       48.45904
2012    20      1       0.1618006       44.77025
2012    20      2       0.1809356       48.83619
2012    20      3       0.2342598       60.0539
2012    20      4       0.4416393       98.25262
2012    20      5       0.5136057       109.8559
2012    20      6       0.5290637       112.5883
2012    20      7       0.4625393       102.4689
2012    21      0       0.3731264       87.30763
2012    21      1       0.3411078       81.53186
2012    21      2       0.4230367       95.97854
2012    21      3       0.5122439       110.2183
2012    21      4       0.6135426       124.9366
2012    21      5       0.8967892       159.0956
2012    21      6       1.055902        175.4644
2012    21      7       1.104228        179.6938
2012    22      0       1.105382        179.4267
2012    22      1       0.9711598       167.053
2012    22      2       0.8456295       153.845
2012    22      3       0.8635207       154.3663
2012    22      4       0.7505033       140.4946
2012    22      5       0.6096383       122.7643
2012    22      6       0.4847241       104.624
2012    22      7       0.4560195       99.80619
2012    23      0       0.4437895       97.4974
2012    23      1       0.452563        99.29655
2012    23      2       0.4048774       91.49213
2012    23      3       0.357277        83.3287
2012    23      4       0.4897156       106.2822
2012    23      5       0.6593781       131.1719
2012    23      6       0.6896153       135.07
2012    23      7       0.6804943       133.838
2012    24      0       0.6308893       127.182
2012    24      1       0.6541811       129.9471
2012    24      2       0.7252185       138.6116
2012    24      3       0.7765075       144.061
2012    24      4       0.5830718       119.7137
2012    24      5       0.4765141       104.1732
2012    24      6       0.5615407       117.1622
2012    24      7       0.5825165       120.3176
2012    25      0       0.5419295       114.6077
2012    25      1       0.4620224       101.9622
2012    25      2       0.3654476       85.44691
2012    25      3       0.2164373       56.60548
2012    25      4       0.2459096       62.56671
2012    25      5       0.3087671       74.69746
2012    25      6       0.3287753       78.36949
2012    25      7       0.2302531       59.36453
2012    26      0       0.1599696       44.45892
2012    26      1       0.1472542       41.61244
2012    26      2       0.1063157       32.13025
2012    26      3       0.09136475      28.35958
2012    26      4       0.109944        32.71647
2012    26      5       0.120857        35.50351
2012    26      6       0.2086883       55.13986
2012    26      7       0.2375148       61.23587
2012    27      0       0.2344548       60.90448
2012    27      1       0.17232         47.76354
2012    27      2       0.1361994       39.64261
2012    27      3       0.1279299       37.77468
2012    27      4       0.1223296       36.44631
2012    27      5       0.1252356       37.15477
2012    27      6       0.3339125       80.71942
2012    27      7       0.4719165       104.6574
2012    28      0       0.4702467       104.1171
2012    28      1       0.3847016       89.67609
2012    28      2       0.2448285       63.17203
2012    28      3       0.1795149       49.39088
2012    28      4       0.1409028       40.7976
2012    28      5       0.1482147       42.51432
2012    28      6       0.6085306       124.8481
2012    28      7       0.7426418       141.9985
2012    29      0       0.5816748       121.1158
2012    29      1       0.3347173       80.76972
2012    29      2       0.2809898       70.35538
2012    29      3       0.2021534       54.19818
2012    29      4       0.1354732       39.45497
2012    29      5       0.1761458       48.5404
2012    29      6       0.2812454       70.19501
2012    29      7       0.4816675       105.3758
2012    30      0       0.5677447       118.5787
2012    30      1       0.4373843       98.33821
2012    30      2       0.283059        70.53318
2012    30      3       0.2294627       59.79351
2012    30      4       0.22789         59.42985
2012    30      5       0.3172033       76.84006
2012    30      6       0.4717138       103.1453
2012    30      7       0.6080737       123.0346
2012    31      0       0.5235033       111.0183
2012    31      1       0.2917711       71.72421
2012    31      2       0.2230318       57.66348
2012    31      3       0.1731073       47.00192
2012    31      4       0.2056147       53.22718
2012    31      5       0.2028409       52.64003
2012    31      6       0.3996575       90.08934
2012    31      7       0.7462051       139.5777
2013    1       0       0.5858616       121.568
2013    1       1       0.5572496       117.3594
2013    1       2       0.6541499       130.7296
2013    1       3       0.7892328       147.8271
2013    1       4       0.9932674       169.4602
2013    1       5       1.053785        174.4513
2013    1       6       1.25534         190.0763
2013    1       7       1.36041         197.6818
2013    2       0       1.224272        187.3045
2013    2       1       1.08402         174.8387
2013    2       2       0.9060947       157.2593
2013    2       3       0.8122099       147.5086
2013    2       4       0.7222075       136.8967
2013    2       5       0.6584814       128.8101
2013    2       6       0.6819468       132.046
2013    2       7       0.6934933       133.6005
2013    3       0       0.6351225       126.2629
2013    3       1       0.5892054       119.8657
2013    3       2       0.5656063       116.4674
2013    3       3       0.5590117       115.5332
2013    3       4       0.5299315       111.2665
2013    3       5       0.6184865       124.4813
2013    3       6       0.7414876       140.8837
2013    3       7       0.8549372       154.661
2013    4       0       0.7799586       145.7273
2013    4       1       0.5821349       119.8378
2013    4       2       0.5596204       116.4751
2013    4       3       0.617254        124.9347
2013    4       4       0.6935065       135.1882
2013    4       5       0.81097         149.3839
2013    4       6       0.9818045       167.4022
2013    4       7       1.017942        170.5471
2013    5       0       0.8212629       149.7651
2013    5       1       0.6808299       132.6204
2013    5       2       0.6705523       131.8557
2013    5       3       0.6533382       130.1334
2013    5       4       0.6836145       133.9118
2013    5       5       0.7357806       140.2216
2013    5       6       0.8148112       149.6492
2013    5       7       0.8708075       155.3073
2013    6       0       0.9512541       164.3419
2013    6       1       0.85336         154.3205
2013    6       2       0.6570676       130.3215
2013    6       3       0.472292        103.3113
2013    6       4       0.4418783       98.44232
2013    6       5       0.4663188       102.6436
2013    6       6       0.6517739       130.1861
2013    6       7       0.9404696       163.4009
2013    7       0       0.988811        168.4777
2013    7       1       1.153535        183.267
2013    7       2       1.37292         199.1093
2013    7       3       1.236971        188.6085
2013    7       4       1.186028        184.5588
2013    7       5       1.084654        176.5507
2013    7       6       1.034967        172.9137
2013    7       7       1.158358        183.7455
2013    8       0       1.213526        188.1884
2013    8       1       1.131252        181.8256
2013    8       2       1.048503        174.0195
2013    8       3       0.8727112       156.6344
2013    8       4       0.6859604       134.5951
2013    8       5       0.6520935       130.3198
2013    8       6       0.7731007       145.7775
2013    8       7       0.9732555       167.5689
2013    9       0       0.92317         162.6573
2013    9       1       0.7246987       140.1714
2013    9       2       0.6032096       123.6565
2013    9       3       0.4784425       104.578
2013    9       4       0.3541425       83.39868
2013    9       5       0.3638715       85.4368
2013    9       6       0.5381335       114.3
2013    9       7       0.6764236       133.5729
2013    10      0       0.6403045       128.7947
2013    10      1       0.4876028       106.1406
2013    10      2       0.3167671       76.30719
2013    10      3       0.2101384       54.94889
2013    10      4       0.1599144       44.0892
2013    10      5       0.1824854       49.09486
2013    10      6       0.2402346       61.22746
2013    10      7       0.3817818       88.28974
2013    11      0       0.4072833       92.69644
2013    11      1       0.3454946       81.78006
2013    11      2       0.2816934       69.43812
2013    11      3       0.3073076       74.33939
2013    11      4       0.3429189       80.58576
2013    11      5       0.4185009       93.6075
2013    11      6       0.5059372       107.7968
2013    11      7       0.5520101       115.0749
2013    12      0       0.4674416       102.6503
2013    12      1       0.4224535       95.17058
2013    12      2       0.5009519       107.7826
2013    12      3       0.7600448       142.7619
2013    12      4       0.6382704       128.136
2013    12      5       0.530264        112.2445
2013    12      6       0.5190962       110.7575
2013    12      7       0.5907082       121.2108
2013    13      0       0.3113786       75.29668
2013    13      1       0.2426895       61.31473
2013    13      2       0.3589559       83.88609
2013    13      3       0.5095813       109.7661
2013    13      4       0.526956        112.3305
2013    13      5       0.6553381       130.8717
2013    13      6       0.8541336       155.163
2013    13      7       1.006545        170.8785
2013    14      0       1.169645        184.5369
2013    14      1       1.32606         195.2574
2013    14      2       1.308064        194.4928
2013    14      3       1.160722        183.729
2013    14      4       1.169601        184.5757
2013    14      5       1.003393        170.2469
2013    14      6       0.9435032       164.6115
2013    14      7       0.912615        161.4086
2013    15      0       0.8897857       158.7752
2013    15      1       0.8674783       156.3077
2013    15      2       0.8814806       157.4299
2013    15      3       0.8973991       158.6925
2013    15      4       0.862643        154.8512
2013    15      5       0.7343894       140.2955
2013    15      6       0.8954122       159.0212
2013    15      7       1.164872        182.9457
2013    16      0       1.038209        172.631
2013    16      1       1.080329        176.8923
2013    16      2       1.189602        185.8724
2013    16      3       1.194165        186.3584
2013    16      4       1.33112         196.0097
2013    16      5       1.422206        202.357
2013    16      6       1.318927        196.2659
2013    16      7       1.386861        200.9501
2013    17      0       1.459955        205.6951
2013    17      1       1.374537        199.081
2013    17      2       1.353052        198.9482
2013    17      3       1.178479        186.0538
2013    17      4       1.121242        180.9441
2013    17      5       1.352568        197.7902
2013    17      6       1.449676        203.8613
2013    17      7       1.123291        181.3881
2013    18      0       1.015962        172.0907
2013    18      1       1.138787        182.5292
2013    18      2       1.313614        194.6865
2013    18      3       1.254891        190.4841
2013    18      4       1.106641        179.0676
2013    18      5       1.114127        179.5637
2013    18      6       1.325687        196.4364
2013    18      7       1.343632        197.8918
2013    19      0       1.274418        192.4998
2013    19      1       1.118329        180.3474
2013    19      2       1.084758        177.4611
2013    19      3       0.9499308       165.0416
2013    19      4       0.9832805       168.286
2013    19      5       0.9869199       168.5888
2013    19      6       1.170738        184.6387
2013    19      7       1.188642        186.0963
2013    20      0       1.067494        175.8202
2013    20      1       0.9756637       167.4527
2013    20      2       0.9075609       161.1279
2013    20      3       0.7425202       142.0316
2013    20      4       0.5914781       121.6688
2013    20      5       0.5318977       113.039
2013    20      6       0.8451621       153.8262
2013    20      7       1.088125        177.2914
2013    21      0       1.114137        179.9857
2013    21      1       0.9167986       161.5505
2013    21      2       0.7176472       138.6451
2013    21      3       0.6892436       134.7792
2013    21      4       0.6743153       132.5155
2013    21      5       0.6620239       131.3866
2013    21      6       0.6861605       134.321
2013    21      7       0.8258878       151.0871
2013    22      0       0.8985898       159.5477
2013    22      1       0.9414333       163.8917
2013    22      2       0.9728892       167.0623
2013    22      3       1.110257        179.6048
2013    22      4       1.225737        188.4021
2013    22      5       0.9805514       167.2226
2013    22      6       0.9981981       169.1963
2013    22      7       1.142579        182.0492
2013    23      0       1.248172        190.0288
2013    23      1       1.244536        189.9896
2013    23      2       1.138954        181.4226
2013    23      3       0.9279677       162.377
2013    23      4       0.8021727       148.6467
2013    23      5       0.846436        153.5214
2013    23      6       1.05759         174.4674
2013    23      7       1.292449        194.2592
2013    24      0       1.329469        196.1852
2013    24      1       1.050579        174.2272
2013    24      2       0.9106582       161.0236
2013    24      3       0.8349374       152.7845
2013    24      4       0.7868409       146.9636
2013    24      5       0.784127        147.0611
2013    24      6       0.852327        155.0578
2013    24      7       0.8799996       158.4231
2013    25      0       0.9049485       161.1554
2013    25      1       0.842703        154.3818
2013    25      2       0.7559151       144.4842
2013    25      3       0.6594434       132.1032
2013    25      4       0.5857587       121.572
2013    25      5       0.6028835       123.7597
2013    25      6       0.5774867       120.1131
2013    25      7       0.5027462       108.9656
2013    26      0       0.3353137       80.45442
2013    26      1       0.2695743       67.66658
2013    26      2       0.2370935       60.96504
2013    26      3       0.2268179       58.60309
2013    26      4       0.1969861       52.37419
2013    26      5       0.1840442       49.48611
2013    26      6       0.1900496       50.72856
2013    26      7       0.1736113       47.0631
2013    27      0       0.1606055       44.06957
2013    27      1       0.14431         40.36339
2013    27      2       0.1247069       35.91124
2013    27      3       0.1155878       33.88799
2013    27      4       0.1160612       33.97493
2013    27      5       0.1236362       35.72979
2013    27      6       0.1612345       43.93494
2013    27      7       0.1545071       42.71319
2013    28      0       0.1426177       40.18074
2013    28      1       0.1412107       39.94609
2013    28      2       0.1215286       35.3665
2013    28      3       0.1139626       33.75299
2013    28      4       0.1155639       33.95873
2013    28      5       0.2271882       58.65054
2013    28      6       0.2851507       70.44733
2013    28      7       0.2714093       67.93864
2013    29      0       0.2215882       57.75939
2013    29      1       0.1667299       45.84097
2013    29      2       0.1678515       46.24499
2013    29      3       0.1294277       37.58828
2013    29      4       0.1076986       32.28839
2013    29      5       0.1063179       31.79068
2013    29      6       0.130843        37.55925
2013    29      7       0.1293251       37.17511
2013    30      0       0.1124344       33.28694
2013    30      1       0.1050663       31.57411
2013    30      2       0.08284401      26.10838
2013    30      3       0.07188033      23.469
2013    30      4       0.07744222      24.94991
2013    30      5       0.2089468       54.76911
2013    30      6       0.4256658       95.66341
2013    30      7       0.4705528       103.2344
2013    31      0       0.4474346       99.73492
2013    31      1       0.5115137       109.6505
2013    31      2       0.6494632       129.5604
2013    31      3       0.7990295       147.8874
2013    31      4       0.9589123       164.2151
2013    31      5       0.8902633       157.3786
2013    31      6       0.7832156       145.57
2013    31      7       0.6318513       126.577
2014    1       0       0.3203223       76.0256
2014    1       1       0.3108411       74.14358
2014    1       2       0.2824601       68.75963
2014    1       3       0.1956511       51.55942
2014    1       4       0.163665        44.32905
2014    1       5       0.2267019       57.95176
2014    1       6       0.2461423       62.14943
2014    1       7       0.2259757       57.96087
2014    2       0       0.1889319       50.18732
2014    2       1       0.172645        46.81859
2014    2       2       0.1845401       49.96337
2014    2       3       0.3521499       83.83441
2014    2       4       0.6292106       128.388
2014    2       5       0.8833292       158.859
2014    2       6       0.9719188       167.7855
2014    2       7       1.082893        178.5136
2014    3       0       1.184645        187.0329
2014    3       1       1.010494        171.927
2014    3       2       0.9659608       167.421
2014    3       3       1.206479        189.3798
2014    3       4       1.24366         191.3891
2014    3       5       1.13139         182.5391
2014    3       6       1.308439        196.5602
2014    3       7       1.517821        209.9299
2014    4       0       1.446728        204.878
2014    4       1       1.36392         199.0308
2014    4       2       1.362719        198.4485
2014    4       3       1.3157          195.6123
2014    4       4       1.238934        190.1374
2014    4       5       1.22532         189.2406
2014    4       6       1.296092        194.7707
2014    4       7       1.310198        196.0891
2014    5       0       1.155439        183.7952
2014    5       1       0.9355015       163.6715
2014    5       2       0.7970655       148.6292
2014    5       3       0.6465742       129.8048
2014    5       4       0.621722        126.2427
2014    5       5       0.7142536       138.288
2014    5       6       0.9178981       161.578
2014    5       7       0.8953864       159.5037
2014    6       0       0.6589502       131.3084
2014    6       1       0.5644567       117.8516
2014    6       2       0.5237092       111.617
2014    6       3       0.556022        116.4213
2014    6       4       0.750605        142.3221
2014    6       5       0.91604         161.1113
2014    6       6       1.006579        170.5621
2014    6       7       1.122782        180.7076
2014    7       0       1.059092        173.8198
2014    7       1       0.9706054       165.9235
2014    7       2       0.9835426       167.2227
2014    7       3       1.072276        174.3185
2014    7       4       1.142672        181.0512
2014    7       5       1.207306        187.2278
2014    7       6       1.211596        187.9991
2014    7       7       1.157373        183.8203
2014    8       0       1.120808        179.895
2014    8       1       0.9613716       164.6899
2014    8       2       0.9343806       161.4997
2014    8       3       1.008801        168.2432
2014    8       4       0.9395377       161.4994
2014    8       5       0.9121208       159.4805
2014    8       6       1.049561        173.5207
2014    8       7       1.07927         175.9724
2014    9       0       0.8356673       150.9936
2014    9       1       0.6769821       131.5434
2014    9       2       0.7016696       134.4909
2014    9       3       0.7335481       138.6351
2014    9       4       0.7091915       136.1973
2014    9       5       0.7752744       144.6669
2014    9       6       0.8496264       153.8112
2014    9       7       0.9141676       161.0951
2014    10      0       0.6733363       132.8023
2014    10      1       0.5649082       117.8281
2014    10      2       0.4895264       106.4126
2014    10      3       0.4111335       93.67174
2014    10      4       0.3663005       85.97704
2014    10      5       0.432734        97.69063
2014    10      6       0.5826081       121.246
2014    10      7       0.6310539       127.852
2014    11      0       0.4556698       101.5008
2014    11      1       0.405098        92.97805
2014    11      2       0.3961726       91.51092
2014    11      3       0.4645157       103.0046
2014    11      4       0.4579004       101.9361
2014    11      5       0.6226583       126.6697
2014    11      6       0.5750431       120.2451
2014    11      7       0.4894974       107.0547
2014    12      0       0.3267665       78.63301
2014    12      1       0.2863201       71.04705
2014    12      2       0.3290603       79.25626
2014    12      3       0.394533        90.84663
2014    12      4       0.4924852       107.3746
2014    12      5       0.8176119       151.2656
2014    12      6       0.6825649       134.989
2014    12      7       0.4659788       103.4135
2014    13      0       0.3340933       80.4562
2014    13      1       0.3533801       84.10555
2014    13      2       0.4134597       94.71794
2014    13      3       0.5579042       117.6925
2014    13      4       0.7688491       145.9092
2014    13      5       0.8013673       149.6097
2014    13      6       0.4627969       102.8348
2014    13      7       0.3413955       81.66641
2014    14      0       0.3083666       75.58054
2014    14      1       0.3126482       76.44661
2014    14      2       0.3367076       80.93876
2014    14      3       0.3609218       85.26277
2014    14      4       0.5202175       111.228
2014    14      5       0.6991296       135.5331
2014    14      6       0.7161016       137.6678
2014    14      7       0.5132672       110.2871
2014    15      0       0.2449694       62.92794
2014    15      1       0.1878254       50.85181
2014    15      2       0.2369644       61.03935
2014    15      3       0.3025457       73.4624
2014    15      4       0.3402574       80.59625
2014    15      5       0.3946088       90.48311
2014    15      6       0.4989428       107.7466
2014    15      7       0.4999585       108.1005
2014    16      0       0.4530025       100.3542
2014    16      1       0.4132275       93.88663
2014    16      2       0.42329         95.34016
2014    16      3       0.3916955       89.52803
2014    16      4       0.3081898       74.6365
2014    16      5       0.2595455       65.45932
2014    16      6       0.3187382       76.85096
2014    16      7       0.3244001       78.03195
2014    17      0       0.2687051       67.4122
2014    17      1       0.1983177       52.97868
2014    17      2       0.1565222       43.84489
2014    17      3       0.1381728       39.72576
2014    17      4       0.1518452       42.70695
2014    17      5       0.2233754       58.02424
2014    17      6       0.3608453       84.66227
2014    17      7       0.5049823       109.1964
2014    18      0       0.7534893       143.2504
2014    18      1       0.9575692       165.8181
2014    18      2       1.154646        182.5676
2014    18      3       1.197517        185.2481
2014    18      4       1.11382         178.8132
2014    18      5       1.022054        171.0708
2014    18      6       1.033387        172.1258
2014    18      7       1.048903        174.1781
2014    19      0       0.9929567       169.2329
2014    19      1       0.8068177       149.7723
2014    19      2       0.7085644       137.6385
2014    19      3       0.722791        138.9318
2014    19      4       0.6785256       133.0932
2014    19      5       0.6893336       135.0028
2014    19      6       0.7927592       147.8828
2014    19      7       0.9001609       160.0472
2014    20      0       0.9652165       166.6891
2014    20      1       0.9222287       162.6476
2014    20      2       0.9991785       169.9994
2014    20      3       1.202194        186.0019
2014    20      4       1.11673         178.7156
2014    20      5       1.130575        179.4151
2014    20      6       0.9942725       167.7324
2014    20      7       0.8300306       151.2366
2014    21      0       0.7148086       137.2917
2014    21      1       0.707473        135.7544
2014    21      2       0.6810943       132.1224
2014    21      3       0.5362955       112.0973
2014    21      4       0.4919867       105.4748
2014    21      5       0.495026        105.9206
2014    21      6       0.4913591       105.7089
2014    21      7       0.4716313       103.0618
2014    22      0       0.4731122       103.1256
2014    22      1       0.4846628       104.8342
2014    22      2       0.4529212       100.0293
2014    22      3       0.4246707       95.23877
2014    22      4       0.4133135       93.49223
2014    22      5       0.3987889       91.04135
2014    22      6       0.3412536       80.85604
2014    22      7       0.2719667       67.88426
2014    23      0       0.3008207       73.49524
2014    23      1       0.2863195       70.66958
2014    23      2       0.2285398       59.26013
2014    23      3       0.1901144       51.20585
2014    23      4       0.2024103       53.91931
2014    23      5       0.2488601       63.72393
2014    23      6       0.2818611       70.23949
2014    23      7       0.196096        52.7469
2014    24      0       0.1168969       35.00178
2014    24      1       0.098481        30.4556
2014    24      2       0.07978128      26.09218
2014    24      3       0.07092755      23.93472
2014    24      4       0.0494673       18.53194
2014    24      5       0.05596912      20.31569
2014    24      6       0.0815037       26.82765
2014    24      7       0.08575961      27.99051
2014    25      0       0.0603052       21.55908
2014    25      1       0.04566081      17.67843
2014    25      2       0.04299785      16.92656
2014    25      3       0.04300119      16.89676
2014    25      4       0.04295169      16.90018
2014    25      5       0.04747757      18.11816
2014    25      6       0.06666958      23.02053
2014    25      7       0.1280269       37.73885
2014    26      0       0.1463352       42.00235
2014    26      1       0.1338263       39.27609
2014    26      2       0.1414436       41.02912
2014    26      3       0.1347538       39.45176
2014    26      4       0.1318538       38.80059
2014    26      5       0.223999        59.09027
2014    26      6       0.4124199       95.00358
2014    26      7       0.5934863       123.8329
2014    27      0       0.754074        144.9812
2014    27      1       0.6495851       131.7001
2014    27      2       0.5937581       123.6819
2014    27      3       0.4912143       107.9299
2014    27      4       0.3715856       87.79686
2014    27      5       0.4051085       93.78452
2014    27      6       0.6733686       134.6724
2014    27      7       0.7824482       148.1652
2014    28      0       0.9647616       167.8525
2014    28      1       0.8901152       160.2197
2014    28      2       0.6805227       135.1773
2014    28      3       0.7027149       137.9805
2014    28      4       0.7328395       141.9017
2014    28      5       0.8631507       157.5412
2014    28      6       1.113112        181.7113
2014    28      7       1.272949        193.6273
2014    29      0       1.183756        186.3108
2014    29      1       0.986949        169.0614
2014    29      2       0.8376032       153.9867
2014    29      3       0.6533114       131.6999
2014    29      4       0.5102226       111.0528
2014    29      5       0.4299088       97.9069
2014    29      6       0.456578        102.4117
2014    29      7       0.5937751       123.6286
2014    30      0       0.7290345       141.4343
2014    30      1       0.6921165       136.7807
2014    30      2       0.5833282       121.9711
2014    30      3       0.3128461       76.7767
2014    30      4       0.1859333       50.91744
2014    30      5       0.1853883       50.75042
2014    30      6       0.2089453       55.76607
2014    30      7       0.2089525       55.70826
2014    31      0       0.2470693       63.78276
2014    31      1       0.1832416       50.19879
2014    31      2       0.1492953       42.63253
2014    31      3       0.1487792       42.5119
2014    31      4       0.1669803       46.48366
2014    31      5       0.220183        58.17298
2014    31      6       0.3891158       91.01207
2014    31      7       0.5350744       115.022
2015    1       0       0.9265931       162.9426
2015    1       1       0.8373369       153.2708
2015    1       2       0.7655559       144.8434
2015    1       3       0.6789492       134.1152
2015    1       4       0.643985        129.7385
2015    1       5       0.7954409       149.0247
2015    1       6       0.9608961       167.5488
2015    1       7       1.160143        185.0706
2015    2       0       0.8684914       156.7936
2015    2       1       0.4281428       96.4945
2015    2       2       0.3027765       74.27611
2015    2       3       0.2694134       67.78401
2015    2       4       0.2492          63.6385
2015    2       5       0.2872785       71.14782
2015    2       6       0.326259        78.75344
2015    2       7       0.3539804       83.92279
2015    3       0       0.2321155       60.09052
2015    3       1       0.2156111       56.5475
2015    3       2       0.2222567       57.91035
2015    3       3       0.2016081       53.51483
2015    3       4       0.1894689       50.91808
2015    3       5       0.2433269       62.27987
2015    3       6       0.3224438       77.71698
2015    3       7       0.3401414       81.18686
2015    4       0       0.2906027       71.738
2015    4       1       0.2776989       69.16078
2015    4       2       0.2668168       67.00485
2015    4       3       0.2525881       63.93161
2015    4       4       0.290434        71.33421
2015    4       5       0.2738374       68.1496
2015    4       6       0.2718592       67.9538
2015    4       7       0.2971908       72.99922
2015    5       0       0.2782908       69.32212
2015    5       1       0.2604417       65.78159
2015    5       2       0.2672056       67.0985
2015    5       3       0.2790822       69.25996
2015    5       4       0.2867093       70.83882
2015    5       5       0.5722924       118.2906
2015    5       6       0.9461827       163.0915
2015    5       7       1.209314        187.363
2015    6       0       1.320058        195.482
2015    6       1       1.263301        191.4066
2015    6       2       1.075176        177.1877
2015    6       3       1.12407         181.5063
2015    6       4       0.9841614       169.1719
2015    6       5       1.078499        177.5976
2015    6       6       1.175699        186.2954
2015    6       7       1.337968        198.253
2015    7       0       1.460191        205.806
2015    7       1       1.397013        202.1145
2015    7       2       1.245911        191.6399
2015    7       3       1.215479        188.9731
2015    7       4       0.9662053       167.3998
2015    7       5       0.8412471       154.3355
2015    7       6       0.8915814       159.8809
2015    7       7       1.028667        173.5885
2015    8       0       1.156017        184.6743
2015    8       1       1.203433        188.3221
2015    8       2       1.101621        179.9931
2015    8       3       1.053388        176.3533
2015    8       4       1.232827        190.5487
2015    8       5       1.137658        182.7355
2015    8       6       0.9873978       169.5909
2015    8       7       0.8971098       160.4211
2015    9       0       0.6494306       130.8466
2015    9       1       0.6496391       130.2916
2015    9       2       0.6871591       135.1676
2015    9       3       0.723085        139.7662
2015    9       4       0.7947644       148.2267
2015    9       5       0.7642054       144.5528
2015    9       6       0.6629085       131.9662
2015    9       7       0.6608646       131.7696
2015    10      0       0.3902777       90.42792
2015    10      1       0.3246761       78.45464
2015    10      2       0.3943252       90.95434
2015    10      3       0.4855355       105.8828
2015    10      4       0.5287307       112.5195
2015    10      5       0.686311        134.5747
2015    10      6       0.895331        159.2347
2015    10      7       1.02082         171.9333
2015    11      0       1.12347         180.8028
2015    11      1       1.273844        191.9242
2015    11      2       0.9267912       162.1329
2015    11      3       0.8857753       158.6326
2015    11      4       0.8654166       156.8689
2015    11      5       0.9451736       165.2974
2015    11      6       1.184121        186.8579
2015    11      7       0.9295091       163.591
2015    12      0       0.6949257       136.5961
2015    12      1       0.6214845       126.9296
2015    12      2       0.7117709       138.7275
2015    12      3       0.8516277       155.0984
2015    12      4       0.9055744       160.873
2015    12      5       1.122862        180.8402
2015    12      6       1.16767         184.6407
2015    12      7       1.12025         181.2806
2015    13      0       1.16078         184.0076
2015    13      1       0.8500528       154.6929
2015    13      2       0.6457507       129.4302
2015    13      3       0.5507923       115.7839
2015    13      4       0.430064        96.6267
2015    13      5       0.44105         98.3596
2015    13      6       0.5316321       112.5966
2015    13      7       0.5613343       117.1965
2015    14      0       0.3931229       90.2815
2015    14      1       0.3778667       87.50168
2015    14      2       0.4027177       91.75106
2015    14      3       0.4213335       94.92359
2015    14      4       0.3979152       90.87708
2015    14      5       0.4347992       97.0109
2015    14      6       0.5010308       107.4279
2015    14      7       0.4487916       99.11129
2015    15      0       0.3551521       82.8575
2015    15      1       0.2979678       72.20524
2015    15      2       0.2841688       69.46551
2015    15      3       0.3256828       76.51628
2015    15      4       0.3844451       85.88313
2015    15      5       0.4817051       101.9438
2015    15      6       0.4870308       103.4073
2015    15      7       0.4485415       97.45055
2015    16      0       0.5271075       109.0381
2015    16      1       0.6901372       131.5757
2015    16      2       0.5889407       118.4117
2015    16      3       0.4369514       96.38332
2015    16      4       0.5409931       111.2144
2015    16      5       0.5084363       106.5861
2015    16      6       0.5109982       107.2105
2015    16      7       0.5429546       112.1029
2015    17      0       0.4316488       94.99573
2015    17      1       0.41929         93.32275
2015    17      2       0.4063399       91.16241
2015    17      3       0.5589458       114.4094
2015    17      4       0.5621023       114.7442
2015    17      5       0.5382771       111.451
2015    17      6       0.563842        115.2573
2015    17      7       0.5702816       117.0517
2015    18      0       0.4788475       103.9304
2015    18      1       0.4664414       101.9561
2015    18      2       0.5530085       114.6643
2015    18      3       0.6074708       121.8515
2015    18      4       0.6818078       131.3084
2015    18      5       0.7959196       145.2454
2015    18      6       0.9045435       157.8814
2015    18      7       0.9638048       164.4654
2015    19      0       0.9825874       166.1187
2015    19      1       0.9644577       164.661
2015    19      2       1.097927        177.0241
2015    19      3       1.036603        171.9674
2015    19      4       0.9146923       160.3071
2015    19      5       0.941256        163.0831
2015    19      6       1.098778        177.9508
2015    19      7       1.259335        191.2463
2015    20      0       1.271716        190.887
2015    20      1       1.181832        183.764
2015    20      2       1.159197        182.255
2015    20      3       1.168124        183.1898
2015    20      4       1.051679        173.6875
2015    20      5       0.8190488       150.0791
2015    20      6       0.9287154       161.8503
2015    20      7       0.9132583       160.6694
2015    21      0       0.7280848       139.096
2015    21      1       0.5349712       112.3833
2015    21      2       0.523137        110.662
2015    21      3       0.5619884       116.4834
2015    21      4       0.593857        120.7469
2015    21      5       0.6623456       129.8916
2015    21      6       0.6622206       129.9215
2015    21      7       0.4834861       104.1191
2015    22      0       0.2324839       59.22302
2015    22      1       0.1320629       37.96067
2015    22      2       0.1218964       35.88944
2015    22      3       0.1061754       32.30698
2015    22      4       0.1161691       34.49434
2015    22      5       0.1232681       36.24052
2015    22      6       0.1140088       34.25925
2015    22      7       0.1372995       39.59255
2015    23      0       0.1382273       39.75858
2015    23      1       0.1482402       41.83354
2015    23      2       0.1706719       46.56178
2015    23      3       0.1963124       51.70097
2015    23      4       0.2197474       56.49224
2015    23      5       0.2160791       55.86411
2015    23      6       0.2452604       62.13656
2015    23      7       0.2887268       70.25794
2015    24      0       0.2497351       62.66242
2015    24      1       0.2249069       57.35434
2015    24      2       0.2822502       67.93868
2015    24      3       0.353281        81.31087
2015    24      4       0.709405        135.9803
2015    24      5       0.9378898       163.0555
2015    24      6       1.108846        178.8219
2015    24      7       1.073359        175.8125
2015    25      0       1.118708        179.1361
2015    25      1       1.131995        180.1874
2015    25      2       1.197916        185.3704
2015    25      3       1.259389        190.2442
2015    25      4       1.234726        188.148
2015    25      5       1.092196        177.5111
2015    25      6       1.074735        175.6714
2015    25      7       1.147403        181.1557
2015    26      0       1.117464        178.7373
2015    26      1       1.038862        172.0365
2015    26      2       1.007659        169.2896
2015    26      3       0.8713153       156.0185
2015    26      4       0.5563963       116.3501
2015    26      5       0.5532738       116.2158
2015    26      6       0.5219801       111.7184
2015    26      7       0.3942115       91.02411
2015    27      0       0.3373214       80.91492
2015    27      1       0.282397        70.51146
2015    27      2       0.264677        67.08197
2015    27      3       0.2246221       59.0221
2015    27      4       0.2545818       65.17947
2015    27      5       0.4172059       95.27863
2015    27      6       0.4780144       105.168
2015    27      7       0.4403563       99.12822
2015    28      0       0.3101485       76.20921
2015    28      1       0.2752705       69.55668
2015    28      2       0.4293606       97.39457
2015    28      3       0.6823069       133.9639
2015    28      4       0.9178535       161.5556
2015    28      5       1.238341        190.1605
2015    28      6       1.28742         193.9157
2015    28      7       1.246934        190.8321
2015    29      0       1.192744        187.0388
2015    29      1       0.9901959       169.6821
2015    29      2       0.751754        143.7893
2015    29      3       0.6348516       128.6819
2015    29      4       0.863           156.5841
2015    29      5       1.283555        193.4634
2015    29      6       1.254519        191.6118
2015    29      7       1.271645        193.2843
2015    30      0       1.253461        190.9502
2015    30      1       1.030296        172.0941
2015    30      2       0.9725552       166.2806
2015    30      3       0.9511383       163.5878
2015    30      4       0.7612154       143.6324
2015    30      5       0.4936597       107.3623
2015    30      6       0.5314783       113.279
2015    30      7       0.6666866       132.316
2015    31      0       0.8062088       148.9048
2015    31      1       0.9231113       160.7856
2015    31      2       0.7746127       144.0442
2015    31      3       0.65061         128.1227
2015    31      4       0.7096024       135.5428
2015    31      5       0.6918899       133.7627
2015    31      6       0.6405617       127.9175
2015    31      7       0.6151653       124.4528
2016    1       0       0.9679637       166.6548
2016    1       1       0.9335291       163.0795
2016    1       2       0.8527937       154.7608
2016    1       3       0.8066999       149.4075
2016    1       4       0.6720627       132.835
2016    1       5       0.6477037       129.7535
2016    1       6       0.7625229       144.4436
2016    1       7       0.9082117       161.7251
2016    2       0       1.011407        171.6023
2016    2       1       1.022212        171.472
2016    2       2       0.8509094       153.7063
2016    2       3       0.6340857       127.4692
2016    2       4       0.5128403       110.0524
2016    2       5       0.5502121       115.846
2016    2       6       0.6836075       134.631
2016    2       7       0.8510514       155.1575
2016    3       0       0.8280606       152.5586
2016    3       1       0.7343755       141.9083
2016    3       2       0.6988209       137.5345
2016    3       3       0.7171253       139.3867
2016    3       4       0.6205752       126.1521
2016    3       5       0.4717496       103.7178
2016    3       6       0.4589208       101.7755
2016    3       7       0.6193658       126.3596
2016    4       0       0.5553135       117.4273
2016    4       1       0.4931227       108.024
2016    4       2       0.4794944       105.6834
2016    4       3       0.4445948       99.77487
2016    4       4       0.3726124       87.17195
2016    4       5       0.3648003       85.76243
2016    4       6       0.482875        105.5596
2016    4       7       0.5358713       114.1872
2016    5       0       0.4977296       108.3134
2016    5       1       0.4649009       103.0319
2016    5       2       0.4285095       96.80575
2016    5       3       0.3789745       87.67752
2016    5       4       0.2909119       71.45807
2016    5       5       0.3663425       85.74008
2016    5       6       0.4594649       101.768
2016    5       7       0.5822309       121.0312
2016    6       0       0.5678869       119.0062
2016    6       1       0.5857604       121.4786
2016    6       2       0.5899707       121.9015
2016    6       3       0.5604196       117.7185
2016    6       4       0.5303993       113.2379
2016    6       5       0.7653559       144.1515
2016    6       6       1.004031        169.7303
2016    6       7       0.9799748       167.8021
2016    7       0       0.6826643       134.8392
2016    7       1       0.5342393       114.0948
2016    7       2       0.4483783       100.611
2016    7       3       0.3604141       84.92108
2016    7       4       0.2713761       68.37026
2016    7       5       0.3270209       79.16901
2016    7       6       0.3030379       74.87753
2016    7       7       0.3422985       82.02088
2016    8       0       0.3049786       75.26169
2016    8       1       0.3881045       91.0249
2016    8       2       0.596326        124.6559
2016    8       3       0.4420397       100.2296
2016    8       4       0.3245626       78.96879
2016    8       5       0.2449024       63.09452
2016    8       6       0.2296376       59.80699
2016    8       7       0.212214        56.24169
2016    9       0       0.2483741       63.64145
2016    9       1       0.276718        69.42312
2016    9       2       0.2308732       60.06636
2016    9       3       0.2737237       68.95848
2016    9       4       0.2832584       70.57837
2016    9       5       0.2795033       69.7912
2016    9       6       0.3899438       90.50142
2016    9       7       0.4863915       106.7048
2016    10      0       0.3627385       85.50667
2016    10      1       0.3230929       78.28372
2016    10      2       0.2514216       64.45578
2016    10      3       0.2391431       61.91218
2016    10      4       0.2545565       64.99983
2016    10      5       0.257124        65.59188
2016    10      6       0.2569918       65.97067
2016    10      7       0.3912521       91.05907
2016    11      0       0.3025267       75.16332
2016    11      1       0.4360527       98.82944
2016    11      2       0.5297847       113.9321
2016    11      3       0.4144988       95.0071
2016    11      4       0.2287247       59.72998
2016    11      5       0.1995776       53.38119
2016    11      6       0.2316433       60.08975
2016    11      7       0.2919632       72.26546
2016    12      0       0.3654006       86.46198
2016    12      1       0.4661157       103.8492
2016    12      2       0.7935503       149.3794
2016    12      3       1.405347        202.4723
2016    12      4       1.392124        200.3411
2016    12      5       1.015332        171.2169
2016    12      6       1.058948        175.7885
2016    12      7       1.058149        176.3466
2016    13      0       1.00221         171.2931
2016    13      1       0.9170882       162.9192
2016    13      2       0.8358263       153.9222
2016    13      3       1.110046        181.3468
2016    13      4       0.9998184       169.5417
2016    13      5       0.6767545       134.2312
2016    13      6       0.8064043       150.3403
2016    13      7       1.053384        175.8105
2016    14      0       1.270418        192.7817
2016    14      1       1.224268        188.5819
2016    14      2       1.14364         180.5509
2016    14      3       1.03455         170.7695
2016    14      4       0.9953789       167.5255
2016    14      5       0.9552758       164.5226
2016    14      6       0.9835258       168.0888
2016    14      7       0.9867948       168.8434
2016    15      0       1.063382        174.9832
2016    15      1       1.035761        171.859
2016    15      2       1.082487        175.2221
2016    15      3       1.087373        175.7846
2016    15      4       0.7977514       147.9186
2016    15      5       0.7190356       139.0041
2016    15      6       0.7681686       145.0952
2016    15      7       0.8186515       150.9
2016    16      0       0.8499812       154.3978
2016    16      1       0.7406557       142.1285
2016    16      2       0.6346888       128.0959
2016    16      3       0.5613498       117.474
2016    16      4       0.5094684       109.6748
2016    16      5       0.5815487       120.397
2016    16      6       0.8292553       151.8977
2016    16      7       1.020135        171.2804
2016    17      0       1.189199        185.6519
2016    17      1       1.056353        174.2118
2016    17      2       1.006113        169.3956
2016    17      3       0.8790053       156.6869
2016    17      4       0.7200043       138.5118
2016    17      5       0.7635912       143.8934
2016    17      6       0.6266602       126.9375
2016    17      7       0.5174394       111.5883
2016    18      0       0.4772737       105.1458
2016    18      1       0.4454969       99.91253
2016    18      2       0.399911        92.15039
2016    18      3       0.3054944       74.76256
2016    18      4       0.1768983       48.5596
2016    18      5       0.1564716       44.05476
2016    18      6       0.1815685       49.55412
2016    18      7       0.1333703       38.75263
2016    19      0       0.1030607       31.53979
2016    19      1       0.1047574       31.95581
2016    19      2       0.1116223       33.48974
2016    19      3       0.1264813       36.82995
2016    19      4       0.1168015       34.67746
2016    19      5       0.2097709       55.36306
2016    19      6       0.3446686       81.67287
2016    19      7       0.3818791       88.44986
2016    20      0       0.2001613       53.37801
2016    20      1       0.148485        42.11759
2016    20      2       0.125466        36.84497
2016    20      3       0.1278523       37.36592
2016    20      4       0.2271479       59.11596
2016    20      5       0.4067051       93.09814
2016    20      6       0.6450471       129.6863
2016    20      7       0.8567212       155.6074
2016    21      0       0.8623293       155.4841
2016    21      1       0.855155        154.5405
2016    21      2       0.7254363       139.4595
2016    21      3       0.6627588       130.578
2016    21      4       0.6111542       123.8121
2016    21      5       0.7716923       145.0558
2016    21      6       0.8528677       154.9008
2016    21      7       0.9273391       162.9689
2016    22      0       0.8435572       153.2682
2016    22      1       0.8116463       149.7009
2016    22      2       0.9569258       164.908
2016    22      3       1.025852        170.7627
2016    22      4       1.066497        174.0778
2016    22      5       1.102172        177.6521
2016    22      6       1.220516        188.2338
2016    22      7       1.35322         197.9975
2016    23      0       1.103827        178.8639
2016    23      1       0.9664957       166.2471
2016    23      2       1.043668        172.912
2016    23      3       1.066617        174.6975
2016    23      4       1.152547        181.4135
2016    23      5       1.268812        191.1637
2016    23      6       1.352883        197.9269
2016    23      7       1.327327        196.9712
2016    24      0       1.389456        200.0174
2016    24      1       1.309458        194.2326
2016    24      2       1.258856        190.275
2016    24      3       1.246985        189.6026
2016    24      4       1.187987        185.5525
2016    24      5       1.195808        186.5515
2016    24      6       1.162586        184.3409
2016    24      7       1.066007        176.3653
2016    25      0       0.8796079       157.9863
2016    25      1       0.7299994       140.2904
2016    25      2       0.5845724       120.6428
2016    25      3       0.5118787       109.6481
2016    25      4       0.4171217       94.43444
2016    25      5       0.486647        106.0856
2016    25      6       0.6102347       124.296
2016    25      7       0.4663618       102.7855
2016    26      0       0.4736178       103.8644
2016    26      1       0.4099237       93.33562
2016    26      2       0.2548067       64.71697
2016    26      3       0.2294798       59.39737
2016    26      4       0.1625983       45.18703
2016    26      5       0.1189944       35.46209
2016    26      6       0.1181209       35.30821
2016    26      7       0.09097972      28.63597
2016    27      0       0.07798617      25.39559
2016    27      1       0.08518568      26.96043
2016    27      2       0.1014689       30.73555
2016    27      3       0.1111914       33.00461
2016    27      4       0.1396739       39.49701
2016    27      5       0.2839819       70.06666
2016    27      6       0.4125334       93.64764
2016    27      7       0.3801915       87.9017
2016    28      0       0.3129796       75.84801
2016    28      1       0.311182        75.29912
2016    28      2       0.1884536       50.38107
2016    28      3       0.1714907       46.91297
2016    28      4       0.1712981       46.80446
2016    28      5       0.2565081       64.76208
2016    28      6       0.3462388       82.10205
2016    28      7       0.3913236       90.30434
2016    29      0       0.3472042       82.60033
2016    29      1       0.3015723       74.0235
2016    29      2       0.2360255       61.05229
2016    29      3       0.1930252       51.89718
2016    29      4       0.1652106       45.78779
2016    29      5       0.4160585       94.62593
2016    29      6       0.4968315       107.8003
2016    29      7       0.5271467       112.6325
2016    30      0       0.4350407       97.78596
2016    30      1       0.2902129       71.44853
2016    30      2       0.1434896       40.60446
2016    30      3       0.09786437      29.83323
2016    30      4       0.09819648      29.9418
2016    30      5       0.109396        32.5751
2016    30      6       0.1348505       38.54368
2016    30      7       0.1582302       43.96755
2016    31      0       0.174931        47.67512
2016    31      1       0.197163        52.57345
2016    31      2       0.2873598       71.05161
2016    31      3       0.1547716       43.46238
2016    31      4       0.09001613      28.22769
2016    31      5       0.1038377       31.54492
2016    31      6       0.1402564       40.11384
2016    31      7       0.1097776       32.96032
2017    1       0       1.088097        178.5585
2017    1       1       0.9796552       168.6072
2017    1       2       0.9027698       160.6651
2017    1       3       0.8195898       151.37
2017    1       4       0.6994644       136.9984
2017    1       5       0.6509479       130.6054
2017    1       6       0.7322694       141.1415
2017    1       7       0.8783921       157.6709
2017    2       0       0.9484649       164.9279
2017    2       1       0.9876115       168.6268
2017    2       2       0.9923733       168.5679
2017    2       3       0.8896285       158.134
2017    2       4       0.7214207       139.0172
2017    2       5       0.7014745       136.7561
2017    2       6       0.7717764       145.5737
2017    2       7       0.9506932       164.9999
2017    3       0       0.8380346       153.3114
2017    3       1       0.655827        131.3481
2017    3       2       0.5617963       118.1399
2017    3       3       0.4815563       105.7692
2017    3       4       0.403431        92.86891
2017    3       5       0.434078        98.27605
2017    3       6       0.517335        111.8788
2017    3       7       0.7287704       141.1438
2017    4       0       0.8316826       153.3224
2017    4       1       0.7147175       139.6148
2017    4       2       0.6741396       134.1652
2017    4       3       0.6446171       129.9023
2017    4       4       0.6997995       136.9259
2017    4       5       0.9106287       160.9979
2017    4       6       0.9554808       165.4645
2017    4       7       0.9962249       169.2462
2017    5       0       1.003107        169.8438
2017    5       1       1.028555        171.644
2017    5       2       1.126787        179.6605
2017    5       3       1.221846        186.7791
2017    5       4       1.277457        191.0267
2017    5       5       1.149462        181.8832
2017    5       6       1.100205        177.9757
2017    5       7       1.001202        169.9521
2017    6       0       0.9759176       167.4059
2017    6       1       1.009015        170.0664
2017    6       2       1.078894        175.8605
2017    6       3       1.148371        181.166
2017    6       4       1.175947        184.0491
2017    6       5       1.157664        183.8275
2017    6       6       1.165858        184.9358
2017    6       7       1.038911        174.3633
2017    7       0       1.041276        174.5005
2017    7       1       0.8462569       154.804
2017    7       2       0.9151964       161.721
2017    7       3       0.8675601       156.8094
2017    7       4       0.826515        152.3505
2017    7       5       0.8841919       158.7724
2017    7       6       0.8712018       157.6949
2017    7       7       0.7885762       148.5596
2017    8       0       0.6852397       135.8004
2017    8       1       0.5976946       123.7008
2017    8       2       0.6261056       127.357
2017    8       3       0.6502204       130.1668
2017    8       4       0.6869124       134.7728
2017    8       5       0.7269976       139.9563
2017    8       6       0.7557541       143.723
2017    8       7       0.729487        140.7019
2017    9       0       0.6517052       130.7179
2017    9       1       0.6106931       125.0607
2017    9       2       0.7242767       140.0098
2017    9       3       0.8901831       157.8515
2017    9       4       1.08064         174.9362
2017    9       5       0.9853078       166.9913
2017    9       6       1.037728        172.8774
2017    9       7       1.132314        181.2809
2017    10      0       1.119199        180.6214
2017    10      1       1.092602        178.5384
2017    10      2       1.006539        170.7325
2017    10      3       0.775761        145.601
2017    10      4       0.6772358       132.7012
2017    10      5       0.8841295       156.7862
2017    10      6       1.141954        181.2871
2017    10      7       1.062024        175.4091
2017    11      0       0.8725825       156.9084
2017    11      1       0.7834582       146.5825
2017    11      2       0.7348967       140.5622
2017    11      3       0.636673        128.4597
2017    11      4       0.8926632       159.5973
2017    11      5       0.9982531       169.8442
2017    11      6       1.009346        171.1672
2017    11      7       0.8978781       160.4069
2017    12      0       0.8029068       149.7435
2017    12      1       0.5880247       122.0659
2017    12      2       0.5199758       112.1178
2017    12      3       0.4051107       93.25657
2017    12      4       0.3362557       80.99019
2017    12      5       0.3933643       91.59173
2017    12      6       0.5297941       113.9245
2017    12      7       0.5774751       121.5558
2017    13      0       0.530298        114.4789
2017    13      1       0.5324732       114.69
2017    13      2       0.5432859       116.304
2017    13      3       0.8209184       152.5625
2017    13      4       0.95389         165.9806
2017    13      5       0.9722732       167.5852
2017    13      6       1.075101        177.2724
2017    13      7       1.000041        170.6261
2017    14      0       0.6716614       134.3326
2017    14      1       0.4045449       93.94109
2017    14      2       0.2878801       72.06009
2017    14      3       0.1898062       51.65266
2017    14      4       0.1881766       51.22346
2017    14      5       0.3178775       77.64417
2017    14      6       0.7355304       142.1738
2017    14      7       1.123071        182.039
2017    15      0       1.123798        182.047
2017    15      1       1.023166        173.1135
2017    15      2       0.8168002       151.8934
2017    15      3       0.7504825       143.5984
2017    15      4       0.7804809       147.0246
2017    15      5       0.9322637       163.9373
2017    15      6       1.151238        183.8456
2017    15      7       1.354293        198.118
2017    16      0       1.165131        183.9898
2017    16      1       0.9678445       166.9845
2017    16      2       0.8948562       159.3926
2017    16      3       0.9389619       163.2049
2017    16      4       0.9469821       163.9181
2017    16      5       0.9810112       167.5825
2017    16      6       1.063667        175.7147
2017    16      7       1.099849        178.7998
2017    17      0       1.063123        175.6469
2017    17      1       1.135285        181.5457
2017    17      2       1.083614        177.0408
2017    17      3       0.8991888       159.4142
2017    17      4       0.6720617       132.923
2017    17      5       0.6135204       124.9135
2017    17      6       0.6634375       131.3798
2017    17      7       0.6872165       134.4901
2017    18      0       0.574107        118.8166
2017    18      1       0.3738874       86.48104
2017    18      2       0.3195083       76.59752
2017    18      3       0.2792936       68.81113
2017    18      4       0.291228        71.21731
2017    18      5       0.3149029       75.82745
2017    18      6       0.3329952       79.26289
2017    18      7       0.3588332       84.06304
2017    19      0       0.3370878       80.15658
2017    19      1       0.3086023       74.75685
2017    19      2       0.2702161       67.2834
2017    19      3       0.2245226       57.93857
2017    19      4       0.1924323       51.20837
2017    19      5       0.2742383       67.96341
2017    19      6       0.3143903       75.64087
2017    19      7       0.2787291       68.82385
2017    20      0       0.2453668       61.83227
2017    20      1       0.2406404       60.7576
2017    20      2       0.2660896       65.70548
2017    20      3       0.3431697       79.97364
2017    20      4       0.4166227       92.20829
2017    20      5       0.4113255       91.56965
2017    20      6       0.4014342       90.32443
2017    20      7       0.4233841       93.8145
2017    21      0       0.5072621       107.0582
2017    21      1       0.6019856       120.9259
2017    21      2       0.6895007       132.4083
2017    21      3       0.7825735       143.7873
2017    21      4       0.8986379       157.2231
2017    21      5       1.097566        176.6818
2017    21      6       1.187769        184.5243
2017    21      7       1.225729        188.5246
2017    22      0       1.148852        182.5412
2017    22      1       1.037131        173.3309
2017    22      2       1.001746        169.8317
2017    22      3       0.9112623       160.6045
2017    22      4       0.8276635       151.3808
2017    22      5       0.9170017       161.0378
2017    22      6       0.9919862       168.8648
2017    22      7       0.9839474       167.7561
2017    23      0       0.811259        149.9611
2017    23      1       0.8853101       158.4256
2017    23      2       0.98507         168.2465
2017    23      3       0.886215        158.1205
2017    23      4       0.9709683       166.8697
2017    23      5       0.9256083       162.532
2017    23      6       0.9756932       167.1087
2017    23      7       1.126003        180.7097
2017    24      0       1.027731        171.7231
2017    24      1       1.005352        169.6633
2017    24      2       0.8388954       152.9588
2017    24      3       0.5399148       114.5854
2017    24      4       0.431114        97.34732
2017    24      5       0.4748964       104.3529
2017    24      6       0.6002256       123.0693
2017    24      7       0.5463014       115.2453
2017    25      0       0.4260308       96.02137
2017    25      1       0.3877412       89.38376
2017    25      2       0.4944514       107.1183
2017    25      3       0.6874488       135.2626
2017    25      4       0.8226811       151.9028
2017    25      5       0.8540835       155.1789
2017    25      6       0.9611184       166.1145
2017    25      7       1.00443         170.0291
2017    26      0       0.9270813       162.1274
2017    26      1       1.018976        170.2729
2017    26      2       1.08474         175.9843
2017    26      3       1.025383        171.4586
2017    26      4       0.8025511       148.8059
2017    26      5       0.6785294       133.6349
2017    26      6       0.6243242       126.3558
2017    26      7       0.6151841       124.8977
2017    27      0       0.5369974       113.5807
2017    27      1       0.5375081       113.7703
2017    27      2       0.6409581       128.5848
2017    27      3       0.8962018       159.4008
2017    27      4       1.07797         176.6498
2017    27      5       1.307646        194.5885
2017    27      6       1.264825        192.5204
2017    27      7       1.343447        197.7032
2017    28      0       1.404837        200.605
2017    28      1       1.364446        197.7522
2017    28      2       1.356894        197.586
2017    28      3       1.336405        196.4379
2017    28      4       1.084132        177.6635
2017    28      5       1.038507        173.9471
2017    28      6       1.098755        179.1511
2017    28      7       1.198048        187.7459
2017    29      0       1.399231        202.1406
2017    29      1       1.266356        192.9361
2017    29      2       1.088631        178.7012
2017    29      3       1.092237        178.1807
2017    29      4       0.9706938       166.7686
2017    29      5       1.065702        175.5422
2017    29      6       1.17016         184.5106
2017    29      7       1.258452        191.9021
2017    30      0       1.192354        186.8845
2017    30      1       1.048768        174.595
2017    30      2       0.952692        165.2423
2017    30      3       0.9436215       164.0288
2017    30      4       0.9156016       160.8879
2017    30      5       0.9494729       164.0722
2017    30      6       0.9546216       164.9692
2017    30      7       1.025276        171.6543
2017    31      0       0.9446137       163.826
2017    31      1       0.8608946       155.0519
2017    31      2       0.8216251       150.61
2017    31      3       0.737232        140.5439
2017    31      4       0.6844993       133.9053
2017    31      5       0.6434094       128.3798
2017    31      6       0.6617784       130.9849
2017    31      7       0.641889        128.4621
2018    1       0       0.9912638       168.6643
2018    1       1       0.9824528       167.8231
2018    1       2       1.035308        172.42
2018    1       3       1.152946        182.0981
2018    1       4       1.153934        181.8989
2018    1       5       1.042562        171.7323
2018    1       6       1.097798        176.5354
2018    1       7       1.118025        178.8407
2018    2       0       1.021332        170.4225
2018    2       1       0.917121        160.2948
2018    2       2       0.844581        152.8903
2018    2       3       0.7786287       145.3564
2018    2       4       0.6799908       133.7326
2018    2       5       0.6710326       132.9102
2018    2       6       0.7080231       137.8553
2018    2       7       0.8459751       154.3792
2018    3       0       0.7661774       145.4044
2018    3       1       0.7161602       139.4965
2018    3       2       0.8858035       158.3711
2018    3       3       0.8868384       157.8477
2018    3       4       0.8007104       148.3584
2018    3       5       0.7180538       138.7778
2018    3       6       0.8319844       152.6339
2018    3       7       0.9902081       169.4303
2018    4       0       0.8774752       157.8223
2018    4       1       0.5982199       123.5121
2018    4       2       0.5669918       118.4251
2018    4       3       0.497597        107.3794
2018    4       4       0.3267674       78.36854
2018    4       5       0.4540088       100.5246
2018    4       6       0.6241093       126.2787
2018    4       7       0.863081        156.0033
2018    5       0       0.9267672       161.6555
2018    5       1       1.038693        171.5493
2018    5       2       1.033699        170.4863
2018    5       3       0.9301952       160.5968
2018    5       4       1.059889        174.2165
2018    5       5       1.345796        197.0762
2018    5       6       1.203395        185.6795
2018    5       7       0.9986007       168.3388
2018    6       0       0.8676123       155.1609
2018    6       1       0.6592702       130.4775
2018    6       2       0.6157069       124.147
2018    6       3       0.5638835       116.8732
2018    6       4       0.609205        123.654
2018    6       5       0.9170068       160.5075
2018    6       6       1.04359         172.7891
2018    6       7       1.023595        171.6636
2018    7       0       1.044219        173.3591
2018    7       1       1.053151        173.4393
2018    7       2       1.057247        173.2363
2018    7       3       1.040402        171.4933
2018    7       4       0.9774295       165.1504
2018    7       5       0.862975        154.408
2018    7       6       1.001405        168.9142
2018    7       7       1.085768        177.3983
2018    8       0       1.195889        186.8788
2018    8       1       1.277217        192.5851
2018    8       2       1.312291        194.3706
2018    8       3       1.278798        192.0327
2018    8       4       1.130171        180.2862
2018    8       5       0.9271512       161.7468
2018    8       6       0.9985268       169.3378
2018    8       7       1.16764         183.708
2018    9       0       1.146882        182.221
2018    9       1       1.138378        180.8389
2018    9       2       1.217568        186.4329
2018    9       3       1.135281        179.8232
2018    9       4       1.048115        171.4881
2018    9       5       1.015144        168.9396
2018    9       6       0.8785785       156.5259
2018    9       7       0.8869228       158.1482
2018    10      0       0.7720126       145.5944
2018    10      1       0.6209161       126.1872
2018    10      2       0.5487451       115.7483
2018    10      3       0.4449945       99.20794
2018    10      4       0.2978794       72.73469
2018    10      5       0.3314169       79.10605
2018    10      6       0.469998        102.7045
2018    10      7       0.5957871       121.7693
2018    11      0       0.4922467       107.0222
2018    11      1       0.409322        93.86877
2018    11      2       0.4572905       102.027
2018    11      3       0.4030227       92.56388
2018    11      4       0.3589153       84.41243
2018    11      5       0.3597105       84.85968
2018    11      6       0.5223586       111.9828
2018    11      7       0.6848866       134.8105
2018    12      0       0.6816547       135.1893
2018    12      1       0.6147846       126.2975
2018    12      2       0.5583268       118.2393
2018    12      3       0.5062885       110.1764
2018    12      4       0.4398158       99.21948
2018    12      5       0.5034847       108.9566
2018    12      6       0.5788919       119.8909
2018    12      7       0.5556789       116.0624
2018    13      0       0.2522069       64.28298
2018    13      1       0.1795004       49.14271
2018    13      2       0.1567693       44.09703
2018    13      3       0.1726634       47.46221
2018    13      4       0.1575739       44.06673
2018    13      5       0.2077217       54.92362
2018    13      6       0.2657144       66.68985
2018    13      7       0.2967914       72.82533
2018    14      0       0.2398178       61.57614
2018    14      1       0.2229268       57.73527
2018    14      2       0.2569469       64.1785
2018    14      3       0.2704149       66.01181
2018    14      4       0.2661756       65.62676
2018    14      5       0.4187356       94.43678
2018    14      6       0.5080486       109.5699
2018    14      7       0.6026793       123.7969
2018    15      0       0.6135506       125.7363
2018    15      1       0.4989773       108.5547
2018    15      2       0.4299495       97.09672
2018    15      3       0.3988939       91.63897
2018    15      4       0.3027897       73.93176
2018    15      5       0.3382651       80.64535
2018    15      6       0.4642758       102.8282
2018    15      7       0.5594749       117.7324
2018    16      0       0.4970831       108.1415
2018    16      1       0.3507609       83.58339
2018    16      2       0.2627022       66.8737
2018    16      3       0.2185245       57.79253
2018    16      4       0.1986775       53.56709
2018    16      5       0.2657007       67.35728
2018    16      6       0.4219733       96.03083
2018    16      7       0.7263211       140.0377
2018    17      0       0.7149002       138.7808
2018    17      1       0.5752507       120.1049
2018    17      2       0.5393457       114.7406
2018    17      3       0.5126966       110.5839
2018    17      4       0.4474171       100.2893
2018    17      5       0.4165325       95.03726
2018    17      6       0.5569867       117.0857
2018    17      7       0.6264411       127.4143
2018    18      0       0.4540879       101.467
2018    18      1       0.3275123       79.30265
2018    18      2       0.2948064       72.91769
2018    18      3       0.2897997       72.05534
2018    18      4       0.2696256       68.1799
2018    18      5       0.3383727       81.31708
2018    18      6       0.3968161       91.51761
2018    18      7       0.4563675       101.5611
2018    19      0       0.3157681       76.93558
2018    19      1       0.1763063       48.76402
2018    19      2       0.1320799       38.80782
2018    19      3       0.1163562       35.18761
2018    19      4       0.1471321       42.34914
2018    19      5       0.7172481       139.1835
2018    19      6       0.8900236       158.8512
2018    19      7       0.69991         136.7828
2018    20      0       0.4853168       106.589
2018    20      1       0.3877163       90.30449
2018    20      2       0.3327594       80.3919
2018    20      3       0.447519        100.1403
2018    20      4       0.4155709       94.70864
2018    20      5       0.48606         106.3672
2018    20      6       0.6303192       127.7285
2018    20      7       0.7922788       148.0034
2018    21      0       0.6656853       131.9777
2018    21      1       0.5500809       115.7699
2018    21      2       0.5214162       111.3052
2018    21      3       0.4466608       99.53448
2018    21      4       0.3036354       74.58077
2018    21      5       0.2209948       58.08914
2018    21      6       0.2328448       60.4953
2018    21      7       0.3064336       75.14406
2018    22      0       0.3524832       84.01376
2018    22      1       0.3480017       83.40129
2018    22      2       0.349851        83.63468
2018    22      3       0.358505        84.97653
2018    22      4       0.2982824       73.63537
2018    22      5       0.3591312       85.04988
2018    22      6       0.4266811       96.79544
2018    22      7       0.5223839       112.0876
2018    23      0       0.4246122       96.80514
2018    23      1       0.3769264       88.41264
2018    23      2       0.2830859       70.75608
2018    23      3       0.2943836       72.95934
2018    23      4       0.2587218       65.90327
2018    23      5       0.2731805       68.75978
2018    23      6       0.3574919       84.72102
2018    23      7       0.5118076       110.4303
2018    24      0       0.3170475       77.3816
2018    24      1       0.2766038       69.69272
2018    24      2       0.3562701       84.75162
2018    24      3       0.501066        109.1391
2018    24      4       0.5860806       121.7478
2018    24      5       0.6062978       124.6434
2018    24      6       0.8271089       152.582
2018    24      7       1.010712        171.1692
2018    25      0       0.9622001       166.9198
2018    25      1       0.65455         131.7173
2018    25      2       0.3646063       86.54476
2018    25      3       0.2510772       64.73381
2018    25      4       0.2272903       59.70074
2018    25      5       0.2754187       69.38183
2018    25      6       0.4790603       105.61
2018    25      7       0.5874176       122.2118
2018    26      0       0.5962524       123.5121
2018    26      1       0.4538819       101.7029
2018    26      2       0.3139929       76.86135
2018    26      3       0.2915549       72.37238
2018    26      4       0.2493229       64.06303
2018    26      5       0.2147812       57.02894
2018    26      6       0.3164639       77.36828
2018    26      7       0.4029396       92.97345
2018    27      0       0.4472793       100.5132
2018    27      1       0.3909879       90.98126
2018    27      2       0.3593087       85.23629
2018    27      3       0.3158159       77.07282
2018    27      4       0.2382269       61.69407
2018    27      5       0.27435         68.9035
2018    27      6       0.4085662       93.73122
2018    27      7       0.5499057       116.5389
2018    28      0       0.5980177       123.5752
2018    28      1       0.5345047       114.1557
2018    28      2       0.6376672       128.5659
2018    28      3       0.7385158       142.03
2018    28      4       0.5573556       117.3154
2018    28      5       0.4346351       97.56792
2018    28      6       0.3629093       85.44571
2018    28      7       0.289865        71.98712
2018    29      0       0.1471378       42.2666
2018    29      1       0.1135647       34.50709
2018    29      2       0.1082604       33.17275
2018    29      3       0.09281062      29.32619
2018    29      4       0.08790697      28.07292
2018    29      5       0.1552575       43.79706
2018    29      6       0.1980339       53.15764
2018    29      7       0.2103068       55.73038
2018    30      0       0.1799237       49.30398
2018    30      1       0.1388666       40.24053
2018    30      2       0.1232558       36.59185
2018    30      3       0.08457986      27.36756
2018    30      4       0.06876347      23.43417
2018    30      5       0.137962        40.00057
2018    30      6       0.2324291       60.36733
2018    30      7       0.2343091       60.78584
2018    31      0       0.2148991       56.97401
2018    31      1       0.1173811       35.20677
2018    31      2       0.09041823      28.71088
2018    31      3       0.07568049      24.99612
2018    31      4       0.07923061      25.82448
2018    31      5       0.1188662       35.45243
2018    31      6       0.1537958       43.37138
2018    31      7       0.1692463       46.7012
