####################################################################################################
# Month: 04Apr                                                                                     #
# Station: SGO                                                                                     #
# Frequency: 345 GHz                                                                               #
# Columns are: year    day     segment         tau     Tb (K)                                      #
####################################################################################################
2009    1       0       0.5589828       117.6609
2009    1       1       0.4412272       98.8402
2009    1       2       0.4366424       97.89287
2009    1       3       0.4485194       99.8405
2009    1       4       0.5321898       113.5787
2009    1       5       0.6146075       125.7837
2009    1       6       0.7194621       139.559
2009    1       7       0.7441296       142.184
2009    2       0       0.7084673       137.7305
2009    2       1       0.6134602       124.7277
2009    2       2       0.5800795       119.72
2009    2       3       0.5119794       109.7858
2009    2       4       0.4329538       97.36768
2009    2       5       0.3673418       85.97378
2009    2       6       0.3446276       81.74428
2009    2       7       0.3171324       76.48578
2009    3       0       0.2473131       62.80103
2009    3       1       0.2289526       58.88611
2009    3       2       0.2692488       66.63179
2009    3       3       0.311344        74.16679
2009    3       4       0.3684139       83.96636
2009    3       5       0.4475402       97.14496
2009    3       6       0.4625885       99.4065
2009    3       7       0.5790032       116.6834
2009    4       0       0.7251239       136.9729
2009    4       1       0.7769194       143.918
2009    4       2       0.7350797       139.1569
2009    4       3       0.672422        130.6923
2009    4       4       0.4756462       103.0946
2009    4       5       0.5620876       116.4039
2009    4       6       0.7071062       136.5213
2009    4       7       0.6794441       133.3962
2009    5       0       0.4989717       107.8962
2009    5       1       0.4419505       98.51301
2009    5       2       0.5010046       108.1468
2009    5       3       0.5458402       115.3699
2009    5       4       0.5443827       115.3526
2009    5       5       0.5598786       117.846
2009    5       6       0.6348795       128.7006
2009    5       7       0.7020419       138.211
2009    6       0       0.6766289       135.1077
2009    6       1       0.6320845       129.0968
2009    6       2       0.5850515       122.1767
2009    6       3       0.4929798       107.6608
2009    6       4       0.429306        97.04877
2009    6       5       0.4345821       97.79614
2009    6       6       0.4816423       104.8131
2009    6       7       0.5087095       109.0599
2009    7       0       0.4467504       100.4452
2009    7       1       0.3756269       88.71436
2009    7       2       0.2877128       72.06936
2009    7       3       0.1984911       53.1835
2009    7       4       0.1996168       52.97068
2009    7       5       0.1969095       52.78516
2009    7       6       0.2111358       56.01315
2009    7       7       0.2227642       58.61334
2009    8       0       0.2205666       58.34804
2009    8       1       0.214543        57.28388
2009    8       2       0.187235        51.41735
2009    8       3       0.1636284       46.11665
2009    8       4       0.1504747       43.14317
2009    8       5       0.1436264       41.61806
2009    8       6       0.1672987       46.7413
2009    8       7       0.2221441       58.17334
2009    9       0       0.2598805       65.78679
2009    9       1       0.2770973       69.66013
2009    9       2       0.3402118       82.18371
2009    9       3       0.3548911       84.69315
2009    9       4       0.2831136       71.13151
2009    9       5       0.3203081       78.39823
2009    9       6       0.3590517       85.93313
2009    9       7       0.4573925       103.6317
2009    10      0       0.4986891       110.2443
2009    10      1       0.4552752       103.0676
2009    10      2       0.4814696       107.321
2009    10      3       0.4846779       107.9583
2009    10      4       0.4760841       106.4199
2009    10      5       0.4692218       105.1525
2009    10      6       0.4562258       102.862
2009    10      7       0.4846892       107.8655
2009    11      0       0.490869        109.1148
2009    11      1       0.4109349       95.77467
2009    11      2       0.366728        87.77337
2009    11      3       0.3818018       90.05344
2009    11      4       0.3494913       83.75121
2009    11      5       0.3586972       85.38187
2009    11      6       0.3795072       89.07566
2009    11      7       0.4111017       94.3455
2009    12      0       0.3749267       88.36534
2009    12      1       0.2455598       62.9924
2009    12      2       0.2687005       67.49021
2009    12      3       0.2180287       57.08465
2009    12      4       0.3333207       79.95295
2009    12      5       0.4629901       102.7068
2009    12      6       0.5300605       113.0704
2009    12      7       0.4885547       106.4835
2009    13      0       0.4728227       104.258
2009    13      1       0.4775076       104.5082
2009    13      2       0.4698627       102.8344
2009    13      3       0.4409736       98.70554
2009    13      4       0.4234438       95.8961
2009    13      5       0.3872645       88.60346
2009    13      6       0.4264466       95.01896
2009    13      7       0.3102712       75.12446
2009    14      0       0.3715755       86.36257
2009    14      1       0.3969789       91.38739
2009    14      2       0.3304567       79.31584
2009    14      3       0.2158785       56.75757
2009    14      4       0.1796514       48.90647
2009    14      5       0.1859587       50.34249
2009    14      6       0.1886225       50.97996
2009    14      7       0.1796591       49.24993
2009    15      0       0.1825678       50.14058
2009    15      1       0.1653766       46.1374
2009    15      2       0.1965343       52.93549
2009    15      3       0.2865789       71.7644
2009    15      4       0.2733203       69.23037
2009    15      5       0.2323728       60.69184
2009    15      6       0.2349464       60.99119
2009    15      7       0.2318014       60.31603
2009    16      0       0.1855596       50.41758
2009    16      1       0.1573063       44.06457
2009    16      2       0.150453        42.67477
2009    16      3       0.1416855       40.73607
2009    16      4       0.1320681       38.54404
2009    16      5       0.1344374       39.1288
2009    16      6       0.1603564       44.93616
2009    16      7       0.1663073       45.92949
2009    17      0       0.1448404       40.95993
2009    17      1       0.1328828       37.89793
2009    17      2       0.1263394       36.29864
2009    17      3       0.1290079       36.9655
2009    17      4       0.1354034       38.58721
2009    17      5       0.1687268       46.14582
2009    17      6       0.1778395       48.87688
2009    17      7       0.1896453       50.99265
2009    18      0       0.1049984       31.65588
2009    18      1       0.1329754       37.73664
2009    18      2       0.1645374       44.79897
2009    18      3       0.1427778       40.15775
2009    18      4       0.2309158       58.68612
2009    18      5       0.3582118       82.59628
2009    18      6       0.5468492       113.0884
2009    18      7       0.757611        142.2406
2009    19      0       0.9034329       160.4373
2009    19      1       1.021647        172.4408
2009    19      2       0.8440172       154.8357
2009    19      3       0.7082473       138.2821
2009    19      4       0.635871        128.7805
2009    19      5       0.5454124       115.8608
2009    19      6       0.5131096       110.3847
2009    19      7       0.522432        111.7064
2009    20      0       0.523109        111.9851
2009    20      1       0.5064585       109.1198
2009    20      2       0.4763073       104.3755
2009    20      3       0.4659978       102.2499
2009    20      4       0.3315417       79.03873
2009    20      5       0.2227958       58.09635
2009    20      6       0.2408643       61.23508
2009    20      7       0.4178975       94.16403
2009    21      0       0.5155403       110.0861
2009    21      1       0.5081379       110.165
2009    21      2       0.6737146       133.5857
2009    21      3       0.7822842       146.0222
2009    21      4       0.8515534       152.9233
2009    21      5       0.804402        148.47
2009    21      6       0.6716976       132.4209
2009    21      7       0.6511922       129.4471
2009    22      0       0.6318398       127.569
2009    22      1       0.5495778       116.4072
2009    22      2       0.4256809       95.96488
2009    22      3       0.3523618       83.38477
2009    22      4       0.323837        78.33742
2009    22      5       0.2411162       62.06084
2009    22      6       0.2136393       55.8334
2009    22      7       0.2037823       53.57074
2009    23      0       0.1978111       52.17735
2009    23      1       0.1569273       43.40956
2009    23      2       0.3315166       77.82542
2009    23      3       0.1236269       35.56943
2009    23      4       0.1279996       36.67376
2009    23      5       0.1479151       41.33237
2009    23      6       0.1244351       36.07495
2009    23      7       0.1339566       38.25142
2009    24      0       0.1574316       43.26779
2009    24      1       0.1656063       45.17536
2009    24      2       0.1625802       44.59188
2009    24      3       0.1379526       39.03301
2009    24      4       0.1332953       38.11092
2009    24      5       0.1479788       41.43434
2009    24      6       0.1488852       41.80395
2009    24      7       0.1438313       40.70745
2009    25      0       0.1275181       36.99022
2009    25      1       0.1159308       34.43474
2009    25      2       0.1330638       38.34246
2009    25      3       0.165515        45.47547
2009    25      4       0.1698858       46.53588
2009    25      5       0.1730754       47.19345
2009    25      6       0.201432        53.16201
2009    25      7       0.2154025       55.85703
2009    26      0       0.2100974       54.90689
2009    26      1       0.2125304       55.59862
2009    26      2       0.2271046       58.63862
2009    26      3       0.2542498       64.28629
2009    26      4       0.2327675       60.01845
2009    26      5       0.2427339       62.2713
2009    26      6       0.2755211       68.91813
2009    26      7       0.341635        81.36842
2009    27      0       0.3450999       82.03614
2009    27      1       0.2594332       66.01098
2009    27      2       0.2201056       57.91916
2009    27      3       0.2127872       56.27608
2009    27      4       0.1838222       50.08145
2009    27      5       0.1314976       38.44458
2009    27      6       0.1288789       37.83797
2009    27      7       0.1786028       48.82273
2009    28      0       0.1842789       50.0475
2009    28      1       0.1633183       45.57821
2009    28      2       0.1527602       43.2255
2009    28      3       0.1483994       42.19586
2009    28      4       0.1396218       40.23254
2009    28      5       0.1367244       39.59658
2009    28      6       0.1471585       41.87208
2009    28      7       0.189458        51.01446
2009    29      0       0.2180393       56.95936
2009    29      1       0.1849943       50.0402
2009    29      2       0.1654055       45.66159
2009    29      3       0.1763604       47.96742
2009    29      4       0.1399706       40.01771
2009    29      5       0.103912        31.70794
2009    29      6       0.1547161       43.32991
2009    29      7       0.3006385       73.08503
2009    30      0       0.3442688       81.55565
2009    30      1       0.3369671       80.73143
2009    30      2       0.33074         79.62753
2009    30      3       0.302321        74.14635
2009    30      4       0.2607109       65.73907
2009    30      5       0.2813809       68.90708
2009    30      6       0.3139768       75.08569
2009    30      7       0.3742733       86.12868
2010    1       0       0.3983587       89.8378
2010    1       1       0.3387967       79.95147
2010    1       2       0.3677624       84.82572
2010    1       3       0.4664243       101.1573
2010    1       4       0.506737        106.7929
2010    1       5       0.5267309       109.8355
2010    1       6       0.49774         105.9566
2010    1       7       0.3958556       89.75919
2010    2       0       0.2889188       70.7406
2010    2       1       0.1639252       45.44787
2010    2       2       0.1122738       33.85095
2010    2       3       0.08295849      26.7984
2010    2       4       0.09552091      29.63991
2010    2       5       0.1218241       35.58597
2010    2       6       0.1369473       39.12227
2010    2       7       0.1438781       40.80797
2010    3       0       0.1240066       36.29116
2010    3       1       0.1123061       33.66848
2010    3       2       0.108696        32.86953
2010    3       3       0.1075719       32.68734
2010    3       4       0.09770354      30.38624
2010    3       5       0.1218742       36.02883
2010    3       6       0.1733182       47.4796
2010    3       7       0.1508821       42.15045
2010    4       0       0.1485147       41.61568
2010    4       1       0.1369022       39.00012
2010    4       2       0.1278263       36.85588
2010    4       3       0.1227923       35.79388
2010    4       4       0.1176238       34.85818
2010    4       5       0.1211886       35.90076
2010    4       6       0.1233267       36.4825
2010    4       7       0.1162225       34.9262
2010    5       0       0.1020023       31.64212
2010    5       1       0.09242825      29.42212
2010    5       2       0.08783694      28.33371
2010    5       3       0.09109102      29.15287
2010    5       4       0.09777888      30.71867
2010    5       5       0.1123562       33.89055
2010    5       6       0.1562474       44.1317
2010    5       7       0.2069936       55.06585
2010    6       0       0.1995395       53.55863
2010    6       1       0.1983996       53.09854
2010    6       2       0.2014884       53.58342
2010    6       3       0.2775096       68.75065
2010    6       4       0.2417191       60.60548
2010    6       5       0.3136852       74.66793
2010    6       6       0.3716025       84.81816
2010    6       7       0.5014988       105.7441
2010    7       0       0.402845        91.37613
2010    7       1       0.3032314       74.56961
2010    7       2       0.2465228       63.38124
2010    7       3       0.2191551       57.52319
2010    7       4       0.2014831       53.45879
2010    7       5       0.2293526       58.62104
2010    7       6       0.2142209       55.75892
2010    7       7       0.2173647       56.54769
2010    8       0       0.1929684       51.42346
2010    8       1       0.1880725       50.45096
2010    8       2       0.1774076       48.2802
2010    8       3       0.1982453       52.62474
2010    8       4       0.182858        49.32998
2010    8       5       0.1998096       52.89046
2010    8       6       0.1938094       51.71106
2010    8       7       0.1730313       47.22174
2010    9       0       0.1519078       42.62872
2010    9       1       0.1341153       38.84297
2010    9       2       0.1278477       37.3327
2010    9       3       0.1326439       38.46131
2010    9       4       0.1311596       38.27169
2010    9       5       0.1344366       38.98457
2010    9       6       0.154308        43.45847
2010    9       7       0.1959783       52.35222
2010    10      0       0.2133278       56.11843
2010    10      1       0.2336187       60.35523
2010    10      2       0.2656738       66.56604
2010    10      3       0.2780839       68.83745
2010    10      4       0.2798585       69.28942
2010    10      5       0.2886517       71.10462
2010    10      6       0.2791838       69.28261
2010    10      7       0.2851135       70.27278
2010    11      0       0.2603141       65.3138
2010    11      1       0.2164978       56.36006
2010    11      2       0.1884183       50.44429
2010    11      3       0.1722996       46.60727
2010    11      4       0.166639        45.46299
2010    11      5       0.178089        47.78247
2010    11      6       0.2086702       53.90155
2010    11      7       0.2369762       59.51714
2010    12      0       0.2271191       57.51933
2010    12      1       0.2146984       54.91698
2010    12      2       0.2193794       55.6256
2010    12      3       0.1896875       49.56684
2010    12      4       0.1773769       46.85216
2010    12      5       0.1924794       50.08154
2010    12      6       0.2206238       55.82684
2010    12      7       0.2210768       55.92481
2010    13      0       0.1473695       40.49281
2010    13      1       0.1215559       35.00341
2010    13      2       0.1517322       41.82875
2010    13      3       0.2217707       56.78464
2010    13      4       0.2027964       53.12533
2010    13      5       0.1415425       40.04506
2010    13      6       0.0870454       27.4666
2010    13      7       0.0725802       24.07347
2010    14      0       0.06442353      22.02746
2010    14      1       0.06479907      22.04955
2010    14      2       0.08684537      27.17833
2010    14      3       0.1213464       35.11522
2010    14      4       0.1605452       43.9546
2010    14      5       0.2053952       53.41408
2010    14      6       0.2239763       57.3362
2010    14      7       0.2410649       61.33071
2010    15      0       0.2521219       64.10896
2010    15      1       0.2236849       58.56309
2010    15      2       0.1915239       51.73326
2010    15      3       0.1843384       50.05655
2010    15      4       0.2222806       57.91519
2010    15      5       0.2800218       69.24552
2010    15      6       0.305851        73.86702
2010    15      7       0.368721        85.43459
2010    16      0       0.4460834       99.27047
2010    16      1       0.1872012       50.55636
2010    16      2       0.2327971       59.78555
2010    16      3       0.2424648       61.78369
2010    16      4       0.2885885       70.795
2010    16      5       0.4281215       95.01542
2010    16      6       0.4187155       92.71584
2010    16      7       0.2812871       68.81429
2010    17      0       0.1354876       38.89317
2010    17      1       0.1477262       41.47112
2010    17      2       0.2169289       55.89243
2010    17      3       0.2566706       63.61124
2010    17      4       0.2566443       63.63746
2010    17      5       0.2682181       65.95315
2010    17      6       0.3041246       72.58619
2010    17      7       0.3379299       78.71648
2010    18      0       0.249908        62.07909
2010    18      1       0.2268891       57.18754
2010    18      2       0.3475601       79.49184
2010    18      3       0.33928         78.4134
2010    18      4       0.3931493       87.04791
2010    18      5       0.4516447       96.4007
2010    18      6       0.5378305       109.063
2010    18      7       0.6094023       119.5431
2010    19      0       0.550273        111.8538
2010    19      1       0.5651378       114.0688
2010    19      2       0.596039        118.1452
2010    19      3       0.6070344       120.3935
2010    19      4       0.5407229       111.9826
2010    19      5       0.4457582       97.9501
2010    19      6       0.3595713       83.44631
2010    19      7       0.246003        61.97035
2010    20      0       0.167068        45.1357
2010    20      1       0.1682137       44.67943
2010    20      2       0.2529303       61.19018
2010    20      3       0.2212905       55.33233
2010    20      4       0.2314602       57.1354
2010    20      5       0.2765218       65.87786
2010    20      6       0.3592243       80.48387
2010    20      7       0.3318626       75.98775
2010    21      0       0.2296851       57.2465
2010    21      1       0.1842537       48.29529
2010    21      2       0.1475008       40.72567
2010    21      3       0.1265121       36.21616
2010    21      4       0.1168609       34.21152
2010    21      5       0.120335        35.03181
2010    21      6       0.1245604       35.85892
2010    21      7       0.1432905       39.65841
2010    22      0       0.1535009       41.53569
2010    22      1       0.155776        42.12182
2010    22      2       0.1594694       43.08574
2010    22      3       0.17547         46.65356
2010    22      4       0.1667688       44.95298
2010    22      5       0.1428452       39.89336
2010    22      6       0.1343743       38.09299
2010    22      7       0.1324003       37.76497
2010    23      0       0.1194364       35.01921
2010    23      1       0.1038454       31.44222
2010    23      2       0.09649638      29.65665
2010    23      3       0.1079553       32.0143
2010    23      4       0.1444406       39.71513
2010    23      5       0.3022315       71.14028
2010    23      6       0.3425916       79.23654
2010    23      7       0.329976        77.36467
2010    24      0       0.3172692       74.9356
2010    24      1       0.3086751       73.23656
2010    24      2       0.2665191       64.85823
2010    24      3       0.2659          64.296
2010    24      4       0.2463697       60.53017
2010    24      5       0.1799167       47.8433
2010    24      6       0.2067454       53.51955
2010    24      7       0.2349948       59.14919
2010    25      0       0.2177524       55.89271
2010    25      1       0.1645542       44.89885
2010    25      2       0.1442042       40.42044
2010    25      3       0.1389501       39.21444
2010    25      4       0.1309679       37.39968
2010    25      5       0.1206692       35.06329
2010    25      6       0.1287862       36.84926
2010    25      7       0.1365467       38.6881
2010    26      0       0.1097309       32.78611
2010    26      1       0.1092691       32.28816
2010    26      2       0.1385475       38.43385
2010    26      3       0.1661328       44.09569
2010    26      4       0.2768409       65.63076
2010    26      5       0.4625347       98.10991
2010    26      6       0.8698596       151.9676
2010    26      7       0.4539531       97.87527
2010    27      0       0.2267177       57.33432
2010    27      1       0.3146096       73.1978
2010    27      2       0.3350503       76.70936
2010    27      3       0.1741676       45.93983
2010    27      4       0.1441481       39.47638
2010    27      5       0.1465089       40.29748
2010    27      6       0.1368775       38.40508
2010    27      7       0.1471285       40.65342
2010    28      0       0.1739068       46.42929
2010    28      1       0.2251804       56.94706
2010    28      2       0.2908088       69.66106
2010    28      3       0.2850323       69.11568
2010    28      4       0.2135678       55.22651
2010    28      5       0.2338606       59.34723
2010    28      6       0.2509889       62.69214
2010    28      7       0.2789151       67.48271
2010    29      0       0.2490438       61.20953
2010    29      1       0.250264        61.08345
2010    29      2       0.2570437       62.47503
2010    29      3       0.2356119       58.64218
2010    29      4       0.219741        55.7232
2010    29      5       0.2036751       52.4747
2010    29      6       0.1966059       51.13548
2010    29      7       0.1993298       52.03371
2010    30      0       0.2013594       52.80588
2010    30      1       0.1983395       52.58069
2010    30      2       0.194505        51.8335
2010    30      3       0.1813012       49.15348
2010    30      4       0.1728221       47.35977
2010    30      5       0.1793597       48.7093
2010    30      6       0.1929262       51.43223
2010    30      7       0.1919564       51.25328
2011    1       0       0.1669984       46.26869
2011    1       1       0.1365844       38.99384
2011    1       2       0.1464432       41.13028
2011    1       3       0.1427468       40.4729
2011    1       4       0.1450476       41.02271
2011    1       5       0.1688018       46.11345
2011    1       6       0.1990917       52.33154
2011    1       7       0.1966513       51.69615
2011    2       0       0.2131917       54.49668
2011    2       1       0.1771529       47.61098
2011    2       2       0.1844503       49.3446
2011    2       3       0.1954476       51.64013
2011    2       4       0.1946857       51.65419
2011    2       5       0.1970111       52.21533
2011    2       6       0.2002794       52.76742
2011    2       7       0.2142431       55.63935
2011    3       0       0.2134529       55.71547
2011    3       1       0.204876        54.04695
2011    3       2       0.2058667       54.18548
2011    3       3       0.2098479       54.84866
2011    3       4       0.2874043       69.97982
2011    3       5       0.353766        82.86694
2011    3       6       0.380834        87.73264
2011    3       7       0.4163623       92.70708
2011    4       0       0.4046345       91.28708
2011    4       1       0.3463869       81.24088
2011    4       2       0.3471996       81.21662
2011    4       3       0.4124461       92.91939
2011    4       4       0.4683555       102.7759
2011    4       5       0.5142099       109.9572
2011    4       6       0.5028042       108.5457
2011    4       7       0.4919004       106.9826
2011    5       0       0.4556414       101.2132
2011    5       1       0.4033285       93.04757
2011    5       2       0.3559815       84.9678
2011    5       3       0.3364551       81.30983
2011    5       4       0.3443514       82.74178
2011    5       5       0.360726        85.70087
2011    5       6       0.3749585       88.14332
2011    5       7       0.3621286       85.74578
2011    6       0       0.3279693       79.65159
2011    6       1       0.2736159       69.25428
2011    6       2       0.2528863       64.80541
2011    6       3       0.3565011       84.61938
2011    6       4       0.4465098       100.2893
2011    6       5       0.3198457       77.42555
2011    6       6       0.3608274       83.75094
2011    6       7       0.4969738       105.5974
2011    7       0       0.5446886       113.2777
2011    7       1       0.5581483       114.9861
2011    7       2       0.4801708       103.0111
2011    7       3       0.4287272       94.95784
2011    7       4       0.3911323       89.12154
2011    7       5       0.3812631       87.78789
2011    7       6       0.3583844       83.62345
2011    7       7       0.3097315       74.86172
2011    8       0       0.2375998       61.06747
2011    8       1       0.192264        51.73208
2011    8       2       0.2103187       55.94817
2011    8       3       0.2333091       60.83891
2011    8       4       0.2434595       62.85303
2011    8       5       0.2396068       62.26394
2011    8       6       0.3607914       85.96709
2011    8       7       0.4665876       104.274
2011    9       0       0.4106416       95.09788
2011    9       1       0.3794097       89.53376
2011    9       2       0.4239364       96.8908
2011    9       3       0.4865799       107.6495
2011    9       4       0.3913287       91.69333
2011    9       5       0.4173629       96.05437
2011    9       6       0.7299714       140.8032
2011    9       7       0.7563245       143.551
2011    10      0       1.166564        184.1985
2011    10      1       1.52864         209.8111
2011    10      2       1.480211        207.0452
2011    10      3       0.9909963       169.5298
2011    10      4       0.5599289       117.4106
2011    10      5       0.3552356       83.63333
2011    10      6       0.3037138       73.9383
2011    10      7       0.2236766       58.20813
2011    11      0       0.1229672       36.37856
2011    11      1       0.1138118       33.90091
2011    11      2       0.1329925       38.14259
2011    11      3       0.1488344       41.42328
2011    11      4       0.1946288       50.84743
2011    11      5       0.2933955       70.046
2011    11      6       0.3354928       78.16114
2011    11      7       0.2521713       62.48387
2011    12      0       0.1893653       49.77227
2011    12      1       0.1896445       49.74398
2011    12      2       0.2006595       52.40382
2011    12      3       0.245249        61.51281
2011    12      4       0.3167734       74.63471
2011    12      5       0.4356122       95.13844
2011    12      6       0.5575296       113.8356
2011    12      7       0.6688632       129.1785
2011    13      0       0.609792        121.3703
2011    13      1       0.4509162       98.13122
2011    13      2       0.5398851       112.3885
2011    13      3       0.7426117       139.5037
2011    13      4       0.8009169       146.9066
2011    13      5       0.8919315       156.2681
2011    13      6       0.8236962       148.1152
2011    13      7       0.8193438       147.687
2011    14      0       0.5947213       120.5638
2011    14      1       0.6314494       125.8487
2011    14      2       0.5749526       118.094
2011    14      3       0.4759944       102.9916
2011    14      4       0.3534313       81.68304
2011    14      5       0.3494676       80.91483
2011    14      6       0.3380897       79.15803
2011    14      7       0.3454563       80.85461
2011    15      0       0.2362444       59.82268
2011    15      1       0.2014454       52.77625
2011    15      2       0.1959297       51.76206
2011    15      3       0.1798866       48.29371
2011    15      4       0.2018586       53.18335
2011    15      5       0.1446694       40.93528
2011    15      6       0.1203197       35.23866
2011    15      7       0.1357626       38.42603
2011    16      0       0.1371478       38.71569
2011    16      1       0.1816481       48.31003
2011    16      2       0.2209213       56.81314
2011    16      3       0.2871861       70.00149
2011    16      4       0.3241765       77.07098
2011    16      5       0.3688383       84.38096
2011    16      6       0.4444076       95.99016
2011    16      7       0.4129863       90.20874
2011    17      0       0.1408931       39.85922
2011    17      1       0.07347411      24.02566
2011    17      2       0.1637407       44.86878
2011    17      3       0.1901018       50.8716
2011    17      4       0.2643431       65.89036
2011    17      5       0.2302783       59.3564
2011    17      6       0.2064779       54.26467
2011    17      7       0.2085281       54.69592
2011    18      0       0.173571        47.37065
2011    18      1       0.166552        45.89628
2011    18      2       0.1669528       46.0698
2011    18      3       0.1680059       46.42135
2011    18      4       0.1882376       50.88018
2011    18      5       0.2086805       55.28354
2011    18      6       0.2269044       59.02519
2011    18      7       0.2350866       60.70805
2011    19      0       0.2348988       60.80637
2011    19      1       0.2409069       61.94564
2011    19      2       0.2215354       57.63226
2011    19      3       0.231547        58.87203
2011    19      4       0.2397674       60.68986
2011    19      5       0.2254282       57.77956
2011    19      6       0.1927886       50.60712
2011    19      7       0.2064382       53.17104
2011    20      0       0.2582212       63.44798
2011    20      1       0.3179676       74.85898
2011    20      2       0.4674024       100.9363
2011    20      3       0.5351778       111.8156
2011    20      4       0.4624259       100.7631
2011    20      5       0.3970173       90.16267
2011    20      6       0.3467667       81.58623
2011    20      7       0.3264311       78.10627
2011    21      0       0.3290316       78.46561
2011    21      1       0.3242693       77.42699
2011    21      2       0.3766927       86.71875
2011    21      3       0.4519894       99.3447
2011    21      4       0.4447748       97.34153
2011    21      5       0.7463597       138.199
2011    21      6       0.5689501       116.1864
2011    21      7       0.5652735       116.2064
2011    22      0       0.4882046       104.7263
2011    22      1       0.4291428       94.55075
2011    22      2       0.3694686       83.80391
2011    22      3       0.5854602       117.6831
2011    22      4       0.7022425       133.5311
2011    22      5       0.6206064       123.8881
2011    22      6       0.496879        106.1779
2011    22      7       0.2177896       55.84881
2011    23      0       0.1880261       50.06287
2011    23      1       0.1488552       41.88607
2011    23      2       0.1214656       35.3935
2011    23      3       0.1245631       35.4543
2011    23      4       0.1045516       31.07089
2011    23      5       0.1088096       32.35838
2011    23      6       0.1526758       42.48756
2011    23      7       0.1787634       48.43777
2011    24      0       0.17753         48.45341
2011    24      1       0.1850902       50.10632
2011    24      2       0.2197682       57.3208
2011    24      3       0.1877794       50.27783
2011    24      4       0.1684194       46.14285
2011    24      5       0.1580423       43.86278
2011    24      6       0.1713282       46.68532
2011    24      7       0.1774518       47.99263
2011    25      0       0.2242991       58.06111
2011    25      1       0.2327981       60.11339
2011    25      2       0.1922628       51.66391
2011    25      3       0.1691914       46.62014
2011    25      4       0.153054        43.19249
2011    25      5       0.1468498       41.90588
2011    25      6       0.1501033       42.54593
2011    25      7       0.1476856       41.92971
2011    26      0       0.1393826       40.08241
2011    26      1       0.1306303       38.08807
2011    26      2       0.124703        36.73644
2011    26      3       0.1418808       40.15679
2011    26      4       0.1626197       44.14169
2011    26      5       0.1993777       51.36805
2011    26      6       0.4644728       98.69457
2011    26      7       0.3138429       73.76298
2011    27      0       0.2624409       64.23378
2011    27      1       0.2908585       69.73801
2011    27      2       0.2817761       68.03586
2011    27      3       0.2779836       66.85635
2011    27      4       0.2546223       62.55292
2011    27      5       0.2186713       55.89086
2011    27      6       0.2027165       53.41595
2011    27      7       0.2008449       53.06203
2011    28      0       0.2820672       68.48251
2011    28      1       0.5613062       116.2418
2011    28      2       0.5834617       119.0953
2011    28      3       0.616245        123.5827
2011    28      4       0.5536011       115.0299
2011    28      5       0.1837497       49.6522
2011    28      6       0.1488428       42.12527
2011    28      7       0.1392815       39.8805
2011    29      0       0.1744563       47.42033
2011    29      1       0.321436        76.93509
2011    29      2       0.26065         65.51427
2011    29      3       0.1769674       48.13658
2011    29      4       0.1454547       41.22311
2011    29      5       0.1843952       49.04168
2011    29      6       0.2842843       68.6045
2011    29      7       0.366632        83.56502
2011    30      0       0.4017875       89.7574
2011    30      1       0.3932577       88.56297
2011    30      2       0.3900834       88.35566
2011    30      3       0.3116837       74.49669
2011    30      4       0.1747056       47.41551
2011    30      5       0.1083938       32.7775
2011    30      6       0.1022269       31.33981
2011    30      7       0.1085237       32.8598
2012    1       0       0.3352761       79.81298
2012    1       1       0.3195076       77.1139
2012    1       2       0.3429437       81.45486
2012    1       3       0.3726284       86.59008
2012    1       4       0.4290764       96.34222
2012    1       5       0.4913138       106.4197
2012    1       6       0.5439596       114.5538
2012    1       7       0.602127        122.9939
2012    2       0       0.5928135       121.7385
2012    2       1       0.4937016       107.5246
2012    2       2       0.5223257       112.1544
2012    2       3       0.4900519       107.0858
2012    2       4       0.3404579       81.19816
2012    2       5       0.3109817       75.7563
2012    2       6       0.3131248       75.97241
2012    2       7       0.3197117       77.38564
2012    3       0       0.217251        56.82394
2012    3       1       0.278367        69.50453
2012    3       2       0.2999056       73.80949
2012    3       3       0.2723511       67.99465
2012    3       4       0.3008624       73.30333
2012    3       5       0.3082698       75.02468
2012    3       6       0.2728006       68.20914
2012    3       7       0.2340953       60.57512
2012    4       0       0.1762417       48.28307
2012    4       1       0.1644593       45.58405
2012    4       2       0.1425814       40.64893
2012    4       3       0.1553652       42.83846
2012    4       4       0.2061823       53.399
2012    4       5       0.333748        78.8394
2012    4       6       0.4480523       98.5418
2012    4       7       0.2811162       69.69161
2012    5       0       0.186464        49.21272
2012    5       1       0.1867685       49.37746
2012    5       2       0.2858128       69.99047
2012    5       3       0.2825585       69.79142
2012    5       4       0.402558        91.87315
2012    5       5       0.4683477       103.0314
2012    5       6       0.4853358       106.0383
2012    5       7       0.4756963       104.7848
2012    6       0       0.3373746       81.3274
2012    6       1       0.1862119       50.92014
2012    6       2       0.1281753       37.68104
2012    6       3       0.1156635       34.5743
2012    6       4       0.1237259       36.20889
2012    6       5       0.1132169       33.8625
2012    6       6       0.10066         31.17319
2012    6       7       0.09680864      30.30272
2012    7       0       0.09518332      29.99464
2012    7       1       0.08259389      26.89604
2012    7       2       0.08999284      28.70691
2012    7       3       0.1146733       34.58649
2012    7       4       0.1158743       34.75647
2012    7       5       0.115303        34.56423
2012    7       6       0.1483491       42.11388
2012    7       7       0.1809339       49.2852
2012    8       0       0.1595208       44.28212
2012    8       1       0.3230576       77.14321
2012    8       2       0.4724314       103.1553
2012    8       3       0.484035        105.0549
2012    8       4       0.6238144       126.1162
2012    8       5       0.7462073       141.6012
2012    8       6       0.9677812       164.6974
2012    8       7       0.8340863       151.1243
2012    9       0       0.5884533       120.6016
2012    9       1       0.550565        113.808
2012    9       2       0.6277141       123.835
2012    9       3       0.6925856       132.4069
2012    9       4       0.8052156       145.7858
2012    9       5       0.6854549       131.9697
2012    9       6       0.6138704       122.8705
2012    9       7       0.5655186       116.3645
2012    10      0       0.397425        90.27221
2012    10      1       0.3259489       77.75402
2012    10      2       0.3523471       82.57335
2012    10      3       0.3560299       82.70106
2012    10      4       0.4564216       99.01069
2012    10      5       0.459721        99.80975
2012    10      6       0.5553276       115.0706
2012    10      7       0.5793756       119.2109
2012    11      0       0.4657668       102.2841
2012    11      1       0.4284031       96.43037
2012    11      2       0.4745017       104.0962
2012    11      3       0.5205288       111.0649
2012    11      4       0.5287872       112.3664
2012    11      5       0.4950782       107.3528
2012    11      6       0.579128        120.4295
2012    11      7       0.6230447       126.7664
2012    12      0       0.5468067       115.8553
2012    12      1       0.4685338       103.5475
2012    12      2       0.467997        103.3343
2012    12      3       0.4223295       95.51012
2012    12      4       0.4433093       98.81384
2012    12      5       0.4947489       106.761
2012    12      6       0.6621307       130.5301
2012    12      7       0.6539658       129.141
2012    13      0       0.4571545       100.1263
2012    13      1       0.4077229       91.97307
2012    13      2       0.4771983       102.9016
2012    13      3       0.5487053       113.6203
2012    13      4       0.5403045       112.7989
2012    13      5       0.6158995       123.6337
2012    13      6       0.7515826       140.8401
2012    13      7       0.7600698       141.5052
2012    14      0       0.6434125       127.1073
2012    14      1       0.3896937       88.74002
2012    14      2       0.2369551       60.56499
2012    14      3       0.1457095       41.29437
2012    14      4       0.1327073       38.27424
2012    14      5       0.1574969       43.89525
2012    14      6       0.1810295       48.69815
2012    14      7       0.1704709       46.53051
2012    15      0       0.174204        46.85422
2012    15      1       0.1896826       49.79838
2012    15      2       0.1721593       45.84598
2012    15      3       0.1427361       39.94422
2012    15      4       0.164631        44.80481
2012    15      5       0.1812181       48.34845
2012    15      6       0.2063395       53.39561
2012    15      7       0.2144968       54.96917
2012    16      0       0.2146362       54.81982
2012    16      1       0.1945425       50.72608
2012    16      2       0.1977409       51.37869
2012    16      3       0.2261599       57.12235
2012    16      4       0.2260115       57.33613
2012    16      5       0.2572215       63.40878
2012    16      6       0.2681547       65.34983
2012    16      7       0.2759162       67.12153
2012    17      0       0.2687958       66.20281
2012    17      1       0.369751        85.12082
2012    17      2       0.4145984       94.19771
2012    17      3       0.3392958       80.94585
2012    17      4       0.2787931       69.44496
2012    17      5       0.2546508       64.45196
2012    17      6       0.2998347       72.85982
2012    17      7       0.3272682       77.6887
2012    18      0       0.3121827       75.00324
2012    18      1       0.2745637       67.94393
2012    18      2       0.2863672       70.1903
2012    18      3       0.3143238       75.61117
2012    18      4       0.3218703       77.10692
2012    18      5       0.364352        84.72556
2012    18      6       0.3567351       83.28649
2012    18      7       0.3246206       77.31675
2012    19      0       0.2861813       70.06457
2012    19      1       0.2607865       65.12626
2012    19      2       0.2316359       59.23014
2012    19      3       0.2116953       55.2063
2012    19      4       0.174858        47.50103
2012    19      5       0.1574441       43.69365
2012    19      6       0.1857674       49.74724
2012    19      7       0.2066083       53.99075
2012    20      0       0.2039839       53.51145
2012    20      1       0.2092393       54.78515
2012    20      2       0.209641        54.87824
2012    20      3       0.2059641       53.99901
2012    20      4       0.1878226       50.23406
2012    20      5       0.1697116       46.3696
2012    20      6       0.1972431       52.05054
2012    20      7       0.2296605       58.62334
2012    21      0       0.2367377       60.08185
2012    21      1       0.2397889       60.85913
2012    21      2       0.2328876       59.84307
2012    21      3       0.2157935       56.6024
2012    21      4       0.1986766       52.92106
2012    21      5       0.2074819       54.69043
2012    21      6       0.2102195       55.22884
2012    21      7       0.2170509       56.59713
2012    22      0       0.2197998       57.15878
2012    22      1       0.2031587       53.71067
2012    22      2       0.1895046       50.93512
2012    22      3       0.1977572       52.70964
2012    22      4       0.1954028       52.25991
2012    22      5       0.201666        53.55544
2012    22      6       0.2105097       55.2914
2012    22      7       0.2137457       55.94707
2012    23      0       0.1837338       49.53881
2012    23      1       0.158889        44.03938
2012    23      2       0.1570566       43.54806
2012    23      3       0.160915        44.2975
2012    23      4       0.1614543       44.37887
2012    23      5       0.180263        48.22721
2012    23      6       0.2403737       60.41861
2012    23      7       0.2843956       68.93696
2012    24      0       0.2724029       66.4432
2012    24      1       0.2821467       68.28868
2012    24      2       0.2164838       55.46513
2012    24      3       0.168726        45.962
2012    24      4       0.1657317       44.99389
2012    24      5       0.1688955       45.76502
2012    24      6       0.1841415       49.0852
2012    24      7       0.2054824       53.54162
2012    25      0       0.2059381       53.66722
2012    25      1       0.2130248       55.13335
2012    25      2       0.2352066       59.45507
2012    25      3       0.2420423       60.64078
2012    25      4       0.2159734       55.50566
2012    25      5       0.1791951       48.13644
2012    25      6       0.2080369       53.49982
2012    25      7       0.2431656       59.97483
2012    26      0       0.2605613       63.7576
2012    26      1       0.2512376       61.79667
2012    26      2       0.284029        67.20961
2012    26      3       0.396185        87.33856
2012    26      4       0.6066116       119.8415
2012    26      5       0.5961507       117.6916
2012    26      6       0.6462739       124.052
2012    26      7       0.7606705       138.6145
2012    27      0       0.6307253       122.227
2012    27      1       0.7323907       135.1264
2012    27      2       0.8317519       146.7492
2012    27      3       0.7971685       143.1098
2012    27      4       0.631615        123.1405
2012    27      5       0.4947997       103.2784
2012    27      6       0.528625        107.6537
2012    27      7       0.6127794       119.5442
2012    28      0       0.2081765       53.11798
2012    28      1       0.2238021       56.35456
2012    28      2       0.1996656       51.6791
2012    28      3       0.169869        45.60015
2012    28      4       0.2353328       57.93118
2012    28      5       0.4617987       97.06418
2012    28      6       0.6664962       126.4134
2012    28      7       0.7472763       136.9108
2012    29      0       0.5726192       115.9419
2012    29      1       0.3528364       81.63459
2012    29      2       0.2471422       61.57328
2012    29      3       0.1861776       49.15576
2012    29      4       0.1510309       41.92597
2012    29      5       0.1184919       34.67138
2012    29      6       0.1077982       32.1756
2012    29      7       0.1298984       36.86889
2012    30      0       0.2074898       54.16853
2012    30      1       0.2737591       68.02086
2012    30      2       0.32853         78.29406
2012    30      3       0.3696699       85.70114
2012    30      4       0.2443916       62.37038
2012    30      5       0.1617387       44.84814
2012    30      6       0.1820742       48.95483
2012    30      7       0.1617376       44.40808
2013    1       0       0.4926737       104.5018
2013    1       1       0.1664411       45.48347
2013    1       2       0.1122737       33.25763
2013    1       3       0.1021196       30.90816
2013    1       4       0.1112844       33.00314
2013    1       5       0.1385131       38.97566
2013    1       6       0.2100875       53.80911
2013    1       7       0.2577065       63.14041
2013    2       0       0.2205264       55.78778
2013    2       1       0.1986642       51.43889
2013    2       2       0.2420079       59.82686
2013    2       3       0.3540809       81.1767
2013    2       4       0.3006993       71.92521
2013    2       5       0.223829        57.25184
2013    2       6       0.2414597       60.66094
2013    2       7       0.2824055       68.63717
2013    3       0       0.2958377       70.86386
2013    3       1       0.3324534       77.15229
2013    3       2       0.3676567       83.01132
2013    3       3       0.4521631       96.83599
2013    3       4       0.3780136       85.26618
2013    3       5       0.308385        73.48209
2013    3       6       0.324226        76.3507
2013    3       7       0.4049032       90.28179
2013    4       0       0.4018782       89.80685
2013    4       1       0.3971499       89.52791
2013    4       2       0.3350071       79.30971
2013    4       3       0.2338177       59.98033
2013    4       4       0.1956155       52.14393
2013    4       5       0.1728743       47.43731
2013    4       6       0.2109274       55.38083
2013    4       7       0.2143163       56.17903
2013    5       0       0.1673445       46.12251
2013    5       1       0.1601851       44.17345
2013    5       2       0.1537742       42.52474
2013    5       3       0.1546033       42.998
2013    5       4       0.1547541       42.85204
2013    5       5       0.1432319       39.98567
2013    5       6       0.1879947       49.01976
2013    5       7       0.5250811       108.2777
2013    6       0       0.3696306       83.86495
2013    6       1       0.1598865       43.66897
2013    6       2       0.2555363       63.87003
2013    6       3       0.3025382       72.71212
2013    6       4       0.2881599       69.97757
2013    6       5       0.2565049       63.85427
2013    6       6       0.2603065       64.55746
2013    6       7       0.2673124       65.93085
2013    7       0       0.2357593       59.81458
2013    7       1       0.2290605       58.6059
2013    7       2       0.2550197       64.12272
2013    7       3       0.1937838       51.74362
2013    7       4       0.1479879       41.25424
2013    7       5       0.184218        48.19766
2013    7       6       0.1658631       44.76321
2013    7       7       0.1496874       41.71796
2013    8       0       0.1358941       38.59402
2013    8       1       0.1113755       33.14501
2013    8       2       0.1171492       34.65331
2013    8       3       0.1476791       41.66749
2013    8       4       0.2085179       54.91278
2013    8       5       0.2839078       70.02336
2013    8       6       0.39228         88.62229
2013    8       7       0.3894905       88.08152
2013    9       0       0.4149165       91.86925
2013    9       1       0.3858132       87.14408
2013    9       2       0.3298005       77.58536
2013    9       3       0.2983364       71.62162
2013    9       4       0.3154744       74.19972
2013    9       5       0.4870213       102.0625
2013    9       6       0.8459805       149.4247
2013    9       7       0.7286836       135.7325
2013    10      0       0.7676784       141.4317
2013    10      1       0.796024        145.6825
2013    10      2       0.8435483       151.3688
2013    10      3       0.459391        100.6986
2013    10      4       0.2498165       63.25503
2013    10      5       0.205777        54.05727
2013    10      6       0.2348938       59.95198
2013    10      7       0.2709681       67.17265
2013    11      0       0.1888071       50.24432
2013    11      1       0.1458557       40.86746
2013    11      2       0.1625329       44.28839
2013    11      3       0.2175136       54.8729
2013    11      4       0.2235203       55.86703
2013    11      5       0.2351715       58.15533
2013    11      6       0.2383179       59.0396
2013    11      7       0.2367178       59.27862
2013    12      0       0.1661362       45.14831
2013    12      1       0.1169582       34.27027
2013    12      2       0.1047683       31.40398
2013    12      3       0.111782        33.02508
2013    12      4       0.1178697       34.39134
2013    12      5       0.1573978       42.70474
2013    12      6       0.2223191       55.89525
2013    12      7       0.2368216       59.6107
2013    13      0       0.3405133       79.64229
2013    13      1       0.4473322       98.43169
2013    13      2       0.6154241       123.5309
2013    13      3       0.7725783       143.9778
2013    13      4       0.9494826       163.4582
2013    13      5       0.9395917       162.7754
2013    13      6       1.065765        174.3052
2013    13      7       1.014584        169.747
2013    14      0       0.6346456       128.254
2013    14      1       0.4252608       96.38704
2013    14      2       0.4088828       93.36572
2013    14      3       0.4259335       96.00048
2013    14      4       0.3698571       86.76496
2013    14      5       0.2687818       67.46256
2013    14      6       0.3135129       76.03823
2013    14      7       0.2836062       70.65373
2013    15      0       0.2331028       60.2348
2013    15      1       0.2240779       58.02866
2013    15      2       0.2032758       53.7939
2013    15      3       0.1851941       50.04236
2013    15      4       0.1661437       45.9951
2013    15      5       0.1458288       41.71394
2013    15      6       0.1527192       43.07474
2013    15      7       0.1291186       37.71448
2013    16      0       0.0995006       30.69151
2013    16      1       0.1073746       32.41026
2013    16      2       0.1258545       36.84735
2013    16      3       0.1302224       37.94377
2013    16      4       0.1320753       38.10862
2013    16      5       0.121209        35.4192
2013    16      6       0.124523        36.17476
2013    16      7       0.1247282       36.28793
2013    17      0       0.1164651       34.67846
2013    17      1       0.1106096       33.53358
2013    17      2       0.1101323       33.36309
2013    17      3       0.1057653       32.26811
2013    17      4       0.1009626       30.78628
2013    17      5       0.1084992       32.35794
2013    17      6       0.112559        33.11093
2013    17      7       0.1185295       34.6102
2013    18      0       0.122406        35.74877
2013    18      1       0.1211613       35.38575
2013    18      2       0.1128032       33.35473
2013    18      3       0.1002548       30.40102
2013    18      4       0.09426397      29.08422
2013    18      5       0.09598305      29.44128
2013    18      6       0.09926241      30.38727
2013    18      7       0.122428        35.71824
2013    19      0       0.1275147       37.09866
2013    19      1       0.137482        39.79008
2013    19      2       0.1463696       42.05089
2013    19      3       0.185409        50.85898
2013    19      4       0.2198917       58.36031
2013    19      5       0.2490882       64.30676
2013    19      6       0.2861421       71.4625
2013    19      7       0.3563802       84.76484
2013    20      0       0.3340243       80.81471
2013    20      1       0.2208102       58.23028
2013    20      2       0.2086117       55.5649
2013    20      3       0.1667618       46.10241
2013    20      4       0.2238253       57.66674
2013    20      5       0.2458038       62.71902
2013    20      6       0.2691346       67.10406
2013    20      7       0.2457491       62.39018
2013    21      0       0.2692139       66.95451
2013    21      1       0.2975318       72.60092
2013    21      2       0.3045757       74.13078
2013    21      3       0.3229005       77.44624
2013    21      4       0.3031719       73.66575
2013    21      5       0.2859543       70.13421
2013    21      6       0.3394062       79.79736
2013    21      7       0.3595388       83.47493
2013    22      0       0.3310625       78.462
2013    22      1       0.262267        65.61088
2013    22      2       0.2236385       57.84302
2013    22      3       0.2012383       52.98696
2013    22      4       0.1911203       50.73571
2013    22      5       0.2230191       57.29465
2013    22      6       0.2482814       62.43616
2013    22      7       0.263921        65.40218
2013    23      0       0.261164        64.65858
2013    23      1       0.2590311       64.08097
2013    23      2       0.254548        62.78488
2013    23      3       0.2378639       59.55427
2013    23      4       0.2443673       61.0129
2013    23      5       0.2259281       57.51645
2013    23      6       0.1875716       49.81543
2013    23      7       0.1797406       48.14255
2013    24      0       0.1862028       49.43461
2013    24      1       0.2096981       54.34539
2013    24      2       0.2350322       59.93199
2013    24      3       0.2612088       65.1665
2013    24      4       0.2712586       67.1759
2013    24      5       0.2969474       71.75265
2013    24      6       0.2915602       70.70716
2013    24      7       0.2794734       68.38338
2013    25      0       0.2461449       61.642
2013    25      1       0.2411703       60.53571
2013    25      2       0.2891059       69.88228
2013    25      3       0.3915795       88.59773
2013    25      4       0.4760616       102.7394
2013    25      5       0.5044985       107.1575
2013    25      6       0.5563441       114.7117
2013    25      7       0.5663588       115.9523
2013    26      0       0.5397507       112.4453
2013    26      1       0.629834        126.0877
2013    26      2       0.9404445       163.3212
2013    26      3       0.8151678       149.216
2013    26      4       0.6001367       121.067
2013    26      5       0.3402991       79.58385
2013    26      6       0.3391211       78.32492
2013    26      7       0.4690001       99.6505
2013    27      0       0.5644456       114.0665
2013    27      1       0.318681        74.83424
2013    27      2       0.2885707       68.97581
2013    27      3       0.2709521       65.55748
2013    27      4       0.2675838       65.13173
2013    27      5       0.2786732       67.51015
2013    27      6       0.4169036       91.71262
2013    27      7       0.5253549       109.8338
2013    28      0       0.5076478       108.4957
2013    28      1       0.47679         103.6329
2013    28      2       0.4785958       103.4395
2013    28      3       0.5157115       108.6469
2013    28      4       0.5482275       112.5052
2013    28      5       0.6340244       123.9861
2013    28      6       0.5759881       115.7773
2013    28      7       0.4222847       92.65151
2013    29      0       0.3671904       84.35655
2013    29      1       0.3922648       88.96993
2013    29      2       0.4841042       103.7273
2013    29      3       0.5659027       116.5876
2013    29      4       0.6459539       128.364
2013    29      5       0.4856068       104.6446
2013    29      6       0.3792868       86.57067
2013    29      7       0.4046592       90.85699
2013    30      0       0.3534886       82.26046
2013    30      1       0.2643404       66.03139
2013    30      2       0.2275409       58.745
2013    30      3       0.1925838       51.40961
2013    30      4       0.1784678       48.32805
2013    30      5       0.2027951       53.21289
2013    30      6       0.2368064       59.87608
2013    30      7       0.2701238       66.37463
2014    1       0       0.2379699       60.05212
2014    1       1       0.2140174       55.42435
2014    1       2       0.2184878       56.57713
2014    1       3       0.2499097       62.70799
2014    1       4       0.267032        66.01232
2014    1       5       0.3042642       73.11105
2014    1       6       0.3848424       87.54667
2014    1       7       0.4444288       97.19947
2014    2       0       0.4088751       90.98947
2014    2       1       0.3465515       80.31624
2014    2       2       0.3391882       79.15199
2014    2       3       0.279378        68.77774
2014    2       4       0.1990514       53.23153
2014    2       5       0.1758475       48.34271
2014    2       6       0.1595603       44.69391
2014    2       7       0.1534442       43.28364
2014    3       0       0.108908        32.97133
2014    3       1       0.09999228      30.43682
2014    3       2       0.128759        36.88929
2014    3       3       0.1749273       46.78064
2014    3       4       0.1675754       45.51427
2014    3       5       0.1579748       43.58022
2014    3       6       0.1382572       39.30144
2014    3       7       0.1301855       37.55384
2014    4       0       0.1230606       35.9367
2014    4       1       0.1345231       38.35141
2014    4       2       0.1736236       46.72198
2014    4       3       0.2193154       56.27168
2014    4       4       0.302451        72.49383
2014    4       5       0.3805011       86.97056
2014    4       6       0.4248056       94.66846
2014    4       7       0.4428896       97.69156
2014    5       0       0.415591        93.54512
2014    5       1       0.3844343       88.33838
2014    5       2       0.3566884       83.92574
2014    5       3       0.3747127       87.09076
2014    5       4       0.3678035       85.60038
2014    5       5       0.3578392       83.60527
2014    5       6       0.3618282       84.49087
2014    5       7       0.3785685       87.67914
2014    6       0       0.3838757       88.55305
2014    6       1       0.3773656       87.55114
2014    6       2       0.3616517       85.19942
2014    6       3       0.3498616       83.1624
2014    6       4       0.4172956       94.99825
2014    6       5       0.5953613       122.7846
2014    6       6       0.6823058       134.342
2014    6       7       0.670607        132.5141
2014    7       0       0.4845487       106.0591
2014    7       1       0.4175298       94.85066
2014    7       2       0.2955362       72.17748
2014    7       3       0.2066111       53.76393
2014    7       4       0.170384        45.8474
2014    7       5       0.2107934       53.94964
2014    7       6       0.4477387       96.20898
2014    7       7       0.6432589       124.1835
2014    8       0       0.3783623       84.39297
2014    8       1       0.2041379       52.93079
2014    8       2       0.2336451       59.5269
2014    8       3       0.3160988       76.18179
2014    8       4       0.3156153       76.19717
2014    8       5       0.3885869       89.19969
2014    8       6       0.4855491       105.5825
2014    8       7       0.4885668       106.0102
2014    9       0       0.4633387       102.152
2014    9       1       0.4819058       105.1492
2014    9       2       0.5168283       110.2724
2014    9       3       0.5912712       121.2669
2014    9       4       0.6342645       127.0986
2014    9       5       0.6893122       133.8786
2014    9       6       0.810677        148.0951
2014    9       7       0.9179757       159.3585
2014    10      0       0.9247346       159.2766
2014    10      1       0.7938225       144.338
2014    10      2       0.5606396       114.2447
2014    10      3       0.2950233       70.79077
2014    10      4       0.1297715       37.34492
2014    10      5       0.1062618       32.11278
2014    10      6       0.105605        32.01442
2014    10      7       0.1144477       33.99221
2014    11      0       0.09536842      29.34861
2014    11      1       0.1263788       35.64891
2014    11      2       0.104832        31.45397
2014    11      3       0.1535237       41.79316
2014    11      4       0.5131904       106.415
2014    11      5       0.6854916       131.959
2014    11      6       0.729132        137.7538
2014    11      7       0.4819223       104.1096
2014    12      0       0.2240119       57.26597
2014    12      1       0.1303207       36.65839
2014    12      2       0.1382213       38.16312
2014    12      3       0.1418363       39.2117
2014    12      4       0.1589831       42.92283
2014    12      5       0.1981906       51.36054
2014    12      6       0.2614495       63.98396
2014    12      7       0.2902183       70.55319
2014    13      0       0.2680638       66.85772
2014    13      1       0.2897265       70.92138
2014    13      2       0.3010475       73.49291
2014    13      3       0.2886294       71.40697
2014    13      4       0.2402543       61.73245
2014    13      5       0.2752285       68.82504
2014    13      6       0.3369263       80.33498
2014    13      7       0.3583346       83.06368
2014    14      0       0.4331718       94.85975
2014    14      1       0.5263752       111.1554
2014    14      2       0.3221007       78.05527
2014    14      3       0.1979496       53.08988
2014    14      4       0.1871364       49.78012
2014    14      5       0.3255246       77.06726
2014    14      6       0.3983413       90.93379
2014    14      7       0.493604        107.0823
2014    15      0       0.3597537       85.2211
2014    15      1       0.3237753       78.79752
2014    15      2       0.3326984       80.35916
2014    15      3       0.374785        88.06474
2014    15      4       0.3684377       87.2008
2014    15      5       0.3472313       83.3863
2014    15      6       0.3707897       87.63295
2014    15      7       0.4074505       93.68973
2014    16      0       0.345765        82.36223
2014    16      1       0.2964082       72.50331
2014    16      2       0.314665        74.6861
2014    16      3       0.327973        76.66857
2014    16      4       0.4180404       93.03809
2014    16      5       0.2681609       66.97239
2014    16      6       0.1858125       50.15725
2014    16      7       0.1991755       51.82829
2014    17      0       0.2094749       54.0387
2014    17      1       0.2985305       70.97489
2014    17      2       0.3115296       74.56704
2014    17      3       0.4914021       103.8392
2014    17      4       0.5984672       119.3771
2014    17      5       0.4973428       105.1845
2014    17      6       0.3661365       84.71826
2014    17      7       0.2387537       59.99729
2014    18      0       0.2134812       54.98401
2014    18      1       0.2494571       61.92447
2014    18      2       0.2653161       65.44229
2014    18      3       0.3203383       75.96143
2014    18      4       0.4929907       104.9265
2014    18      5       0.7222656       136.1653
2014    18      6       0.8689655       153.2905
2014    18      7       0.8811406       155.4065
2014    19      0       0.5061163       108.7895
2014    19      1       0.1604103       44.81357
2014    19      2       0.1272934       37.27018
2014    19      3       0.1199779       34.86281
2014    19      4       0.1622036       43.38319
2014    19      5       0.2631692       63.97745
2014    19      6       0.3059039       73.52376
2014    19      7       0.3376909       79.79284
2014    20      0       0.3822445       87.82546
2014    20      1       0.48069         103.4734
2014    20      2       0.3457449       80.44929
2014    20      3       0.3447123       79.51072
2014    20      4       0.2211967       55.77989
2014    20      5       0.2231123       55.8879
2014    20      6       0.2576376       63.03467
2014    20      7       0.2765228       67.04488
2014    21      0       0.2957854       71.98679
2014    21      1       0.2966572       73.0287
2014    21      2       0.2355731       60.75928
2014    21      3       0.1854313       49.97175
2014    21      4       0.137498        39.28802
2014    21      5       0.1148894       33.9738
2014    21      6       0.1285814       37.094
2014    21      7       0.135362        38.81907
2014    22      0       0.1129041       33.73713
2014    22      1       0.1134661       33.57083
2014    22      2       0.1589495       43.88914
2014    22      3       0.3129547       75.7004
2014    22      4       0.3626773       84.92225
2014    22      5       0.2771132       67.999
2014    22      6       0.2515169       62.60021
2014    22      7       0.261733        65.25999
2014    23      0       0.2850644       69.80531
2014    23      1       0.270276        66.62759
2014    23      2       0.3145804       75.24329
2014    23      3       0.366329        84.85304
2014    23      4       0.3794173       87.02297
2014    23      5       0.3373393       79.50217
2014    23      6       0.335439        79.07827
2014    23      7       0.341405        80.27223
2014    24      0       0.2983456       72.34765
2014    24      1       0.2759363       68.25625
2014    24      2       0.2672281       66.63757
2014    24      3       0.2878557       70.55698
2014    24      4       0.28182         69.3884
2014    24      5       0.2727603       67.63708
2014    24      6       0.2589568       64.82692
2014    24      7       0.2367247       60.32217
2014    25      0       0.2048619       53.84372
2014    25      1       0.2138853       55.53474
2014    25      2       0.2415387       60.91753
2014    25      3       0.2652311       65.59121
2014    25      4       0.2799044       68.44168
2014    25      5       0.2853456       69.52739
2014    25      6       0.2901629       69.98295
2014    25      7       0.3167067       74.53246
2014    26      0       0.3364133       78.19069
2014    26      1       0.3632476       83.5129
2014    26      2       0.4027078       90.58305
2014    26      3       0.325598        77.10093
2014    26      4       0.271021        66.83948
2014    26      5       0.2293655       58.94706
2014    26      6       0.2440028       61.5467
2014    26      7       0.2341744       59.63717
2014    27      0       0.2758486       67.03001
2014    27      1       0.3623702       81.89967
2014    27      2       0.3512208       80.06026
2014    27      3       0.2239793       56.92709
2014    27      4       0.1564246       43.10854
2014    27      5       0.1348806       38.44466
2014    27      6       0.140548        39.48071
2014    27      7       0.1590212       43.11211
2014    28      0       0.1412209       39.40692
2014    28      1       0.1485611       41.00912
2014    28      2       0.1501591       41.08635
2014    28      3       0.1527321       41.34028
2014    28      4       0.1498221       40.57397
2014    28      5       0.1408796       38.95461
2014    28      6       0.135193        38.14892
2014    28      7       0.1295599       36.82873
2014    29      0       0.1184764       34.19574
2014    29      1       0.1134299       32.95543
2014    29      2       0.126346        35.57597
2014    29      3       0.161539        42.81775
2014    29      4       0.1827189       47.35782
2014    29      5       0.200376        51.25351
2014    29      6       0.1950399       50.20202
2014    29      7       0.1964399       50.36539
2014    30      0       0.1931574       49.84501
2014    30      1       0.187322        49.21198
2014    30      2       0.2105018       54.23731
2014    30      3       0.2090309       54.19524
2014    30      4       0.2211762       56.18524
2014    30      5       0.3230668       75.02666
2014    30      6       0.5496019       111.6187
2014    30      7       0.7447376       137.6994
2015    1       0       0.2082415       55.13373
2015    1       1       0.2053148       54.50301
2015    1       2       0.3233891       77.63002
2015    1       3       0.3980461       91.46149
2015    1       4       0.3928165       91.08294
2015    1       5       0.3650333       86.37464
2015    1       6       0.3624371       85.72403
2015    1       7       0.3874992       90.42152
2015    2       0       0.3663311       86.73121
2015    2       1       0.297863        74.06918
2015    2       2       0.2587988       66.2665
2015    2       3       0.2660921       67.5428
2015    2       4       0.2821236       70.69329
2015    2       5       0.3091209       76.01955
2015    2       6       0.3515373       83.89306
2015    2       7       0.3500165       83.5052
2015    3       0       0.2606606       66.16501
2015    3       1       0.2185888       57.32237
2015    3       2       0.2480218       63.21787
2015    3       3       0.2766434       68.73287
2015    3       4       0.3152334       76.04247
2015    3       5       0.4153476       93.4626
2015    3       6       0.49742         106.6242
2015    3       7       0.4895761       105.6087
2015    4       0       0.3664676       84.90701
2015    4       1       0.3158766       75.41072
2015    4       2       0.3001975       72.38998
2015    4       3       0.2526352       63.48501
2015    4       4       0.1990486       52.67074
2015    4       5       0.1792912       48.49794
2015    4       6       0.1775391       48.23972
2015    4       7       0.2033427       53.54747
2015    5       0       0.2042867       53.65555
2015    5       1       0.2129216       55.83633
2015    5       2       0.2113494       55.66558
2015    5       3       0.2049105       54.25997
2015    5       4       0.2150676       56.17642
2015    5       5       0.2245191       57.9505
2015    5       6       0.229394        58.85528
2015    5       7       0.2684134       66.42493
2015    6       0       0.2773843       68.07099
2015    6       1       0.2783564       68.43717
2015    6       2       0.2483553       63.04418
2015    6       3       0.2836628       69.05587
2015    6       4       0.2454872       61.97355
2015    6       5       0.2331585       59.2398
2015    6       6       0.2064199       53.68613
2015    6       7       0.2716558       65.81888
2015    7       0       0.3520591       80.12735
2015    7       1       0.4269233       93.06223
2015    7       2       0.5476438       112.2507
2015    7       3       0.5217874       108.8367
2015    7       4       0.3791485       86.74027
2015    7       5       0.325587        77.6099
2015    7       6       0.2532168       63.44811
2015    7       7       0.2559882       63.60224
2015    8       0       0.3135838       74.16797
2015    8       1       0.4227647       93.18867
2015    8       2       0.4427138       96.27088
2015    8       3       0.3843381       86.74422
2015    8       4       0.4327388       95.33212
2015    8       5       0.4743756       102.6824
2015    8       6       0.4725422       103.6295
2015    8       7       0.4325873       97.74723
2015    9       0       0.3116736       76.14376
2015    9       1       0.166637        45.85099
2015    9       2       0.1714403       46.07007
2015    9       3       0.2095317       53.99807
2015    9       4       0.2194459       56.04311
2015    9       5       0.2516327       62.59029
2015    9       6       0.2320275       58.94271
2015    9       7       0.236945        60.24431
2015    10      0       0.2553905       64.43047
2015    10      1       0.1900803       51.1249
2015    10      2       0.1681871       46.33746
2015    10      3       0.1786319       48.34969
2015    10      4       0.1949338       51.984
2015    10      5       0.1779742       48.26375
2015    10      6       0.1606007       44.34533
2015    10      7       0.1446228       40.85156
2015    11      0       0.1252199       36.54425
2015    11      1       0.1113229       33.41867
2015    11      2       0.1241628       36.45994
2015    11      3       0.128825        37.51415
2015    11      4       0.123126        36.11401
2015    11      5       0.1222269       36.13074
2015    11      6       0.1265884       37.18719
2015    11      7       0.1212216       35.88439
2015    12      0       0.1120615       33.7583
2015    12      1       0.1082606       32.84468
2015    12      2       0.1044444       31.86519
2015    12      3       0.1233338       36.09662
2015    12      4       0.1745873       47.52183
2015    12      5       0.2668281       66.54513
2015    12      6       0.2916881       71.08241
2015    12      7       0.2541716       63.81347
2015    13      0       0.1920475       51.24045
2015    13      1       0.1660374       45.41656
2015    13      2       0.1802099       48.0892
2015    13      3       0.1629315       44.59051
2015    13      4       0.1612242       44.05897
2015    13      5       0.1849389       48.73803
2015    13      6       0.1860839       49.65347
2015    13      7       0.2012291       52.94754
2015    14      0       0.1875398       50.05145
2015    14      1       0.1959679       51.57402
2015    14      2       0.2167016       55.75978
2015    14      3       0.2727582       66.7575
2015    14      4       0.2795997       68.4032
2015    14      5       0.332707        78.40609
2015    14      6       0.3945447       89.14177
2015    14      7       0.4705279       101.9496
2015    15      0       0.4458765       97.95627
2015    15      1       0.3914796       88.73066
2015    15      2       0.4598983       99.64252
2015    15      3       0.5680806       116.3502
2015    15      4       0.4646874       100.7491
2015    15      5       0.4385478       96.05128
2015    15      6       0.5383796       110.6812
2015    15      7       0.5765671       115.9658
2015    16      0       0.6691939       128.0749
2015    16      1       0.8000873       144.0531
2015    16      2       0.7980016       144.5359
2015    16      3       0.4245947       94.25403
2015    16      4       0.1764162       47.86535
2015    16      5       0.1113613       33.27614
2015    16      6       0.112001        33.259
2015    16      7       0.1069194       31.81215
2015    17      0       0.127773        36.6384
2015    17      1       0.1568322       43.14054
2015    17      2       0.2193272       55.88029
2015    17      3       0.279381        67.90332
2015    17      4       0.3853014       87.19373
2015    17      5       0.5229964       109.9219
2015    17      6       0.5834201       118.7947
2015    17      7       0.5798561       118.3682
2015    18      0       0.4714384       103.1894
2015    18      1       0.4752659       103.9056
2015    18      2       0.4570297       101.0063
2015    18      3       0.4299991       96.4645
2015    18      4       0.3946284       90.18177
2015    18      5       0.3650369       84.78106
2015    18      6       0.3312424       78.48483
2015    18      7       0.4092917       92.17819
2015    19      0       0.4620717       101.1506
2015    19      1       0.4980743       106.4486
2015    19      2       0.5283471       110.4511
2015    19      3       0.5414335       111.5756
2015    19      4       0.5244241       108.626
2015    19      5       0.5694749       114.9148
2015    19      6       0.6186439       121.3342
2015    19      7       0.6482537       125.0962
2015    20      0       0.6514703       125.6185
2015    20      1       0.6206134       121.5071
2015    20      2       0.675002        128.827
2015    20      3       0.9031784       155.6508
2015    20      4       0.9639759       162.4507
2015    20      5       0.949123        160.8948
2015    20      6       0.7423869       137.1688
2015    20      7       0.3920857       86.45234
2015    21      0       0.3230672       75.40596
2015    21      1       0.3340113       78.52046
2015    21      2       0.4488108       98.69087
2015    21      3       0.4988558       106.3534
2015    21      4       0.5212381       109.5167
2015    21      5       0.5616225       115.238
2015    21      6       0.5598967       115.2333
2015    21      7       0.4903545       105.2547
2015    22      0       0.3834417       88.26402
2015    22      1       0.3024128       73.71064
2015    22      2       0.2415011       61.64088
2015    22      3       0.1682403       46.22565
2015    22      4       0.1215782       35.87328
2015    22      5       0.1272463       37.30989
2015    22      6       0.1352696       39.0173
2015    22      7       0.2008397       52.84535
2015    23      0       0.2222724       57.3469
2015    23      1       0.2554479       64.123
2015    23      2       0.2822373       69.68978
2015    23      3       0.26103         65.90291
2015    23      4       0.2019072       53.94146
2015    23      5       0.1659442       46.16853
2015    23      6       0.140975        40.64029
2015    23      7       0.1223481       36.41734
2015    24      0       0.09282543      29.41449
2015    24      1       0.08737079      28.13144
2015    24      2       0.09989263      31.19214
2015    24      3       0.1050784       32.42145
2015    24      4       0.1030403       31.84546
2015    24      5       0.1139434       34.34264
2015    24      6       0.113259        34.17282
2015    24      7       0.1128661       34.15577
2015    25      0       0.1193338       35.7457
2015    25      1       0.1308377       38.49818
2015    25      2       0.1158548       35.03072
2015    25      3       0.08919271      28.7261
2015    25      4       0.09990134      31.32517
2015    25      5       0.272481        68.72568
2015    25      6       0.4765476       104.8024
2015    25      7       0.585586        120.3981
2015    26      0       0.8197765       149.594
2015    26      1       0.8615596       155.293
2015    26      2       0.7010676       137.3468
2015    26      3       0.7164915       139.0028
2015    26      4       0.6966926       136.8725
2015    26      5       0.6461677       130.3271
2015    26      6       0.5642024       118.5436
2015    26      7       0.491448        106.847
2015    27      0       0.4652742       102.3343
2015    27      1       0.3974743       91.59202
2015    27      2       0.3227484       78.05291
2015    27      3       0.2603151       65.58792
2015    27      4       0.1891715       50.55158
2015    27      5       0.1534896       43.20267
2015    27      6       0.1525165       43.023
2015    27      7       0.1509503       42.68297
2015    28      0       0.1336534       38.87345
2015    28      1       0.138182        39.68658
2015    28      2       0.1778782       48.1017
2015    28      3       0.2574661       63.62272
2015    28      4       0.2856465       69.37996
2015    28      5       0.3940458       89.77033
2015    28      6       0.5142981       110.0149
2015    28      7       0.4674076       102.8988
2015    29      0       0.4425711       98.62442
2015    29      1       0.3891401       89.18457
2015    29      2       0.3570023       82.84346
2015    29      3       0.4274018       96.15274
2015    29      4       0.4114848       93.6637
2015    29      5       0.312891        75.62935
2015    29      6       0.3840428       88.1169
2015    29      7       0.3900338       89.79741
2015    30      0       0.3673412       86.23657
2015    30      1       0.3066143       74.64632
2015    30      2       0.2723411       67.97482
2015    30      3       0.2503562       63.34667
2015    30      4       0.1995703       52.67907
2015    30      5       0.1693691       46.19918
2015    30      6       0.1755133       47.4565
2015    30      7       0.1966474       51.45241
2016    1       0       0.8814906       155.2037
2016    1       1       0.6188725       123.7421
2016    1       2       0.5544805       114.391
2016    1       3       0.6081324       122.0197
2016    1       4       0.5383409       112.0823
2016    1       5       0.5136353       108.6859
2016    1       6       0.6356575       125.8199
2016    1       7       0.7615926       141.0815
2016    2       0       0.8205944       147.4019
2016    2       1       0.6406236       126.3696
2016    2       2       0.4954982       106.3976
2016    2       3       0.379851        87.382
2016    2       4       0.3349556       78.37102
2016    2       5       0.3866902       86.9528
2016    2       6       0.3348055       78.53382
2016    2       7       0.2930402       70.66215
2016    3       0       0.2430211       61.12248
2016    3       1       0.2259426       57.68843
2016    3       2       0.2345543       59.25506
2016    3       3       0.2221016       56.4804
2016    3       4       0.2074272       53.61525
2016    3       5       0.2458989       61.23108
2016    3       6       0.3631931       83.30619
2016    3       7       0.3449145       80.27783
2016    4       0       0.2515499       62.72815
2016    4       1       0.2248947       57.58572
2016    4       2       0.2195938       56.50764
2016    4       3       0.1958383       51.40259
2016    4       4       0.1838691       48.93051
2016    4       5       0.1906637       50.38622
2016    4       6       0.2288546       58.05377
2016    4       7       0.3085367       73.35521
2016    5       0       0.35085         81.19178
2016    5       1       0.3604638       82.85924
2016    5       2       0.4385697       95.8414
2016    5       3       0.6525341       126.9516
2016    5       4       0.9076334       157.4056
2016    5       5       0.8726152       154.4703
2016    5       6       0.8096113       147.1715
2016    5       7       0.6247225       124.6487
2016    6       0       0.6182073       123.782
2016    6       1       0.4263599       95.24128
2016    6       2       0.3064326       73.88692
2016    6       3       0.2479725       61.48832
2016    6       4       0.2792663       67.88135
2016    6       5       0.3119817       74.45657
2016    6       6       0.2994869       71.96175
2016    6       7       0.2967621       71.53597
2016    7       0       0.2961918       71.24705
2016    7       1       0.366764        84.11151
2016    7       2       0.4267114       94.20096
2016    7       3       0.4638147       100.2204
2016    7       4       0.5611941       114.9762
2016    7       5       0.7076995       134.4307
2016    7       6       0.6686178       129.4376
2016    7       7       0.5369565       110.9275
2016    8       0       0.3864049       87.0257
2016    8       1       0.3201767       75.37986
2016    8       2       0.2478438       62.14572
2016    8       3       0.2125965       55.26529
2016    8       4       0.2224424       57.29213
2016    8       5       0.2143913       55.63631
2016    8       6       0.2379752       59.80823
2016    8       7       0.2453097       61.58658
2016    9       0       0.1583696       43.50189
2016    9       1       0.1459138       40.4647
2016    9       2       0.1401962       39.30522
2016    9       3       0.1239904       35.68113
2016    9       4       0.1057443       31.6022
2016    9       5       0.1002078       30.50197
2016    9       6       0.09418148      29.34241
2016    9       7       0.09865191      30.23544
2016    10      0       0.0882069       27.60781
2016    10      1       0.07220115      23.94873
2016    10      2       0.07598088      24.70526
2016    10      3       0.08924453      27.4636
2016    10      4       0.09594246      28.80465
2016    10      5       0.1304553       36.16256
2016    10      6       0.1535145       41.04332
2016    10      7       0.2537928       61.27349
2016    11      0       0.2573151       62.58106
2016    11      1       0.2640616       64.04638
2016    11      2       0.3084374       72.48429
2016    11      3       0.4303174       94.0987
2016    11      4       0.338389        79.11676
2016    11      5       0.3774899       86.06348
2016    11      6       0.4059764       90.82059
2016    11      7       0.427534        93.95629
2016    12      0       0.4726381       101.227
2016    12      1       0.4828432       102.8371
2016    12      2       0.5600392       113.9384
2016    12      3       0.6224161       122.6369
2016    12      4       0.6218282       122.3775
2016    12      5       0.4629181       99.34284
2016    12      6       0.4223702       93.0988
2016    12      7       0.4410153       96.20276
2016    13      0       0.3778088       86.32827
2016    13      1       0.3712911       85.10926
2016    13      2       0.4005014       90.29878
2016    13      3       0.6274865       123.5858
2016    13      4       0.8827948       155.1278
2016    13      5       1.035966        170.0774
2016    13      6       1.176046        183.2738
2016    13      7       0.9394028       162.695
2016    14      0       0.7619555       142.9447
2016    14      1       0.9363465       162.8739
2016    14      2       0.9360817       162.9464
2016    14      3       0.8954105       157.6527
2016    14      4       1.172845        183.2381
2016    14      5       1.319544        194.8092
2016    14      6       1.423542        201.4391
2016    14      7       1.352318        196.9713
2016    15      0       0.8402499       151.8658
2016    15      1       0.8469596       152.0092
2016    15      2       0.8917507       156.596
2016    15      3       0.8945821       155.4081
2016    15      4       0.8196148       147.2101
2016    15      5       0.7972255       144.3824
2016    15      6       0.8892189       154.6682
2016    15      7       1.245843        187.3915
2016    16      0       1.06526         172.6106
2016    16      1       0.911519        158.6818
2016    16      2       0.6572064       129.4369
2016    16      3       0.6338778       126.0566
2016    16      4       0.8007935       147.3267
2016    16      5       0.9170844       159.9866
2016    16      6       0.9938339       167.1304
2016    16      7       1.252191        188.6251
2016    17      0       1.409921        200.2916
2016    17      1       1.316429        194.8176
2016    17      2       1.430916        202.2545
2016    17      3       1.153469        181.9397
2016    17      4       1.075839        174.5602
2016    17      5       1.050589        172.2807
2016    17      6       1.175474        183.1034
2016    17      7       1.126784        179.3772
2016    18      0       0.8094515       148.0604
2016    18      1       0.6998434       134.6341
2016    18      2       0.6269649       125.1429
2016    18      3       0.5802007       118.7993
2016    18      4       0.510455        108.6061
2016    18      5       0.4054247       91.00839
2016    18      6       0.4918227       104.3241
2016    18      7       0.3219718       76.25695
2016    19      0       0.1653925       45.34202
2016    19      1       0.1161396       34.42791
2016    19      2       0.08449399      26.95222
2016    19      3       0.08659172      27.30396
2016    19      4       0.1516345       42.31971
2016    19      5       0.1644299       45.0871
2016    19      6       0.1790949       48.11407
2016    19      7       0.1846557       49.3118
2016    20      0       0.2239702       57.10908
2016    20      1       0.3120229       74.22673
2016    20      2       0.3949651       89.62066
2016    20      3       0.4909517       105.5667
2016    20      4       0.6615358       129.5769
2016    20      5       0.8501663       152.7611
2016    20      6       0.800562        147.8366
2016    20      7       0.8654605       154.9846
2016    21      0       0.8438861       152.9358
2016    21      1       0.8269326       150.8182
2016    21      2       0.8010313       147.2128
2016    21      3       0.8652505       153.9471
2016    21      4       0.945509        162.8984
2016    21      5       0.9799683       166.5198
2016    21      6       0.8015231       147.6267
2016    21      7       0.4936295       106.156
2016    22      0       0.3917139       88.86079
2016    22      1       0.5090883       107.3315
2016    22      2       0.5707413       116.4554
2016    22      3       0.6770546       130.4437
2016    22      4       0.7997848       145.1612
2016    22      5       0.9016575       156.5044
2016    22      6       1.002152        166.546
2016    22      7       0.8926899       156.0056
2016    23      0       0.9246018       159.2289
2016    23      1       1.09428         174.2358
2016    23      2       1.140915        179.265
2016    23      3       0.8945295       156.3465
2016    23      4       0.7177435       136.1835
2016    23      5       0.6148407       123.3255
2016    23      6       0.5898768       118.684
2016    23      7       0.7112081       134.5915
2016    24      0       0.6067093       121.6086
2016    24      1       0.3499219       80.61267
2016    24      2       0.279202        67.16385
2016    24      3       0.3972283       88.54342
2016    24      4       0.3977021       88.80073
2016    24      5       0.34151         78.47059
2016    24      6       0.38257         86.55383
2016    24      7       0.3056781       72.72494
2016    25      0       0.2265926       57.32349
2016    25      1       0.1840916       48.49728
2016    25      2       0.188052        49.1329
2016    25      3       0.16092         43.34794
2016    25      4       0.1627849       43.668
2016    25      5       0.1548448       41.98799
2016    25      6       0.1462412       40.32357
2016    25      7       0.25493         62.54263
2016    26      0       0.2599225       63.49368
2016    26      1       0.2245321       57.29037
2016    26      2       0.1755896       47.69361
2016    26      3       0.1561245       43.68618
2016    26      4       0.1434195       40.84557
2016    26      5       0.1194833       35.49992
2016    26      6       0.1215514       35.85432
2016    26      7       0.1211009       35.81432
2016    27      0       0.1249491       36.40903
2016    27      1       0.1461831       40.41559
2016    27      2       0.1767539       46.67222
2016    27      3       0.1834636       48.00784
2016    27      4       0.2314689       57.40198
2016    27      5       0.3793058       84.24336
2016    27      6       0.4927957       102.7945
2016    27      7       0.7183756       135.4314
2016    28      0       0.667346        129.3117
2016    28      1       0.6541801       127.9869
2016    28      2       0.8573914       151.258
2016    28      3       0.9101927       157.5449
2016    28      4       0.8980791       156.6336
2016    28      5       0.8738471       153.8421
2016    28      6       0.8474568       150.5665
2016    28      7       0.9554121       161.7865
2016    29      0       1.001904        167.1737
2016    29      1       0.9235904       159.7716
2016    29      2       0.7344611       138.7424
2016    29      3       0.5731328       117.1482
2016    29      4       0.6446191       127.1941
2016    29      5       0.5108399       108.7782
2016    29      6       0.54113         113.1603
2016    29      7       0.4999497       106.8531
2016    30      0       0.5109577       109.0163
2016    30      1       0.5239383       111.8033
2016    30      2       0.6080746       124.2582
2016    30      3       0.573124        119.421
2016    30      4       0.5334154       113.6109
2016    30      5       0.4322768       97.29822
2016    30      6       0.4832977       105.1438
2016    30      7       0.6529295       129.7091
2017    1       0       0.6178926       125.9713
2017    1       1       0.5302933       113.9158
2017    1       2       0.2898476       71.92441
2017    1       3       0.299475        73.84579
2017    1       4       0.3647226       85.96358
2017    1       5       0.5596278       117.4464
2017    1       6       0.9904492       168.4891
2017    1       7       0.9715009       166.5706
2017    2       0       0.6463321       129.9685
2017    2       1       0.4027018       92.53831
2017    2       2       0.3071664       74.73926
2017    2       3       0.2658831       66.28714
2017    2       4       0.2371486       60.9102
2017    2       5       0.2284377       59.17899
2017    2       6       0.325322        78.27172
2017    2       7       0.3821766       88.60756
2017    3       0       0.3159455       75.67469
2017    3       1       0.3447511       80.69826
2017    3       2       0.3245822       76.95654
2017    3       3       0.299709        71.79883
2017    3       4       0.2806878       68.22799
2017    3       5       0.3023088       72.65358
2017    3       6       0.4026084       90.5616
2017    3       7       0.4206719       93.24274
2017    4       0       0.3697961       84.10391
2017    4       1       0.4777097       101.9754
2017    4       2       0.477926        102.3576
2017    4       3       0.4388226       96.35164
2017    4       4       0.4740133       101.9705
2017    4       5       0.5608121       114.6233
2017    4       6       0.6900941       132.3945
2017    4       7       0.8027022       146.0822
2017    5       0       0.5723012       116.8889
2017    5       1       0.4485378       98.4615
2017    5       2       0.4096488       92.23646
2017    5       3       0.3408243       80.57207
2017    5       4       0.2669889       66.88558
2017    5       5       0.2699871       67.24132
2017    5       6       0.3253239       77.90764
2017    5       7       0.3170747       76.32868
2017    6       0       0.2764341       68.54728
2017    6       1       0.2340374       59.999
2017    6       2       0.1920342       51.1502
2017    6       3       0.1722965       47.02285
2017    6       4       0.1780231       48.52965
2017    6       5       0.1692633       46.79035
2017    6       6       0.2503412       63.30501
2017    6       7       0.4848833       105.1329
2017    7       0       0.4710862       101.3178
2017    7       1       0.4862104       103.8672
2017    7       2       0.719736        135.0946
2017    7       3       0.5499176       113.7351
2017    7       4       0.4111095       92.07571
2017    7       5       0.3761951       85.99123
2017    7       6       0.5404651       111.8636
2017    7       7       0.5567663       114.3219
2017    8       0       0.3593568       82.95127
2017    8       1       0.2195529       55.76994
2017    8       2       0.1679287       45.08937
2017    8       3       0.1768829       47.4198
2017    8       4       0.1876738       49.79263
2017    8       5       0.314085        74.15012
2017    8       6       0.5416148       110.6839
2017    8       7       0.5987053       118.5875
2017    9       0       0.5411511       110.3741
2017    9       1       0.3127311       73.77158
2017    9       2       0.1981464       51.60474
2017    9       3       0.1915227       50.1035
2017    9       4       0.2111463       54.09519
2017    9       5       0.2152221       55.08344
2017    9       6       0.2782533       67.74429
2017    9       7       0.3541143       81.90449
2017    10      0       0.292933        71.17103
2017    10      1       0.2335652       59.75892
2017    10      2       0.2079481       54.4705
2017    10      3       0.2195764       56.90668
2017    10      4       0.2290168       59.04372
2017    10      5       0.2438234       62.21484
2017    10      6       0.2998959       73.52926
2017    10      7       0.3289077       79.20328
2017    11      0       0.229657        59.58986
2017    11      1       0.2135846       56.16213
2017    11      2       0.231598        59.78689
2017    11      3       0.2430072       61.96931
2017    11      4       0.2526385       63.98177
2017    11      5       0.270697        67.84538
2017    11      6       0.3094329       75.57388
2017    11      7       0.340645        81.6275
2017    12      0       0.3351911       80.83615
2017    12      1       0.2977856       73.78024
2017    12      2       0.2994789       73.95402
2017    12      3       0.3201616       77.96088
2017    12      4       0.3080246       75.73537
2017    12      5       0.3456426       82.518
2017    12      6       0.4867555       106.3035
2017    12      7       0.6017028       123.4213
2017    13      0       0.5580691       117.9303
2017    13      1       0.404882        93.62428
2017    13      2       0.3055191       75.07833
2017    13      3       0.2701994       67.92951
2017    13      4       0.2219149       58.09697
2017    13      5       0.2302503       60.08929
2017    13      6       0.3134709       76.50539
2017    13      7       0.4648324       102.6208
2017    14      0       0.3229737       78.11247
2017    14      1       0.2093641       55.25802
2017    14      2       0.1940816       51.75511
2017    14      3       0.2209285       57.1253
2017    14      4       0.2305357       58.47701
2017    14      5       0.2858021       68.79924
2017    14      6       0.4724672       102.59
2017    14      7       0.5834367       119.7537
2017    15      0       0.4449042       97.74606
2017    15      1       0.3710902       83.96358
2017    15      2       0.3641456       82.44169
2017    15      3       0.3782902       84.97068
2017    15      4       0.3940869       87.7133
2017    15      5       0.3562671       81.71004
2017    15      6       0.3716178       84.38061
2017    15      7       0.6621075       127.5265
2017    16      0       0.8527577       150.7706
2017    16      1       0.7252035       137.201
2017    16      2       0.731074        139.3125
2017    16      3       0.7412051       140.3749
2017    16      4       0.7048904       135.2479
2017    16      5       0.7733209       143.7688
2017    16      6       1.039854        170.6383
2017    16      7       1.125145        177.8457
2017    17      0       1.13352         178.547
2017    17      1       1.05177         172.4349
2017    17      2       1.062049        172.7749
2017    17      3       0.9557597       162.7881
2017    17      4       0.8051503       146.6567
2017    17      5       0.792995        145.718
2017    17      6       0.9911957       166.9478
2017    17      7       1.298365        191.8924
2017    18      0       1.2306          186.989
2017    18      1       1.207505        184.8584
2017    18      2       1.174176        182.4353
2017    18      3       1.107439        176.7479
2017    18      4       1.13893         179.3663
2017    18      5       1.165403        181.5203
2017    18      6       1.229718        186.6446
2017    18      7       1.071649        174.6516
2017    19      0       0.9515861       164.2667
2017    19      1       0.704475        137.1824
2017    19      2       0.4870095       106.5781
2017    19      3       0.6226917       124.1461
2017    19      4       0.9227561       161.1683
2017    19      5       0.9525417       164.6167
2017    19      6       1.090085        177.7591
2017    19      7       1.28265         192.7933
2017    20      0       1.188329        185.3032
2017    20      1       1.307912        194.5838
2017    20      2       1.498032        207.0006
2017    20      3       1.449393        204.6876
2017    20      4       1.285848        194.0383
2017    20      5       1.285729        193.7904
2017    20      6       1.173513        184.9469
2017    20      7       1.006134        170.3065
2017    21      0       1.157758        182.3061
2017    21      1       1.356476        196.6515
2017    21      2       0.8924418       157.705
2017    21      3       0.5051038       108.0649
2017    21      4       0.331523        78.43498
2017    21      5       0.419862        93.67068
2017    21      6       0.5121399       107.9824
2017    21      7       0.6452756       127.3389
2017    22      0       0.7013245       135.8344
2017    22      1       0.7186207       138.199
2017    22      2       0.7995584       147.1743
2017    22      3       0.8726603       155.1249
2017    22      4       0.9335867       161.2812
2017    22      5       0.7297216       139.1277
2017    22      6       0.5292192       112.5686
2017    22      7       0.6443391       129.0535
2017    23      0       0.5579586       116.903
2017    23      1       0.7547417       143.0538
2017    23      2       0.7176464       138.3072
2017    23      3       0.6573639       129.7672
2017    23      4       0.6845057       132.781
2017    23      5       0.8346908       149.6702
2017    23      6       0.8837207       154.3973
2017    23      7       0.7546327       140.2634
2017    24      0       0.4834286       104.6186
2017    24      1       0.4411317       97.65345
2017    24      2       0.4429678       96.95466
2017    24      3       0.4561342       98.42188
2017    24      4       0.4356957       96.14978
2017    24      5       0.5459047       112.6735
2017    24      6       0.7000995       132.9754
2017    24      7       0.8748825       152.4586
2017    25      0       0.9361556       159.217
2017    25      1       0.4253982       93.82271
2017    25      2       0.2143126       55.19375
2017    25      3       0.2578593       63.58059
2017    25      4       0.3692329       83.98753
2017    25      5       0.3092946       73.4237
2017    25      6       0.4489929       97.04225
2017    25      7       0.4083835       90.62174
2017    26      0       0.2860518       69.01788
2017    26      1       0.2505473       62.34904
2017    26      2       0.2782255       67.85811
2017    26      3       0.2338227       59.45511
2017    26      4       0.2039157       53.38581
2017    26      5       0.1833477       49.10609
2017    26      6       0.2315336       58.82401
2017    26      7       0.2510754       62.49025
2017    27      0       0.2460773       61.29513
2017    27      1       0.2953272       70.96754
2017    27      2       0.4263853       94.33148
2017    27      3       0.5129601       108.4442
2017    27      4       0.548847        113.4356
2017    27      5       0.5114021       108.2463
2017    27      6       0.4505796       99.41125
2017    27      7       0.5078014       108.5264
2017    28      0       0.5298661       112.3963
2017    28      1       0.4168057       94.1666
2017    28      2       0.3170971       76.21198
2017    28      3       0.2536484       63.86479
2017    28      4       0.2665966       66.50214
2017    28      5       0.2871235       71.03041
2017    28      6       0.3291156       79.129
2017    28      7       0.3611469       85.1659
2017    29      0       0.2673371       67.62752
2017    29      1       0.2126056       56.46965
2017    29      2       0.1679806       46.64659
2017    29      3       0.1764647       48.30208
2017    29      4       0.1780797       48.62407
2017    29      5       0.1905964       51.12967
2017    29      6       0.2834614       69.80591
2017    29      7       0.3318571       79.1941
2017    30      0       0.2514095       63.76936
2017    30      1       0.2147945       56.40963
2017    30      2       0.1906224       51.33722
2017    30      3       0.1700707       46.86218
2017    30      4       0.1465107       41.41889
2017    30      5       0.1713129       46.82624
2017    30      6       0.2440431       62.09076
2017    30      7       0.3158317       76.10855
2018    1       0       0.7489031       145.2196
2018    1       1       0.8787642       160.2745
2018    1       2       0.8655619       158.9618
2018    1       3       0.8835136       159.8896
2018    1       4       1.008638        173.1981
2018    1       5       1.275267        193.1224
2018    1       6       1.384456        199.7588
2018    1       7       1.15704         183.869
2018    2       0       1.016645        172.38
2018    2       1       1.081676        178.9996
2018    2       2       1.085209        179.0775
2018    2       3       0.9583627       167.0234
2018    2       4       0.8202284       152.4328
2018    2       5       0.8736277       157.1821
2018    2       6       1.056293        175.1529
2018    2       7       1.334559        196.5164
2018    3       0       0.9486399       165.6269
2018    3       1       0.7169279       139.9259
2018    3       2       0.6868816       135.7975
2018    3       3       0.5837564       121.7737
2018    3       4       0.4242417       96.80227
2018    3       5       0.4410859       99.3868
2018    3       6       0.6283674       127.5613
2018    3       7       0.873037        157.6253
2018    4       0       0.904405        161.7486
2018    4       1       0.8065411       150.931
2018    4       2       0.6978449       137.2439
2018    4       3       0.5799303       120.3285
2018    4       4       0.4894937       105.8665
2018    4       5       0.5576155       117.1957
2018    4       6       0.6147784       125.6142
2018    4       7       0.6432627       129.5156
2018    5       0       0.4590764       101.9964
2018    5       1       0.3027147       73.79579
2018    5       2       0.3392225       80.20793
2018    5       3       0.353072        82.55748
2018    5       4       0.3534498       82.74626
2018    5       5       0.3626965       84.85444
2018    5       6       0.6480095       129.4801
2018    5       7       1.015094        170.3801
2018    6       0       0.7830052       146.2206
2018    6       1       0.7386732       140.9465
2018    6       2       0.8769055       156.1817
2018    6       3       0.7207257       137.1836
2018    6       4       0.6702497       130.1903
2018    6       5       0.6627577       129.7068
2018    6       6       1.010759        167.9275
2018    6       7       1.032645        169.9602
2018    7       0       0.7317607       138.1746
2018    7       1       0.6192033       123.367
2018    7       2       0.5805431       117.9776
2018    7       3       0.5687825       116.7682
2018    7       4       0.6523271       129.0959
2018    7       5       0.6140784       124.9153
2018    7       6       0.6194735       125.9202
2018    7       7       0.6081037       124.7247
2018    8       0       0.428642        97.63805
2018    8       1       0.2905932       72.50279
2018    8       2       0.2054889       54.89845
2018    8       3       0.2330124       60.38076
2018    8       4       0.3613384       85.38437
2018    8       5       0.4308225       97.54867
2018    8       6       0.3620244       84.90373
2018    8       7       0.36775         85.71338
2018    9       0       0.3436715       81.50614
2018    9       1       0.3253965       77.9825
2018    9       2       0.2450777       62.49976
2018    9       3       0.2591419       65.12045
2018    9       4       0.2924583       72.04647
2018    9       5       0.357374        84.0781
2018    9       6       0.4468          99.64836
2018    9       7       0.4860562       106.0918
2018    10      0       0.3385771       80.56349
2018    10      1       0.3323774       79.17348
2018    10      2       0.3403213       80.10469
2018    10      3       0.3827717       86.92846
2018    10      4       0.4258476       93.94147
2018    10      5       0.7095455       135.459
2018    10      6       0.9166354       159.8051
2018    10      7       1.334253        194.6823
2018    11      0       1.133787        179.5358
2018    11      1       1.087802        175.8512
2018    11      2       0.6064667       122.7064
2018    11      3       0.4665458       101.3419
2018    11      4       0.4779065       103.3247
2018    11      5       0.5512699       114.7866
2018    11      6       0.6116739       123.309
2018    11      7       0.5446271       114.0308
2018    12      0       0.2833236       69.71547
2018    12      1       0.2399977       61.44828
2018    12      2       0.2268587       58.8866
2018    12      3       0.1789655       48.93444
2018    12      4       0.1524164       43.19054
2018    12      5       0.1448414       41.5541
2018    12      6       0.1630371       45.73897
2018    12      7       0.1620226       45.62531
2018    13      0       0.1203768       36.21349
2018    13      1       0.1067626       32.89572
2018    13      2       0.09548176      30.10199
2018    13      3       0.1098225       33.6002
2018    13      4       0.09017639      28.86877
2018    13      5       0.1020962       31.77274
2018    13      6       0.1241598       37.036
2018    13      7       0.1389242       40.67955
2018    14      0       0.08603673      27.99023
2018    14      1       0.07860658      26.0863
2018    14      2       0.08432336      27.39717
2018    14      3       0.09333603      29.61196
2018    14      4       0.1042028       32.28524
2018    14      5       0.1109178       33.80647
2018    14      6       0.1094008       33.44887
2018    14      7       0.0958035       30.2923
2018    15      0       0.06831793      23.40025
2018    15      1       0.0706327       23.92924
2018    15      2       0.08231968      26.61478
2018    15      3       0.09104309      28.42841
2018    15      4       0.1005059       30.55532
2018    15      5       0.1346574       38.2588
2018    15      6       0.1771579       47.33311
2018    15      7       0.2199592       56.04601
2018    16      0       0.2626676       64.04077
2018    16      1       0.5142921       109.1227
2018    16      2       0.5696987       118.5156
2018    16      3       0.622369        126.2155
2018    16      4       0.6847923       134.0436
2018    16      5       0.6756575       132.8846
2018    16      6       0.8866069       156.4908
2018    16      7       1.407928        202.6771
2018    17      0       1.046219        174.7346
2018    17      1       0.9055327       160.588
2018    17      2       0.958973        165.0034
2018    17      3       1.161743        182.3505
2018    17      4       0.6346833       127.7072
2018    17      5       0.4682805       102.8019
2018    17      6       0.5367793       112.6492
2018    17      7       0.5974578       121.6365
2018    18      0       0.5347592       113.1148
2018    18      1       0.5774538       119.402
2018    18      2       0.5579405       116.4303
2018    18      3       0.646052        128.0976
2018    18      4       0.8898541       157.1184
2018    18      5       0.9267014       160.9937
2018    18      6       0.9165652       160.3759
2018    18      7       0.7742525       145.8
2018    19      0       0.6935955       136.4285
2018    19      1       0.6150414       126.5126
2018    19      2       0.5553338       117.4552
2018    19      3       0.4084554       93.70625
2018    19      4       0.3012317       74.25185
2018    19      5       0.2239342       58.88314
2018    19      6       0.2190947       57.91255
2018    19      7       0.2481626       63.84617
2018    20      0       0.242647        62.7461
2018    20      1       0.1874608       51.14401
2018    20      2       0.1592579       45.08761
2018    20      3       0.1269198       37.7051
2018    20      4       0.107117        32.88281
2018    20      5       0.1496497       42.59226
2018    20      6       0.2040022       54.51932
2018    20      7       0.2341692       60.80856
2018    21      0       0.211747        56.24947
2018    21      1       0.1403337       40.44577
2018    21      2       0.1254862       37.04685
2018    21      3       0.08871617      28.13309
2018    21      4       0.09380724      29.44938
2018    21      5       0.1229711       36.51823
2018    21      6       0.149965        42.58204
2018    21      7       0.2318928       59.42883
2018    22      0       0.2490185       62.78192
2018    22      1       0.28626         70.21899
2018    22      2       0.27083         67.19162
2018    22      3       0.2541744       63.90543
2018    22      4       0.1790722       48.47838
2018    22      5       0.1530453       42.86505
2018    22      6       0.1537495       42.94124
2018    22      7       0.2422123       61.69244
2018    23      0       0.3266224       77.79103
2018    23      1       0.3701059       85.55537
2018    23      2       0.3295632       78.35185
2018    23      3       0.3444296       80.50479
2018    23      4       0.3025309       71.78274
2018    23      5       0.3129897       73.70792
2018    23      6       0.3262301       76.42085
2018    23      7       0.3105779       74.42536
2018    24      0       0.3000662       71.81747
2018    24      1       0.3391799       78.56409
2018    24      2       0.3720873       84.49576
2018    24      3       0.3335361       77.70952
2018    24      4       0.282241        68.75361
2018    24      5       0.2417982       61.4034
2018    24      6       0.220257        57.07838
2018    24      7       0.24842         62.99123
2018    25      0       0.1865418       49.91327
2018    25      1       0.182388        49.04502
2018    25      2       0.1596622       44.31399
2018    25      3       0.148377        41.99122
2018    25      4       0.1399782       40.11361
2018    25      5       0.1085555       33.11112
2018    25      6       0.1271687       37.25902
2018    25      7       0.2498643       62.19148
2018    26      0       0.369619        84.49283
2018    26      1       0.4481308       97.16455
2018    26      2       0.4230273       93.37013
2018    26      3       0.3225931       76.58552
2018    26      4       0.2357844       60.28027
2018    26      5       0.2190106       56.85456
2018    26      6       0.2295352       58.96418
2018    26      7       0.2541936       63.96791
2018    27      0       0.2727854       67.46553
2018    27      1       0.3192688       76.13008
2018    27      2       0.2945087       71.60298
2018    27      3       0.2829203       69.43879
2018    27      4       0.3376046       79.31777
2018    27      5       0.4300818       95.63435
2018    27      6       0.5695064       117.4824
2018    27      7       0.6820451       133.4677
2018    28      0       0.6286878       126.9482
2018    28      1       0.5000763       107.969
2018    28      2       0.3920247       89.47193
2018    28      3       0.3942287       89.73494
2018    28      4       0.3620556       83.77808
2018    28      5       0.3650807       84.9484
2018    28      6       0.547125        114.4285
2018    28      7       0.502776        108.1306
2018    29      0       0.4689609       102.9981
2018    29      1       0.4167399       94.17059
2018    29      2       0.4694623       102.4893
2018    29      3       0.4666769       101.7147
2018    29      4       0.3985431       90.68353
2018    29      5       0.3847787       88.45092
2018    29      6       0.3893128       88.93522
2018    29      7       0.4538055       100.1494
2018    30      0       0.2801017       69.9452
2018    30      1       0.2209929       58.4796
2018    30      2       0.2403787       62.24806
2018    30      3       0.2241164       58.72299
2018    30      4       0.1922553       51.41906
2018    30      5       0.2569352       64.2846
2018    30      6       0.3683824       85.01484
2018    30      7       0.400234        90.67082
