####################################################################################################
# Month: 10Oct                                                                                     #
# Station: SKS                                                                                     #
# Frequency: 230 GHz                                                                               #
# Columns are: year    day     segment         tau     Tb (K)                                      #
####################################################################################################
2009    1       0       0.203173        54.57338
2009    1       1       0.2192579       58.17304
2009    1       2       0.2372421       61.97416
2009    1       3       0.2499097       64.58307
2009    1       4       0.2771891       70.11117
2009    1       5       0.3092393       76.27442
2009    1       6       0.2916858       72.70613
2009    1       7       0.252634        64.96591
2009    2       0       0.2359221       61.55115
2009    2       1       0.2368504       61.59924
2009    2       2       0.2378655       61.67099
2009    2       3       0.2397161       61.95924
2009    2       4       0.2970098       73.3806
2009    2       5       0.3886033       90.81047
2009    2       6       0.4541061       102.7229
2009    2       7       0.5942048       124.9775
2009    3       0       0.9848224       174.86
2009    3       1       0.8284681       157.2368
2009    3       2       0.7898898       153.2976
2009    3       3       0.6425324       133.8195
2009    3       4       0.4246547       98.46817
2009    3       5       0.488132        108.7413
2009    3       6       0.5740452       122.7943
2009    3       7       0.642154        133.2759
2009    4       0       0.6710959       137.0357
2009    4       1       0.6374394       131.8223
2009    4       2       0.5827861       123.7856
2009    4       3       0.526902        115.359
2009    4       4       0.5113381       112.7177
2009    4       5       0.542444        117.4219
2009    4       6       0.5402684       117.277
2009    4       7       0.4577833       103.9162
2009    5       0       0.4117127       95.75425
2009    5       1       0.390852        91.26907
2009    5       2       0.4428652       99.49667
2009    5       3       0.8045988       148.4528
2009    5       4       0.6956946       136.8972
2009    5       5       0.4055757       94.57743
2009    5       6       0.3392201       82.37623
2009    5       7       0.2451667       63.61057
2009    6       0       0.2391075       62.4212
2009    6       1       0.3460907       84.46103
2009    6       2       0.5336859       117.8202
2009    6       3       0.4750722       109.2638
2009    6       4       0.410056        96.83235
2009    6       5       0.2694493       69.40766
2009    6       6       0.2074153       55.96401
2009    6       7       0.1630946       45.82019
2009    7       0       0.1409473       40.54168
2009    7       1       0.1410152       40.52952
2009    7       2       0.1524743       43.26136
2009    7       3       0.1515645       43.05784
2009    7       4       0.1521199       43.02723
2009    7       5       0.1688032       46.71397
2009    7       6       0.2112063       56.46981
2009    7       7       0.2498755       64.94734
2009    8       0       0.2627146       67.47009
2009    8       1       0.3049156       75.87676
2009    8       2       0.3153986       77.88678
2009    8       3       0.3163827       78.14289
2009    8       4       0.3105378       77.11173
2009    8       5       0.2925557       73.64954
2009    8       6       0.2922517       73.69656
2009    8       7       0.2881098       72.80206
2009    9       0       0.2774631       70.49025
2009    9       1       0.2792669       70.85507
2009    9       2       0.2599311       66.98994
2009    9       3       0.2494835       64.86374
2009    9       4       0.2712531       69.3646
2009    9       5       0.2740182       69.95726
2009    9       6       0.267057        68.60269
2009    9       7       0.2672374       68.75491
2009    10      0       0.2752714       70.42999
2009    10      1       0.283013        71.97543
2009    10      2       0.2579361       66.68212
2009    10      3       0.2322931       61.15506
2009    10      4       0.2497081       64.96775
2009    10      5       0.2580179       66.84078
2009    10      6       0.2363046       62.17938
2009    10      7       0.2231132       59.2981
2009    11      0       0.2345386       61.78703
2009    11      1       0.2489251       64.76124
2009    11      2       0.2467095       64.20617
2009    11      3       0.2367815       62.03905
2009    11      4       0.2521571       65.29572
2009    11      5       0.2503265       64.97546
2009    11      6       0.2404725       62.93381
2009    11      7       0.2815291       71.49365
2009    12      0       0.3048682       76.05557
2009    12      1       0.3070462       76.41459
2009    12      2       0.2664355       68.1023
2009    12      3       0.2201058       58.15213
2009    12      4       0.2412705       62.74556
2009    12      5       0.2506519       64.6876
2009    12      6       0.2491921       64.46538
2009    12      7       0.2332577       61.31426
2009    13      0       0.1850526       50.36486
2009    13      1       0.6923009       139.8581
2009    13      2       0.6812649       137.0415
2009    13      3       0.9147521       165.3573
2009    13      4       0.9450332       168.5049
2009    13      5       0.9594893       169.6547
2009    13      6       0.8769079       161.6322
2009    13      7       0.6052952       127.9778
2009    14      0       0.5009377       111.3548
2009    14      1       0.3480189       83.7274
2009    14      2       0.3026004       74.71837
2009    14      3       0.2687778       67.79308
2009    14      4       0.24125         61.89499
2009    14      5       0.2230606       57.9563
2009    14      6       0.2238514       58.03832
2009    14      7       0.2329594       60.01474
2009    15      0       0.3700667       87.75966
2009    15      1       0.4592981       103.8714
2009    15      2       0.418604        96.83147
2009    15      3       0.5055164       111.044
2009    15      4       0.6630933       133.6897
2009    15      5       0.7309413       143.0572
2009    15      6       0.77465         149.2298
2009    15      7       0.8436397       157.3237
2009    16      0       0.8396642       157.326
2009    16      1       0.8078795       153.8421
2009    16      2       0.7440835       145.667
2009    16      3       0.6800376       137.4045
2009    16      4       0.608707        127.7374
2009    16      5       0.6490597       133.5236
2009    16      6       0.7144811       142.4152
2009    16      7       0.7315732       144.6556
2009    17      0       0.6898055       139.3705
2009    17      1       0.6463644       132.7024
2009    17      2       0.5756721       121.7557
2009    17      3       0.9110147       163.7463
2009    17      4       0.7891981       150.7144
2009    17      5       1.057334        178.0765
2009    17      6       0.9499107       169.4952
2009    17      7       1.004442        175.0359
2009    18      0       0.7065439       140.0084
2009    18      1       0.5977848       125.3468
2009    18      2       0.6408174       131.7379
2009    18      3       0.7697714       148.9036
2009    18      4       0.8731986       162.0743
2009    18      5       0.93068         168.9481
2009    18      6       0.8725706       162.7123
2009    18      7       0.7042044       141.9997
2009    19      0       0.6651442       136.7949
2009    19      1       0.4688944       106.3785
2009    19      2       0.2876083       72.41784
2009    19      3       0.4115323       95.66893
2009    19      4       0.4845201       108.7514
2009    19      5       0.4732483       106.9792
2009    19      6       0.3939914       93.10311
2009    19      7       0.2799922       70.98274
2009    20      0       0.1326828       38.2127
2009    20      1       0.17097         47.05959
2009    20      2       0.2666026       67.85688
2009    20      3       0.3993345       93.63613
2009    20      4       0.5316229       116.0259
2009    20      5       0.542702        117.6627
2009    20      6       0.5040001       111.3368
2009    20      7       0.3626823       86.54402
2009    21      0       0.1968861       52.48749
2009    21      1       0.1097157       32.08965
2009    21      2       0.1128626       32.87797
2009    21      3       0.1361363       38.24048
2009    21      4       0.1780992       47.51127
2009    21      5       0.1868741       49.59141
2009    21      6       0.1629003       44.52375
2009    21      7       0.156339        43.13096
2009    22      0       0.1542337       42.62638
2009    22      1       0.1512571       41.99133
2009    22      2       0.1387123       39.15323
2009    22      3       0.1528059       42.39349
2009    22      4       0.2463988       63.2127
2009    22      5       0.4130844       95.91147
2009    22      6       0.4709777       105.9661
2009    22      7       0.4087416       95.10801
2009    23      0       0.348143        83.83499
2009    23      1       0.3575095       85.6639
2009    23      2       0.3317387       80.9618
2009    23      3       0.2839058       71.40523
2009    23      4       0.2762626       69.78594
2009    23      5       0.2599682       66.2614
2009    23      6       0.3026408       73.97168
2009    23      7       0.4225673       95.64148
2009    24      0       0.6069962       124.913
2009    24      1       0.7796329       149.0163
2009    24      2       0.7812211       149.9896
2009    24      3       1.524702        216.3329
2009    24      4       1.272496        198.8611
2009    24      5       1.023181        176.3315
2009    24      6       0.9854843       171.9437
2009    24      7       0.9467802       167.4823
2009    25      0       0.873088        159.4786
2009    25      1       0.8444626       156.1047
2009    25      2       0.862023        157.9621
2009    25      3       0.8036282       151.0636
2009    25      4       0.7340135       143.521
2009    25      5       0.8758975       160.7886
2009    25      6       0.8052577       152.6792
2009    25      7       0.7402868       144.3949
2009    26      0       1.001851        170.782
2009    26      1       0.974289        165.9792
2009    26      2       1.518903        210.6379
2009    26      3       1.43398         205.2321
2009    26      4       0.9410158       165.8597
2009    26      5       0.6762687       135.5042
2009    26      6       0.8966672       162.4382
2009    26      7       1.0473          176.2033
2009    27      0       1.142192        184.4696
2009    27      1       1.128238        184.2423
2009    27      2       1.382523        204.5728
2009    27      3       1.470366        209.7797
2009    27      4       1.227218        192.2058
2009    27      5       0.8881921       161.0709
2009    27      6       0.8385937       156.0734
2009    27      7       0.860538        158.8494
2009    28      0       0.8988595       163.0979
2009    28      1       0.8927544       162.5282
2009    28      2       0.8408994       156.7463
2009    28      3       1.025418        176.3681
2009    28      4       1.085006        181.7008
2009    28      5       1.220733        193.3495
2009    28      6       1.306249        199.6154
2009    28      7       1.289987        198.4732
2009    29      0       1.054158        178.8238
2009    29      1       0.6431502       131.7388
2009    29      2       0.4387909       100.0862
2009    29      3       0.5466401       118.1487
2009    29      4       0.8309496       156.9498
2009    29      5       0.7380922       145.1641
2009    29      6       0.524855        114.041
2009    29      7       0.3393252       80.6673
2009    30      0       0.3240999       76.78108
2009    30      1       0.3709289       85.54583
2009    30      2       0.3954167       90.29228
2009    30      3       0.4689101       102.3652
2009    30      4       0.5977901       124.3032
2009    30      5       0.8832756       160.7046
2009    30      6       0.7395312       143.895
2009    30      7       0.615574        126.9815
2009    31      0       0.6440238       130.637
2009    31      1       1.092938        180.7323
2009    31      2       1.268313        194.1516
2009    31      3       1.148168        184.0815
2009    31      4       0.9308818       163.5337
2009    31      5       0.9079119       161.746
2009    31      6       0.9336049       164.8209
2009    31      7       0.7028921       137.767
2010    1       0       0.4704305       107.8167
2010    1       1       0.4207883       98.76943
2010    1       2       0.3723292       89.68799
2010    1       3       0.3953793       93.74591
2010    1       4       0.4585545       104.5788
2010    1       5       0.4030468       94.71174
2010    1       6       0.3002739       74.99792
2010    1       7       0.2452769       63.86282
2010    2       0       0.218706        58.04541
2010    2       1       0.2291817       60.08729
2010    2       2       0.2950923       73.26569
2010    2       3       0.3668354       85.98071
2010    2       4       0.5416268       117.3962
2010    2       5       0.6543277       134.7424
2010    2       6       0.6113151       128.5705
2010    2       7       0.5309374       116.0559
2010    3       0       0.4850173       108.6141
2010    3       1       0.4597119       104.2637
2010    3       2       0.462299        104.6374
2010    3       3       0.455465        103.4415
2010    3       4       0.4614531       104.2537
2010    3       5       0.4384998       100.0963
2010    3       6       0.426584        97.80187
2010    3       7       0.3834134       90.03314
2010    4       0       0.3829278       89.69441
2010    4       1       0.407777        93.9885
2010    4       2       0.3948666       91.91034
2010    4       3       0.4090859       94.58959
2010    4       4       0.4932568       109.1811
2010    4       5       0.548534        118.2998
2010    4       6       0.5502356       118.4377
2010    4       7       0.5411876       117.0416
2010    5       0       0.5322395       115.775
2010    5       1       0.5292771       115.4731
2010    5       2       0.5380794       116.9639
2010    5       3       0.5498606       118.91
2010    5       4       0.6188746       129.4271
2010    5       5       0.5936213       125.651
2010    5       6       0.5004301       111.2286
2010    5       7       0.5169566       113.736
2010    6       0       0.5865669       124.4257
2010    6       1       0.7085663       141.3723
2010    6       2       0.7211749       143.1151
2010    6       3       0.7466698       145.9693
2010    6       4       0.8517577       158.8749
2010    6       5       0.9162022       166.8152
2010    6       6       0.8425789       158.6215
2010    6       7       0.825503        156.0685
2010    7       0       0.8969303       164.1349
2010    7       1       1.04694         178.7758
2010    7       2       1.106988        183.8373
2010    7       3       1.049703        178.0633
2010    7       4       1.06552         178.3228
2010    7       5       1.267231        195.0881
2010    7       6       1.051102        179.1603
2010    7       7       0.8758313       162.1086
2010    8       0       0.7247172       143.5134
2010    8       1       0.6099571       127.3021
2010    8       2       0.5214871       113.8407
2010    8       3       0.4956529       109.6301
2010    8       4       0.4300272       98.47136
2010    8       5       0.3998839       93.07876
2010    8       6       0.4197471       96.59497
2010    8       7       0.3690564       87.38765
2010    9       0       0.4719419       105.4785
2010    9       1       0.5270804       113.939
2010    9       2       0.3912942       91.13021
2010    9       3       0.3867298       90.35989
2010    9       4       0.4797792       106.7189
2010    9       5       0.6500385       132.6564
2010    9       6       0.7456385       145.7326
2010    9       7       0.6390542       131.4843
2010    10      0       0.6657763       134.8784
2010    10      1       0.9946576       173.1467
2010    10      2       1.380936        205.1223
2010    10      3       1.765923        227.3038
2010    10      4       1.883863        232.9262
2010    10      5       1.909046        234.4113
2010    10      6       1.26533         197.4432
2010    10      7       0.8933357       163.9509
2010    11      0       0.5051849       111.78
2010    11      1       0.2975724       73.53809
2010    11      2       0.3489339       83.44542
2010    11      3       0.6306064       130.5565
2010    11      4       0.8519138       159.2476
2010    11      5       0.8222311       156.1727
2010    11      6       0.8909336       163.8488
2010    11      7       0.9582065       170.4184
2010    12      0       0.9197199       166.1306
2010    12      1       0.8240908       155.1978
2010    12      2       0.9952077       174.1769
2010    12      3       1.012907        176.6641
2010    12      4       1.048895        180.531
2010    12      5       0.8375643       158.6683
2010    12      6       1.03584         180.2174
2010    12      7       0.8991302       165.9637
2010    13      0       0.8359075       159.5052
2010    13      1       0.8754003       162.8689
2010    13      2       1.093642        183.9383
2010    13      3       1.060456        182.4811
2010    13      4       1.112743        185.543
2010    13      5       1.154747        189.3878
2010    13      6       0.8822237       163.2917
2010    13      7       0.8188623       156.039
2010    14      0       0.9897732       174.6819
2010    14      1       1.005819        175.7615
2010    14      2       0.9144528       166.5423
2010    14      3       0.9164398       167.2099
2010    14      4       1.013336        177.1391
2010    14      5       0.7712372       151.3982
2010    14      6       0.2378768       62.38866
2010    14      7       0.4121901       96.57395
2010    15      0       0.5521636       119.439
2010    15      1       0.61382         128.1195
2010    15      2       0.8803246       161.2711
2010    15      3       1.018213        176.5788
2010    15      4       0.9410349       169.6776
2010    15      5       0.6511186       134.3749
2010    15      6       0.4466608       101.6032
2010    15      7       0.5005382       110.4522
2010    16      0       0.5804414       122.8676
2010    16      1       0.6234022       127.7175
2010    16      2       0.6692415       132.6195
2010    16      3       0.7426387       142.9081
2010    16      4       0.7592643       146.2389
2010    16      5       0.645277        132.5763
2010    16      6       0.4910209       109.0868
2010    16      7       0.4195742       96.05403
2010    17      0       0.4071216       93.23785
2010    17      1       0.4783178       104.9762
2010    17      2       0.5578557       117.8854
2010    17      3       0.6701404       134.2113
2010    17      4       0.6699455       133.6217
2010    17      5       0.8854702       160.0217
2010    17      6       1.168545        189.0801
2010    17      7       0.9018244       164.4785
2010    18      0       0.986092        172.8918
2010    18      1       0.984205        173.1238
2010    18      2       1.045197        179.1514
2010    18      3       1.075278        182.1649
2010    18      4       1.077141        182.6677
2010    18      5       1.14446         188.0682
2010    18      6       0.9187981       167.2842
2010    18      7       0.9642932       172.3067
2010    19      0       0.5782982       124.1775
2010    19      1       0.3140803       78.08934
2010    19      2       0.2003058       53.99035
2010    19      3       0.1641284       45.5515
2010    19      4       0.1733327       47.20968
2010    19      5       0.2387009       61.45047
2010    19      6       0.2791242       70.38122
2010    19      7       0.5303535       115.6803
2010    20      0       0.7464108       144.2165
2010    20      1       0.4507841       100.7996
2010    20      2       0.5384658       116.431
2010    20      3       1.15527         190.1432
2010    20      4       1.107093        186.4135
2010    20      5       0.5287655       116.1618
2010    20      6       0.3769426       90.34757
2010    20      7       0.2095782       56.37064
2010    21      0       0.1652718       46.27182
2010    21      1       0.1876562       51.36035
2010    21      2       0.2860228       72.45546
2010    21      3       0.4187447       97.83816
2010    21      4       0.3639434       87.35641
2010    21      5       0.3159099       77.79964
2010    21      6       0.3154507       77.48009
2010    21      7       0.3317202       80.08995
2010    22      0       0.5470435       117.6405
2010    22      1       0.6522077       132.9097
2010    22      2       0.6434915       131.5972
2010    22      3       0.6835798       137.3255
2010    22      4       0.9331797       167.7573
2010    22      5       0.7355529       144.5423
2010    22      6       0.6716786       135.576
2010    22      7       0.5741728       121.6819
2010    23      0       0.3739575       88.46059
2010    23      1       0.2242815       58.32492
2010    23      2       0.1869514       50.06497
2010    23      3       0.1716442       46.69209
2010    23      4       0.164444        45.21353
2010    23      5       0.1660353       45.66715
2010    23      6       0.1570113       43.55438
2010    23      7       0.1554766       43.15448
2010    24      0       0.1571347       43.49788
2010    24      1       0.1729673       47.1415
2010    24      2       0.165397        45.4721
2010    24      3       0.1404483       39.80231
2010    24      4       0.1481442       41.77862
2010    24      5       0.1177114       34.6015
2010    24      6       0.09153668      28.11347
2010    24      7       0.07787786      24.75614
2010    25      0       0.0825959       25.876
2010    25      1       0.1294729       36.87376
2010    25      2       0.3172368       75.86906
2010    25      3       0.5588013       117.4398
2010    25      4       0.644882        131.9269
2010    25      5       0.8287731       156.6035
2010    25      6       0.7413621       145.7549
2010    25      7       0.6828702       138.2023
2010    26      0       0.814546        154.4711
2010    26      1       1.229766        195.3082
2010    26      2       0.9783849       172.5676
2010    26      3       1.097575        183.6746
2010    26      4       1.148129        187.6026
2010    26      5       0.9920098       174.0895
2010    26      6       1.005967        175.1704
2010    26      7       1.048086        179.12
2010    27      0       1.163569        188.7936
2010    27      1       1.00805         174.7913
2010    27      2       0.9968453       173.4404
2010    27      3       1.005783        173.6336
2010    27      4       0.9558023       169.1488
2010    27      5       1.14201         189.5295
2010    27      6       1.203986        192.9408
2010    27      7       1.274905        197.8664
2010    28      0       0.7115612       140.2775
2010    28      1       0.2694065       67.95925
2010    28      2       0.5213399       112.4456
2010    28      3       0.4715799       104.1963
2010    28      4       0.706702        138.8122
2010    28      5       1.129444        183.2568
2010    28      6       0.7502262       144.5384
2010    28      7       0.9186161       164.1293
2010    29      0       0.8251698       153.2888
2010    29      1       0.6034426       124.8277
2010    29      2       0.6345069       129.7601
2010    29      3       0.7013949       139.3751
2010    29      4       0.3691621       87.46499
2010    29      5       0.2877105       72.0787
2010    29      6       0.146245        41.19178
2010    29      7       0.1010878       30.21135
2010    30      0       0.09752222      29.2883
2010    30      1       0.09138855      27.67502
2010    30      2       0.08516486      26.09136
2010    30      3       0.08206515      25.33666
2010    30      4       0.0864164       26.34182
2010    30      5       0.09068329      27.35504
2010    30      6       0.09670639      28.8422
2010    30      7       0.09953444      29.56197
2010    31      0       0.09304433      28.01643
2010    31      1       0.08914194      27.09708
2010    31      2       0.08865127      26.96725
2010    31      3       0.09353661      28.17285
2010    31      4       0.09216425      27.87157
2010    31      5       0.09177976      27.84083
2010    31      6       0.1009436       30.07078
2010    31      7       0.1128026       32.79605
2011    1       0       0.2884372       71.87898
2011    1       1       0.2013181       53.88365
2011    1       2       0.8422477       161.9642
2011    1       3       0.6387686       134.2471
2011    1       4       0.5671949       121.7375
2011    1       5       0.3484678       83.81588
2011    1       6       0.1998411       52.98858
2011    1       7       0.2052492       54.25348
2011    2       0       0.2259464       58.81173
2011    2       1       0.3257473       79.35784
2011    2       2       0.5576312       119.683
2011    2       3       0.9296285       167.6898
2011    2       4       0.9248159       166.9957
2011    2       5       0.6944144       138.8625
2011    2       6       0.4858893       107.6215
2011    2       7       0.4330965       98.63009
2011    3       0       0.4486896       101.4475
2011    3       1       0.4781838       106.4727
2011    3       2       0.7143454       142.0086
2011    3       3       0.6975991       139.7185
2011    3       4       0.7270438       143.7423
2011    3       5       0.727298        144.0783
2011    3       6       0.6879258       139.0753
2011    3       7       0.5714011       122.5265
2011    4       0       0.4696004       106.0337
2011    4       1       0.4396769       100.6387
2011    4       2       0.4385141       100.2088
2011    4       3       0.448866        101.8776
2011    4       4       0.572679        121.9286
2011    4       5       0.6541985       133.9494
2011    4       6       0.5874644       124.037
2011    4       7       0.5320157       115.1229
2011    5       0       0.5580117       118.9122
2011    5       1       0.6055827       125.952
2011    5       2       0.6114209       126.9173
2011    5       3       0.6035879       126.3241
2011    5       4       0.626991        130.1151
2011    5       5       0.6153613       128.5957
2011    5       6       0.5607085       120.4936
2011    5       7       0.5554552       119.6795
2011    6       0       0.5559295       119.7706
2011    6       1       0.5143792       113.1591
2011    6       2       0.4550546       103.4619
2011    6       3       0.4648897       105.1713
2011    6       4       0.5475052       119.0269
2011    6       5       0.605741        128.0469
2011    6       6       0.6117334       128.5595
2011    6       7       0.4476584       102.1304
2011    7       0       0.4700661       105.3413
2011    7       1       0.438519        100.0379
2011    7       2       0.4467282       102.0819
2011    7       3       0.5166786       113.8799
2011    7       4       0.6096538       128.2569
2011    7       5       0.5743596       122.2709
2011    7       6       0.5266951       114.47
2011    7       7       0.4103566       95.47656
2011    8       0       0.5189672       114.121
2011    8       1       0.5172766       114.1878
2011    8       2       0.4747624       107.2872
2011    8       3       0.661943        135.7369
2011    8       4       0.8596882       160.4834
2011    8       5       1.110358        185.539
2011    8       6       1.087308        183.2673
2011    8       7       1.528529        214.8778
2011    9       0       1.381947        207.1331
2011    9       1       1.174723        189.9986
2011    9       2       0.9133909       166.138
2011    9       3       1.07752         181.6335
2011    9       4       1.435776        207.9478
2011    9       5       1.429074        208.7933
2011    9       6       0.8492167       157.2007
2011    9       7       0.5612439       120.8602
2011    10      0       0.8818079       162.1677
2011    10      1       1.095364        182.254
2011    10      2       0.8475605       156.1753
2011    10      3       0.5259857       113.2052
2011    10      4       0.6957211       137.3515
2011    10      5       1.139248        183.7277
2011    10      6       1.351463        201.0353
2011    10      7       0.9478359       165.971
2011    11      0       0.8004836       150.8994
2011    11      1       0.6940742       137.4827
2011    11      2       0.6860386       136.9086
2011    11      3       1.020722        175.2789
2011    11      4       0.7815465       148.642
2011    11      5       0.9923748       171.7352
2011    11      6       0.6535799       131.5504
2011    11      7       0.5692227       119.5585
2011    12      0       0.643943        130.327
2011    12      1       0.7202952       140.8485
2011    12      2       0.6631913       133.9464
2011    12      3       0.7645328       147.9636
2011    12      4       0.7293445       143.6018
2011    12      5       0.7106646       141.2857
2011    12      6       0.4150553       95.64965
2011    12      7       0.3897451       91.398
2011    13      0       0.3809672       89.75703
2011    13      1       0.4170376       96.40814
2011    13      2       0.4475673       101.712
2011    13      3       0.4618438       104.1196
2011    13      4       0.4605001       103.9164
2011    13      5       0.4384789       100.2716
2011    13      6       0.3470527       83.68286
2011    13      7       0.2926019       72.95578
2011    14      0       0.2858054       71.5211
2011    14      1       0.2973231       73.73236
2011    14      2       0.3206876       78.17589
2011    14      3       0.3359534       80.9677
2011    14      4       0.3640796       86.18469
2011    14      5       0.3800474       89.13824
2011    14      6       0.331068        79.89807
2011    14      7       0.3047582       74.80279
2011    15      0       0.3226936       78.35853
2011    15      1       0.3506286       83.6121
2011    15      2       0.3662652       86.73445
2011    15      3       0.4347601       99.39605
2011    15      4       0.6027302       126.375
2011    15      5       0.7398147       145.296
2011    15      6       0.5813595       123.034
2011    15      7       0.4455149       100.8566
2011    16      0       0.4856964       107.3526
2011    16      1       0.5816934       121.9012
2011    16      2       0.7748061       147.7574
2011    16      3       0.9839014       169.8102
2011    16      4       1.048567        175.1201
2011    16      5       1.015098        172.9913
2011    16      6       0.8761141       158.3964
2011    16      7       0.7662885       145.5784
2011    17      0       0.8821821       158.9999
2011    17      1       1.280327        196.4864
2011    17      2       1.639672        219.9159
2011    17      3       1.612281        218.2864
2011    17      4       1.492387        211.3294
2011    17      5       0.8674243       158.9927
2011    17      6       0.3976761       91.9633
2011    17      7       0.3125104       75.93157
2011    18      0       0.260692        65.54766
2011    18      1       0.2732136       67.93175
2011    18      2       0.3031924       73.6642
2011    18      3       0.3456376       81.72825
2011    18      4       0.3373735       80.36457
2011    18      5       0.2335832       59.97193
2011    18      6       0.06725132      21.87644
2011    18      7       0.06633125      21.69405
2011    19      0       0.06984774      22.63436
2011    19      1       0.06451177      21.3036
2011    19      2       0.0591231       19.89516
2011    19      3       0.05169526      17.9732
2011    19      4       0.04802277      17.01213
2011    19      5       0.04775812      16.91305
2011    19      6       0.04478777      16.13386
2011    19      7       0.04086476      15.1205
2011    20      0       0.03909236      14.65473
2011    20      1       0.03798506      14.33931
2011    20      2       0.03581884      13.77895
2011    20      3       0.03590796      13.75224
2011    20      4       0.04193065      15.13391
2011    20      5       0.05576816      18.46169
2011    20      6       0.05992777      19.63084
2011    20      7       0.07748882      23.91966
2011    21      0       0.09596498      28.30042
2011    21      1       0.110237        31.57787
2011    21      2       0.1175597       32.96046
2011    21      3       0.1212638       33.66274
2011    21      4       0.1439922       38.41163
2011    21      5       0.1079612       30.78931
2011    21      6       0.1083089       31.0374
2011    21      7       0.1327364       36.74984
2011    22      0       0.1323882       37.06569
2011    22      1       0.1388048       38.70596
2011    22      2       0.1332632       37.61867
2011    22      3       0.1340729       37.75807
2011    22      4       0.1378057       38.34743
2011    22      5       0.1304379       36.79218
2011    22      6       0.1534275       41.78052
2011    22      7       0.1786892       47.36046
2011    23      0       0.1853503       48.80398
2011    23      1       0.1822964       48.20069
2011    23      2       0.1987915       51.71847
2011    23      3       0.2463687       61.34629
2011    23      4       0.3179608       74.62108
2011    23      5       0.5073481       106.7613
2011    23      6       0.6568422       130.1242
2011    23      7       0.6311842       127.6361
2011    24      0       0.5824232       120.7096
2011    24      1       0.5716323       119.84
2011    24      2       0.5877254       122.8823
2011    24      3       0.7137287       141.6769
2011    24      4       0.8676917       160.9457
2011    24      5       0.487039        108.2375
2011    24      6       0.296911        73.33005
2011    24      7       0.2901425       71.63672
2011    25      0       0.3624412       84.79186
2011    25      1       0.4228181       95.86319
2011    25      2       0.6133124       124.7958
2011    25      3       0.8112442       150.3172
2011    25      4       0.9937903       170.7235
2011    25      5       1.101564        181.8292
2011    25      6       1.006844        173.6119
2011    25      7       0.8321187       155.4532
2011    26      0       0.6459127       132.2292
2011    26      1       0.4968442       109.9915
2011    26      2       0.3258431       79.64555
2011    26      3       0.2595185       66.35998
2011    26      4       0.2657244       67.69643
2011    26      5       0.2672684       67.75339
2011    26      6       0.2314853       59.81619
2011    26      7       0.2000443       52.63152
2011    27      0       0.2318142       59.28792
2011    27      1       0.245983        62.46082
2011    27      2       0.2485742       62.97007
2011    27      3       0.2500561       63.11757
2011    27      4       0.2338867       59.89636
2011    27      5       0.2251359       57.96476
2011    27      6       0.2094655       54.4763
2011    27      7       0.2238485       57.43427
2011    28      0       0.2199291       56.28683
2011    28      1       0.1734712       46.29557
2011    28      2       0.1129529       32.49801
2011    28      3       0.09814288      28.97512
2011    28      4       0.1127471       32.513
2011    28      5       0.1263839       35.64451
2011    28      6       0.1382488       38.29132
2011    28      7       0.15713         42.30877
2011    29      0       0.1621077       43.50044
2011    29      1       0.1436473       39.81046
2011    29      2       0.1549364       42.38342
2011    29      3       0.1647995       44.82433
2011    29      4       0.1660992       45.19876
2011    29      5       0.1471084       40.89836
2011    29      6       0.1216475       35.03503
2011    29      7       0.124603        35.86057
2011    30      0       0.1179346       34.27935
2011    30      1       0.1042377       30.90534
2011    30      2       0.09150984      27.86882
2011    30      3       0.06386473      21.19587
2011    30      4       0.05729219      19.50019
2011    30      5       0.05549123      18.98089
2011    30      6       0.06091059      20.32796
2011    30      7       0.06838277      22.1405
2011    31      0       0.07047746      22.57058
2011    31      1       0.07239296      22.8922
2011    31      2       0.08070706      24.73159
2011    31      3       0.09013769      26.91886
2011    31      4       0.1077009       31.1503
2011    31      5       0.1584391       42.55452
2011    31      6       0.2523488       62.0843
2011    31      7       0.3445443       80.02512
2012    1       0       0.3785494       90.77716
2012    1       1       0.3934277       93.47344
2012    1       2       0.4143074       97.25915
2012    1       3       0.4165153       97.56676
2012    1       4       0.3916249       93.09578
2012    1       5       0.3651386       88.16957
2012    1       6       0.343176        84.05505
2012    1       7       0.2828051       71.89767
2012    2       0       0.2742537       70.08923
2012    2       1       0.3565723       86.55203
2012    2       2       0.4110566       96.93227
2012    2       3       0.4412588       102.0951
2012    2       4       0.3497146       84.80929
2012    2       5       0.4002095       93.88595
2012    2       6       0.4736991       106.5647
2012    2       7       0.6438798       133.2029
2012    3       0       0.7561585       148.6994
2012    3       1       0.802804        153.7709
2012    3       2       0.6639316       136.5047
2012    3       3       0.585246        124.9361
2012    3       4       0.5015083       112.2562
2012    3       5       0.4463737       103.1727
2012    3       6       0.258851        66.74723
2012    3       7       0.226526        59.79597
2012    4       0       0.2476132       64.2717
2012    4       1       0.3631208       87.31811
2012    4       2       0.4513958       103.0938
2012    4       3       0.5472325       118.7012
2012    4       4       0.6250125       130.4995
2012    4       5       0.6713627       137.2665
2012    4       6       0.7086668       141.4398
2012    4       7       0.8003432       151.622
2012    5       0       0.7064166       139.6291
2012    5       1       0.6183052       127.4114
2012    5       2       0.6024321       125.0841
2012    5       3       0.4912842       108.6931
2012    5       4       0.455689        103.4219
2012    5       5       0.4051141       94.9931
2012    5       6       0.371806        88.78922
2012    5       7       0.3386118       82.35823
2012    6       0       0.3175825       78.13591
2012    6       1       0.2796547       70.50135
2012    6       2       0.2628999       67.22493
2012    6       3       0.2585102       66.41736
2012    6       4       0.3056588       76.15079
2012    6       5       0.3682894       88.20113
2012    6       6       0.3561652       85.66647
2012    6       7       0.3316407       80.94606
2012    7       0       0.3195698       78.7779
2012    7       1       0.3123954       77.3985
2012    7       2       0.2930517       73.43496
2012    7       3       0.2884436       72.42831
2012    7       4       0.3220784       79.24688
2012    7       5       0.3652279       87.72171
2012    7       6       0.2785391       70.61151
2012    7       7       0.2320427       60.75623
2012    8       0       0.2221848       58.58007
2012    8       1       0.2137778       56.86082
2012    8       2       0.1861779       50.62239
2012    8       3       0.188369        50.74239
2012    8       4       0.3918013       90.94164
2012    8       5       0.7150763       140.6256
2012    8       6       0.7612062       146.2185
2012    8       7       0.8652043       158.6957
2012    9       0       0.8208213       154.2163
2012    9       1       0.8052539       152.5493
2012    9       2       0.9448518       167.9728
2012    9       3       1.028783        176.3595
2012    9       4       1.162044        188.5805
2012    9       5       1.130044        185.9275
2012    9       6       0.9203659       166.1704
2012    9       7       0.8821715       161.8595
2012    10      0       0.8937509       163.0167
2012    10      1       0.868732        160.1496
2012    10      2       0.8268099       155.0571
2012    10      3       0.7417468       144.6593
2012    10      4       0.6973165       138.8079
2012    10      5       0.5557657       118.6388
2012    10      6       0.5513177       118.0533
2012    10      7       0.6577653       134.2767
2012    11      0       0.7045835       140.9877
2012    11      1       0.6709971       136.3425
2012    11      2       0.7147582       142.0517
2012    11      3       0.795835        152.2773
2012    11      4       0.8755113       162.1151
2012    11      5       0.7642002       148.9723
2012    11      6       0.5186462       114.2477
2012    11      7       0.4506765       102.9674
2012    12      0       0.4628413       104.7861
2012    12      1       0.4905549       109.3472
2012    12      2       0.4900115       109.0536
2012    12      3       0.507556        111.6295
2012    12      4       0.6022781       126.2189
2012    12      5       0.6470382       133.0866
2012    12      6       0.6495503       133.2634
2012    12      7       0.6631089       135.0604
2012    13      0       0.7237219       143.1807
2012    13      1       0.7908646       151.4581
2012    13      2       0.7697979       148.7919
2012    13      3       0.7839182       151.0357
2012    13      4       0.8398954       157.9398
2012    13      5       0.7369862       145.4243
2012    13      6       0.6105911       128.1688
2012    13      7       0.5857526       124.5511
2012    14      0       0.6203055       129.6247
2012    14      1       0.6459832       133.2047
2012    14      2       0.6349425       131.7838
2012    14      3       0.6026388       127.2126
2012    14      4       0.581799        124.2141
2012    14      5       0.5410952       117.6397
2012    14      6       0.5036712       111.7321
2012    14      7       0.5574961       119.995
2012    15      0       0.5498332       118.9402
2012    15      1       0.4848405       108.9169
2012    15      2       0.5913382       124.89
2012    15      3       0.6443045       131.6415
2012    15      4       0.7478839       145.9718
2012    15      5       0.8821558       162.6865
2012    15      6       0.8156562       155.5082
2012    15      7       0.7061047       142.1115
2012    16      0       0.6148806       129.1133
2012    16      1       0.5877788       124.8644
2012    16      2       0.6254637       130.6004
2012    16      3       0.6078274       128.2869
2012    16      4       0.6456482       134.0846
2012    16      5       0.7191985       144.2667
2012    16      6       0.658621        136.0035
2012    16      7       0.6042841       128.019
2012    17      0       0.5335323       117.0186
2012    17      1       0.4790296       107.8541
2012    17      2       0.4596487       104.3926
2012    17      3       0.4613194       104.5837
2012    17      4       0.5266335       115.0266
2012    17      5       0.6129394       128.2739
2012    17      6       0.6540231       134.6045
2012    17      7       0.7087175       142.1652
2012    18      0       0.6766885       137.4691
2012    18      1       0.632555        130.8383
2012    18      2       0.6165486       128.3913
2012    18      3       0.6012975       126.0123
2012    18      4       0.614364        127.835
2012    18      5       0.6138895       127.8461
2012    18      6       0.5774577       122.7585
2012    18      7       0.5570683       119.9164
2012    19      0       0.5393389       117.1323
2012    19      1       0.5304145       115.7005
2012    19      2       0.5351623       116.5845
2012    19      3       0.5254998       115.2019
2012    19      4       0.4978801       110.8728
2012    19      5       0.4705057       106.4854
2012    19      6       0.4115385       96.30999
2012    19      7       0.3469378       84.39506
2012    20      0       0.332012        81.57533
2012    20      1       0.319231        79.00522
2012    20      2       0.3152973       78.22618
2012    20      3       0.31512         78.22881
2012    20      4       0.2994531       74.95516
2012    20      5       0.2795812       70.72601
2012    20      6       0.2625262       67.08836
2012    20      7       0.2176328       57.35863
2012    21      0       0.2065926       54.85039
2012    21      1       0.2700993       68.46464
2012    21      2       0.3066801       76.01735
2012    21      3       0.2650763       67.54185
2012    21      4       0.3310388       80.87283
2012    21      5       0.8858298       163.5375
2012    21      6       0.9075875       165.6638
2012    21      7       0.6825928       137.9653
2012    22      0       0.4599076       103.5383
2012    22      1       0.8184376       154.477
2012    22      2       1.127116        186.1798
2012    22      3       0.9352193       167.2603
2012    22      4       0.9940124       172.8143
2012    22      5       1.06827         179.8612
2012    22      6       1.137607        186.2389
2012    22      7       0.8289731       154.9039
2012    23      0       0.6117273       126.0831
2012    23      1       0.74813         143.9899
2012    23      2       0.8456029       155.521
2012    23      3       0.9391172       165.7392
2012    23      4       1.144231        185.5982
2012    23      5       1.68742         222.7063
2012    23      6       1.325946        199.5767
2012    23      7       1.609482        217.753
2012    24      0       1.337392        201.1379
2012    24      1       1.283217        197.3695
2012    24      2       1.335748        201.3083
2012    24      3       1.142326        185.2629
2012    24      4       1.18487         189.2083
2012    24      5       1.111555        182.1856
2012    24      6       1.032801        175.2689
2012    24      7       0.8097997       152.1038
2012    25      0       0.7319161       142.8494
2012    25      1       0.7581728       146.4243
2012    25      2       0.9492464       168.7771
2012    25      3       1.137659        186.6212
2012    25      4       1.161785        188.4247
2012    25      5       1.053944        179.0377
2012    25      6       0.6293691       129.9842
2012    25      7       0.3883377       91.11179
2012    26      0       0.3011317       74.62068
2012    26      1       0.2583866       65.98289
2012    26      2       0.2292897       59.88946
2012    26      3       0.2010793       53.85638
2012    26      4       0.2046616       54.61716
2012    26      5       0.2678211       67.88683
2012    26      6       0.3187751       78.038
2012    26      7       0.4166903       96.43319
2012    27      0       0.5626508       120.8475
2012    27      1       0.6213368       129.7871
2012    27      2       0.5370934       116.9287
2012    27      3       0.5805562       123.587
2012    27      4       0.7776348       150.9559
2012    27      5       0.9109544       166.1818
2012    27      6       0.7857819       151.2748
2012    27      7       0.776403        150.1926
2012    28      0       0.7474326       146.6294
2012    28      1       0.6897497       139.4142
2012    28      2       0.666337        135.8715
2012    28      3       0.5858539       124.191
2012    28      4       0.5468978       118.0722
2012    28      5       0.5046686       111.5238
2012    28      6       0.4808689       107.1003
2012    28      7       0.4246836       97.68274
2012    29      0       0.396787        93.47609
2012    29      1       0.490707        109.3816
2012    29      2       0.5209367       113.9638
2012    29      3       0.505443        111.3768
2012    29      4       0.4955992       109.8256
2012    29      5       0.585585        123.789
2012    29      6       0.7517628       146.9883
2012    29      7       0.6790385       137.443
2012    30      0       0.500682        111.7897
2012    30      1       0.2652433       68.03121
2012    30      2       0.07741061      24.74008
2012    30      3       0.07177042      23.1874
2012    30      4       0.07638218      24.04071
2012    30      5       0.1169557       33.07548
2012    30      6       0.2055163       51.79302
2012    30      7       0.3400977       78.88906
2012    31      0       0.3250256       76.66201
2012    31      1       0.5877187       120.6201
2012    31      2       0.7895479       148.5926
2012    31      3       0.4343692       97.74507
2012    31      4       0.2581889       64.93211
2012    31      5       0.2549589       64.12819
2012    31      6       0.3455787       80.85673
2012    31      7       0.5288611       112.1381
2013    1       0       0.8607099       161.0916
2013    1       1       0.9050497       165.6592
2013    1       2       1.050757        178.903
2013    1       3       1.225558        193.5848
2013    1       4       1.043469        179.5773
2013    1       5       0.7479206       147.6101
2013    1       6       0.5210186       114.9763
2013    1       7       0.4863912       109.1385
2013    2       0       0.507227        112.9937
2013    2       1       0.591055        126.4068
2013    2       2       0.4627501       105.4442
2013    2       3       0.5468087       119.2052
2013    2       4       0.6836175       139.2751
2013    2       5       0.8363991       159.2669
2013    2       6       0.8164621       157.1131
2013    2       7       0.6506652       135.0848
2013    3       0       0.5526409       120.1405
2013    3       1       0.7335555       145.9234
2013    3       2       1.163485        192.0212
2013    3       3       1.118913        187.9055
2013    3       4       0.8939805       165.3682
2013    3       5       0.4290851       100.1055
2013    3       6       0.4400632       102.2417
2013    3       7       0.5810742       126.0478
2013    4       0       0.6539735       137.2116
2013    4       1       0.8026978       157.0007
2013    4       2       0.6225346       131.9378
2013    4       3       0.4179536       97.9426
2013    4       4       0.3656334       87.14467
2013    4       5       0.4231757       97.3714
2013    4       6       0.3883838       91.20563
2013    4       7       0.3599968       85.93556
2013    5       0       0.3978717       92.87403
2013    5       1       0.4384504       100.8498
2013    5       2       0.31503         77.32365
2013    5       3       0.1135655       33.54463
2013    5       4       0.08937179      27.59854
2013    5       5       0.09311361      28.57797
2013    5       6       0.09166088      28.27729
2013    5       7       0.09601581      29.00077
2013    6       0       0.1653866       44.71979
2013    6       1       0.2355104       59.61415
2013    6       2       0.3013108       72.81547
2013    6       3       0.3785985       87.14742
2013    6       4       0.4349134       97.36607
2013    6       5       0.3508685       82.81634
2013    6       6       0.2652298       66.20002
2013    6       7       0.268491        66.61942
2013    7       0       0.3144866       75.3587
2013    7       1       0.3639557       84.48721
2013    7       2       0.3764978       86.64088
2013    7       3       0.3690371       85.35891
2013    7       4       0.3759081       86.69652
2013    7       5       0.3934999       89.94671
2013    7       6       0.4450609       99.08063
2013    7       7       0.4941215       107.4336
2013    8       0       0.521643        111.9804
2013    8       1       0.5528783       116.8312
2013    8       2       0.5315816       113.5407
2013    8       3       0.51912         111.5533
2013    8       4       0.5253139       112.5233
2013    8       5       0.5374923       114.4656
2013    8       6       0.5037521       109.1614
2013    8       7       0.4513908       100.7129
2013    9       0       0.4500408       100.5425
2013    9       1       0.4487428       100.3572
2013    9       2       0.4400299       99.06525
2013    9       3       0.4580904       102.3274
2013    9       4       0.4663352       103.9178
2013    9       5       0.530032        114.9761
2013    9       6       0.6521293       133.8783
2013    9       7       0.7926745       152.9168
2013    10      0       0.7472745       147.1725
2013    10      1       0.59557         126.2249
2013    10      2       0.5014056       111.4937
2013    10      3       0.5855947       125.1712
2013    10      4       0.6293885       131.5194
2013    10      5       0.6193836       129.6849
2013    10      6       0.7198912       143.4679
2013    10      7       0.6824938       138.4463
2013    11      0       0.6169756       129.4035
2013    11      1       0.5913054       125.8236
2013    11      2       0.6354746       132.3382
2013    11      3       0.6605773       135.9853
2013    11      4       0.6960107       140.4889
2013    11      5       0.7288018       144.4656
2013    11      6       0.6615482       135.7034
2013    11      7       0.5664345       121.9124
2013    12      0       0.5463728       118.3252
2013    12      1       0.6235627       129.4779
2013    12      2       0.578353        122.9378
2013    12      3       0.5481016       118.5435
2013    12      4       0.6005713       126.5106
2013    12      5       0.8040025       154.79
2013    12      6       0.4555072       104.0578
2013    12      7       0.4093187       96.18225
2013    13      0       0.4778025       107.7354
2013    13      1       0.4771097       107.4312
2013    13      2       0.4793158       107.3435
2013    13      3       0.4433361       101.6647
2013    13      4       0.5000474       111.8935
2013    13      5       0.5668439       122.808
2013    13      6       0.4996382       111.736
2013    13      7       0.4214885       98.19164
2013    14      0       0.3985344       93.9493
2013    14      1       0.4346981       100.414
2013    14      2       0.3914155       92.69806
2013    14      3       0.3173081       78.80804
2013    14      4       0.4040882       95.74022
2013    14      5       0.5144393       114.7936
2013    14      6       0.5720333       123.7752
2013    14      7       0.4917772       110.8625
2013    15      0       0.4613357       105.4903
2013    15      1       0.4406887       101.4951
2013    15      2       0.3286563       80.461
2013    15      3       0.4448087       102.1013
2013    15      4       0.5622631       121.2351
2013    15      5       0.6150585       129.2273
2013    15      6       0.5517087       119.348
2013    15      7       0.5126523       113.3897
2013    16      0       0.4921398       109.5196
2013    16      1       0.4883918       108.3201
2013    16      2       0.5782456       122.5387
2013    16      3       0.6592622       133.7609
2013    16      4       0.7818517       148.8565
2013    16      5       0.8353006       155.1278
2013    16      6       1.093382        182.2569
2013    16      7       1.059453        178.3503
2013    17      0       0.9457564       167.6728
2013    17      1       0.8755843       162.0887
2013    17      2       0.6050022       126.6686
2013    17      3       0.2300354       58.94999
2013    17      4       0.1381219       39.24774
2013    17      5       0.3839896       90.86542
2013    17      6       0.4084805       94.75204
2013    17      7       0.3614907       86.22239
2013    18      0       0.3398997       82.31601
2013    18      1       0.3776815       89.75108
2013    18      2       0.3270116       80.22079
2013    18      3       0.3668774       87.96469
2013    18      4       0.3148765       77.81733
2013    18      5       0.2311012       60.37795
2013    18      6       0.1678457       46.30104
2013    18      7       0.1428001       40.3897
2013    19      0       0.1464525       41.17106
2013    19      1       0.1559624       43.35562
2013    19      2       0.1545321       42.86273
2013    19      3       0.1579523       43.54416
2013    19      4       0.1674528       45.60952
2013    19      5       0.1456751       40.31117
2013    19      6       0.1483075       40.77165
2013    19      7       0.1561912       42.35773
2013    20      0       0.1592038       42.89488
2013    20      1       0.1588207       42.72811
2013    20      2       0.1478729       40.21843
2013    20      3       0.1397844       38.42427
2013    20      4       0.1502798       40.76307
2013    20      5       0.1647465       43.98684
2013    20      6       0.1737402       46.04163
2013    20      7       0.1790085       47.2609
2013    21      0       0.1837821       48.32201
2013    21      1       0.1982386       51.3677
2013    21      2       0.2129393       54.54327
2013    21      3       0.216817        55.48931
2013    21      4       0.2126461       54.71464
2013    21      5       0.206628        53.5599
2013    21      6       0.2038096       53.00156
2013    21      7       0.2063298       53.3604
2013    22      0       0.2121799       54.6445
2013    22      1       0.2166837       55.81316
2013    22      2       0.205876        53.64727
2013    22      3       0.196112        51.55297
2013    22      4       0.1935668       50.95544
2013    22      5       0.2046946       53.21423
2013    22      6       0.2027879       52.78718
2013    22      7       0.1985652       52.1174
2013    23      0       0.2179589       56.54237
2013    23      1       0.2308012       59.49605
2013    23      2       0.2253334       58.55671
2013    23      3       0.2279211       59.25293
2013    23      4       0.2473496       63.57345
2013    23      5       0.2798721       70.54529
2013    23      6       0.2844807       71.51065
2013    23      7       0.2606983       66.54995
2013    24      0       0.2420957       62.62601
2013    24      1       0.2382835       61.77375
2013    24      2       0.2432401       62.84069
2013    24      3       0.2418511       62.61476
2013    24      4       0.2345899       61.14774
2013    24      5       0.2265437       59.44085
2013    24      6       0.2010685       53.82354
2013    24      7       0.1685789       46.44658
2013    25      0       0.1489171       41.80819
2013    25      1       0.133464        38.07098
2013    25      2       0.1224586       35.43813
2013    25      3       0.1155451       33.81068
2013    25      4       0.1063264       31.60653
2013    25      5       0.09663405      29.27322
2013    25      6       0.08395213      26.1906
2013    25      7       0.07270723      23.4631
2013    26      0       0.0756697       24.22466
2013    26      1       0.08440164      26.3848
2013    26      2       0.109868        32.45391
2013    26      3       0.1366341       38.86771
2013    26      4       0.1328071       38.1282
2013    26      5       0.104958        31.40022
2013    26      6       0.09028273      27.89211
2013    26      7       0.08307371      26.28393
2013    27      0       0.07804469      25.04568
2013    27      1       0.08057         25.54698
2013    27      2       0.07364668      23.77784
2013    27      3       0.07701116      24.56241
2013    27      4       0.07857654      24.92372
2013    27      5       0.07668903      24.44701
2013    27      6       0.08049401      25.24551
2013    27      7       0.09678026      29.04701
2013    28      0       0.1281502       36.44251
2013    28      1       0.1603189       43.89123
2013    28      2       0.1655839       45.15688
2013    28      3       0.1515244       42.16707
2013    28      4       0.1436067       40.3964
2013    28      5       0.1450836       40.81401
2013    28      6       0.1473736       41.36955
2013    28      7       0.1512272       42.19093
2013    29      0       0.1550185       43.07806
2013    29      1       0.1574774       43.50657
2013    29      2       0.1686342       45.6799
2013    29      3       0.1862862       49.28336
2013    29      4       0.2293905       57.83177
2013    29      5       0.2393407       60.08973
2013    29      6       0.2345435       59.44514
2013    29      7       0.2437172       61.34736
2013    30      0       0.22739         58.21654
2013    30      1       0.284096        70.04155
2013    30      2       0.3805051       88.86258
2013    30      3       0.4554795       102.6291
2013    30      4       0.4347489       99.10038
2013    30      5       0.3848953       90.09882
2013    30      6       0.3553959       84.54686
2013    30      7       0.3099799       75.79654
2013    31      0       0.2715338       68.01095
2013    31      1       0.2445827       62.41313
2013    31      2       0.2341175       60.14565
2013    31      3       0.2276322       58.81109
2013    31      4       0.2468531       62.84679
2013    31      5       0.2630421       66.22286
2013    31      6       0.242643        61.988
2013    31      7       0.2360373       60.68779
2014    1       0       0.1801118       48.78455
2014    1       1       0.1560871       43.40934
2014    1       2       0.1351691       38.59442
2014    1       3       0.1286396       37.10834
2014    1       4       0.1249323       36.31338
2014    1       5       0.1139077       33.83151
2014    1       6       0.08654136      27.1031
2014    1       7       0.07530866      24.23847
2014    2       0       0.08719668      27.27773
2014    2       1       0.09366054      28.89161
2014    2       2       0.0962116       29.46451
2014    2       3       0.1009364       30.62632
2014    2       4       0.1015866       30.78174
2014    2       5       0.09973252      30.3252
2014    2       6       0.09278066      28.61939
2014    2       7       0.08679504      27.14506
2014    3       0       0.08696869      27.15513
2014    3       1       0.09910322      30.12945
2014    3       2       0.1414877       40.43498
2014    3       3       0.2013211       54.23627
2014    3       4       0.276868        70.31383
2014    3       5       0.3587017       86.22861
2014    3       6       0.4671603       105.27
2014    3       7       0.6114039       127.9012
2014    4       0       0.7565664       147.7086
2014    4       1       0.7586414       147.9459
2014    4       2       0.6519192       134.1964
2014    4       3       0.5979069       126.547
2014    4       4       0.6184081       129.3167
2014    4       5       0.6820709       138.2266
2014    4       6       0.7404394       145.9859
2014    4       7       0.8033208       153.7937
2014    5       0       0.9344974       168.7653
2014    5       1       0.8642399       161.0756
2014    5       2       0.6401376       132.3791
2014    5       3       0.6747013       137.5797
2014    5       4       0.920406        167.9603
2014    5       5       0.7461751       146.8034
2014    5       6       0.5356243       116.5281
2014    5       7       0.5426701       117.6172
2014    6       0       0.5227441       114.4358
2014    6       1       0.5373268       116.3078
2014    6       2       0.6000986       125.7983
2014    6       3       0.7320797       143.6955
2014    6       4       0.7673407       148.2178
2014    6       5       0.6951483       139.1381
2014    6       6       0.5491286       117.9637
2014    6       7       0.4938468       108.2734
2014    7       0       0.4677396       104.4665
2014    7       1       0.4751636       105.8263
2014    7       2       0.4530645       102.0315
2014    7       3       0.4370081       99.29602
2014    7       4       0.4637499       103.7202
2014    7       5       0.4627553       103.4913
2014    7       6       0.4608553       103.2092
2014    7       7       0.4629698       103.4942
2014    8       0       0.4726212       104.9628
2014    8       1       0.5258912       112.7486
2014    8       2       0.6370228       128.0673
2014    8       3       0.7263938       139.3238
2014    8       4       0.5799785       120.2767
2014    8       5       0.5333057       114.0954
2014    8       6       0.5204463       112.314
2014    8       7       0.4988271       109.0179
2014    9       0       0.5235663       112.94
2014    9       1       0.6154953       125.9472
2014    9       2       0.7066869       137.6344
2014    9       3       0.6953806       136.4427
2014    9       4       0.6127449       125.6553
2014    9       5       0.6006953       124.8135
2014    9       6       0.5965202       125.1771
2014    9       7       0.4838803       108.0026
2014    10      0       0.3971432       93.00422
2014    10      1       0.3775025       89.2365
2014    10      2       0.3836294       90.44893
2014    10      3       0.4160435       96.0818
2014    10      4       0.4114736       95.23354
2014    10      5       0.3501542       84.22794
2014    10      6       0.33086         80.55785
2014    10      7       0.3275694       79.95979
2014    11      0       0.2776823       69.96222
2014    11      1       0.2239416       58.55993
2014    11      2       0.2212007       57.91445
2014    11      3       0.2261733       59.04857
2014    11      4       0.2426185       62.62059
2014    11      5       0.260791        66.55856
2014    11      6       0.2572343       65.83769
2014    11      7       0.2345055       60.96337
2014    12      0       0.2258419       59.04374
2014    12      1       0.2587171       65.91791
2014    12      2       0.3093158       76.16521
2014    12      3       0.3463643       83.38978
2014    12      4       0.3615828       86.31791
2014    12      5       0.3426864       82.77996
2014    12      6       0.2928319       72.98203
2014    12      7       0.269933        68.22397
2014    13      0       0.2647541       67.07815
2014    13      1       0.2626668       66.40096
2014    13      2       0.2561686       64.70073
2014    13      3       0.2603245       65.40166
2014    13      4       0.2995826       73.08718
2014    13      5       0.3560335       84.16358
2014    13      6       0.2474667       62.90829
2014    13      7       0.2533189       63.95903
2014    14      0       0.3500426       82.83687
2014    14      1       0.346157        82.15529
2014    14      2       0.2297637       59.06695
2014    14      3       0.2113679       55.41476
2014    14      4       0.2623092       66.88023
2014    14      5       0.3149316       77.75185
2014    14      6       0.3081985       76.28321
2014    14      7       0.2575256       65.52542
2014    15      0       0.2846373       70.64301
2014    15      1       0.334131        79.89113
2014    15      2       0.4267098       97.13451
2014    15      3       0.5006386       110.0545
2014    15      4       0.4547665       102.9185
2014    15      5       0.5321829       115.9304
2014    15      6       0.6021387       126.4874
2014    15      7       0.5749834       122.6078
2014    16      0       0.5915513       124.9453
2014    16      1       0.7100191       140.8074
2014    16      2       0.7486019       146.3102
2014    16      3       0.7303007       144.3848
2014    16      4       0.6949783       139.5035
2014    16      5       0.6260729       129.5965
2014    16      6       0.9237884       168.7597
2014    16      7       0.5836506       123.9551
2014    17      0       0.4947531       110.0213
2014    17      1       0.4534967       103.1915
2014    17      2       0.4357822       99.56419
2014    17      3       0.4394262       100.4632
2014    17      4       0.5555464       119.7241
2014    17      5       0.6467529       133.1041
2014    17      6       0.5298224       115.8088
2014    17      7       0.4873128       108.9935
2014    18      0       0.4982387       111.3374
2014    18      1       0.4200718       97.97798
2014    18      2       0.3949787       93.82429
2014    18      3       0.5380396       118.6714
2014    18      4       0.5110523       114.3429
2014    18      5       0.441248        102.3019
2014    18      6       0.4656318       106.3881
2014    18      7       0.5836683       125.2709
2014    19      0       0.736967        146.3942
2014    19      1       0.3604227       86.56272
2014    19      2       0.1407034       40.41636
2014    19      3       0.1629735       45.66415
2014    19      4       0.1193701       35.3651
2014    19      5       0.09906628      30.32584
2014    19      6       0.0795129       25.37263
2014    19      7       0.0732736       23.63135
2014    20      0       0.08895772      27.5734
2014    20      1       0.1089717       32.60529
2014    20      2       0.1357907       38.7222
2014    20      3       0.151972        42.57214
2014    20      4       0.1516162       42.58022
2014    20      5       0.1502672       42.35208
2014    20      6       0.1525459       42.96507
2014    20      7       0.1482355       42.07346
2014    21      0       0.1534797       43.32249
2014    21      1       0.1563389       44.00342
2014    21      2       0.1526039       43.15877
2014    21      3       0.1498728       42.53742
2014    21      4       0.1413573       40.50251
2014    21      5       0.1308989       37.7992
2014    21      6       0.1452419       40.61948
2014    21      7       0.1693219       45.80373
2014    22      0       0.2054653       53.67849
2014    22      1       0.2398129       61.04025
2014    22      2       0.3676011       88.11511
2014    22      3       0.8970224       166.098
2014    22      4       0.8497052       159.9748
2014    22      5       0.8957519       163.6742
2014    22      6       0.9693306       170.8131
2014    22      7       0.8006584       152.1156
2014    23      0       0.6122087       128.1128
2014    23      1       0.9674153       171.462
2014    23      2       0.8200785       156.0225
2014    23      3       0.5395718       117.6034
2014    23      4       0.9589059       171.2666
2014    23      5       0.8626548       159.9851
2014    23      6       0.5970779       124.2989
2014    23      7       0.3202521       77.81899
2014    24      0       0.1782894       48.34666
2014    24      1       0.2290389       59.30746
2014    24      2       0.5479402       117.3901
2014    24      3       0.7844328       149.803
2014    24      4       0.9081427       164.6057
2014    24      5       0.8979409       163.2143
2014    24      6       0.9350752       167.4415
2014    24      7       1.196196        192.9652
2014    25      0       0.3610953       86.11488
2014    25      1       0.3792661       89.29317
2014    25      2       0.5140364       112.5581
2014    25      3       0.6233153       129.3396
2014    25      4       0.6549548       133.6217
2014    25      5       0.6935823       138.7998
2014    25      6       0.810764        153.5955
2014    25      7       0.7188735       141.5759
2014    26      0       0.9591867       168.9373
2014    26      1       1.139839        185.6371
2014    26      2       1.012064        172.5702
2014    26      3       1.005208        171.5606
2014    26      4       0.9460077       167.4319
2014    26      5       0.9826981       171.7945
2014    26      6       0.945195        168.2394
2014    26      7       0.9833143       172.2427
2014    27      0       1.072862        180.8192
2014    27      1       1.146231        187.2699
2014    27      2       1.132624        186.328
2014    27      3       0.8895256       162.433
2014    27      4       0.9373592       167.4646
2014    27      5       0.9184469       165.3414
2014    27      6       0.8901852       162.4805
2014    27      7       0.9429595       168.3851
2014    28      0       1.250252        196.1302
2014    28      1       1.261233        196.6044
2014    28      2       1.150861        186.7468
2014    28      3       1.029764        174.9665
2014    28      4       1.223438        191.7108
2014    28      5       1.270969        194.6221
2014    28      6       1.311495        198.4957
2014    28      7       0.9649316       167.5662
2014    29      0       1.021133        174.007
2014    29      1       1.186462        189.8965
2014    29      2       1.207976        192.2206
2014    29      3       0.9733945       170.7265
2014    29      4       0.9579947       168.8761
2014    29      5       0.7813768       148.9325
2014    29      6       0.54352         116.0626
2014    29      7       0.5214026       112.6405
2014    30      0       0.5736862       120.6667
2014    30      1       0.7000002       138.5162
2014    30      2       1.098791        182.79
2014    30      3       1.02988         176.4744
2014    30      4       0.8989718       162.6277
2014    30      5       0.7643079       146.4138
2014    30      6       0.6282374       128.1054
2014    30      7       0.6054609       124.5335
2014    31      0       0.6726106       133.6668
2014    31      1       0.6995713       137.2548
2014    31      2       0.7895682       148.7835
2014    31      3       0.8968541       160.8892
2014    31      4       0.8643911       157.168
2014    31      5       1.023585        174.2184
2014    31      6       0.9196143       163.7927
2014    31      7       0.8962785       161.3175
2015    1       0       0.5094478       113.0811
2015    1       1       0.4806071       108.3104
2015    1       2       0.4448741       102.2302
2015    1       3       0.4659609       106.1474
2015    1       4       0.483927        109.3089
2015    1       5       0.3810696       90.97996
2015    1       6       0.3143333       78.00836
2015    1       7       0.2781039       70.75225
2015    2       0       0.2691552       69.06066
2015    2       1       0.2742503       70.16207
2015    2       2       0.265422        68.37592
2015    2       3       0.2491999       64.96737
2015    2       4       0.2485549       64.80064
2015    2       5       0.233138        61.4184
2015    2       6       0.2117901       56.29621
2015    2       7       0.1922459       51.81435
2015    3       0       0.1806914       49.31132
2015    3       1       0.1884183       51.12086
2015    3       2       0.2012192       53.99197
2015    3       3       0.2155638       57.18642
2015    3       4       0.2319613       60.94861
2015    3       5       0.2429329       63.36556
2015    3       6       0.2047534       54.91072
2015    3       7       0.1853798       50.67589
2015    4       0       0.1867164       50.90561
2015    4       1       0.2210041       58.30858
2015    4       2       0.2605522       66.44273
2015    4       3       0.2778241       69.81521
2015    4       4       0.289552        72.16384
2015    4       5       0.2859604       71.6815
2015    4       6       0.2878378       72.40975
2015    4       7       0.2966802       74.463
2015    5       0       0.327105        80.87027
2015    5       1       0.3843999       91.78894
2015    5       2       0.451803        103.7456
2015    5       3       0.493087        110.6308
2015    5       4       0.6252929       131.0126
2015    5       5       0.8448961       159.3167
2015    5       6       0.8699329       161.9324
2015    5       7       0.9378978       168.8778
2015    6       0       0.7988182       153.3533
2015    6       1       0.6643005       136.1614
2015    6       2       0.6306118       131.2925
2015    6       3       0.6060697       127.338
2015    6       4       0.7110931       142.0434
2015    6       5       0.6914625       139.6661
2015    6       6       0.6667232       136.3538
2015    6       7       0.8207958       155.9493
2015    7       0       0.8966949       164.6315
2015    7       1       0.7685713       150.3367
2015    7       2       0.7059209       142.2437
2015    7       3       0.7194434       143.7194
2015    7       4       0.8457922       159.416
2015    7       5       0.968203        173.2416
2015    7       6       0.8237982       157.136
2015    7       7       0.8308338       158.2491
2015    8       0       0.5944339       126.18
2015    8       1       0.3800782       90.06659
2015    8       2       0.3365638       82.04308
2015    8       3       0.4651812       106.122
2015    8       4       0.5973221       127.4849
2015    8       5       0.64646         134.8796
2015    8       6       0.5236988       115.8394
2015    8       7       0.4206888       97.8759
2015    9       0       0.3242095       79.04215
2015    9       1       0.46841         104.7087
2015    9       2       0.5052785       111.0872
2015    9       3       0.641441        132.5514
2015    9       4       0.7498696       147.6234
2015    9       5       0.7610884       149.1372
2015    9       6       0.6601791       135.9708
2015    9       7       0.7400709       146.8647
2015    10      0       0.8476523       159.9207
2015    10      1       0.9360192       170.1497
2015    10      2       0.8368067       158.9749
2015    10      3       1.010106        176.9641
2015    10      4       0.7993784       154.2841
2015    10      5       0.9150704       167.9246
2015    10      6       0.9163183       167.4007
2015    10      7       0.8851413       164.3669
2015    11      0       0.8781648       163.9124
2015    11      1       0.939101        170.0064
2015    11      2       1.00405         175.8367
2015    11      3       0.8112662       154.802
2015    11      4       0.9847938       174.1541
2015    11      5       1.000124        176.1458
2015    11      6       0.882814        164.792
2015    11      7       0.8181814       157.4106
2015    12      0       0.6504059       134.3396
2015    12      1       0.4296661       98.85083
2015    12      2       0.3205262       78.33597
2015    12      3       0.2742752       68.69499
2015    12      4       0.3015496       73.7077
2015    12      5       0.2720008       67.72305
2015    12      6       0.2770136       69.05939
2015    12      7       0.2272197       59.09376
2015    13      0       0.1820849       48.87561
2015    13      1       0.1797773       48.04032
2015    13      2       0.1717893       46.61114
2015    13      3       0.172475        46.9161
2015    13      4       0.2050514       54.37322
2015    13      5       0.2550462       65.38909
2015    13      6       0.3140412       77.6986
2015    13      7       0.3139341       77.8206
2015    14      0       0.2866727       72.28475
2015    14      1       0.2746488       69.90689
2015    14      2       0.2561159       65.93687
2015    14      3       0.2165382       57.35662
2015    14      4       0.2030397       54.36487
2015    14      5       0.1824206       49.63221
2015    14      6       0.181721        49.09037
2015    14      7       0.1815412       49.13936
2015    15      0       0.2019021       53.63168
2015    15      1       0.2111834       55.78917
2015    15      2       0.2149424       56.68137
2015    15      3       0.2087126       55.61235
2015    15      4       0.2309538       60.34461
2015    15      5       0.2675845       67.91702
2015    15      6       0.2619914       67.24662
2015    15      7       0.2680055       68.5968
2015    16      0       0.3055398       75.88732
2015    16      1       0.3532823       84.97966
2015    16      2       0.3890939       91.72828
2015    16      3       0.4918623       109.7259
2015    16      4       0.5819139       124.0478
2015    16      5       0.6081446       127.822
2015    16      6       0.6892545       139.1008
2015    16      7       1.117135        188.1601
2015    17      0       0.9763116       173.8678
2015    17      1       1.009648        177.1331
2015    17      2       1.100547        184.6946
2015    17      3       1.022743        177.5224
2015    17      4       1.038136        178.7024
2015    17      5       0.8286014       157.635
2015    17      6       0.7201194       144.3799
2015    17      7       0.6423267       133.9427
2015    18      0       0.6577898       136.0667
2015    18      1       0.6366569       133.1206
2015    18      2       0.599507        127.1231
2015    18      3       0.559238        121.0234
2015    18      4       0.5813142       124.7188
2015    18      5       0.6441854       134.1547
2015    18      6       0.5888064       125.8054
2015    18      7       0.6673096       136.5603
2015    19      0       0.7619383       148.8911
2015    19      1       0.7853462       152.2571
2015    19      2       0.8144976       156.1239
2015    19      3       0.8120704       155.6225
2015    19      4       0.7771189       151.0409
2015    19      5       0.8850224       163.9595
2015    19      6       0.8188588       156.3562
2015    19      7       0.8750529       162.0382
2015    20      0       0.8859627       163.0047
2015    20      1       0.9174868       165.9125
2015    20      2       0.8741901       161.6471
2015    20      3       0.7845963       151.6494
2015    20      4       0.6858087       138.9504
2015    20      5       0.6242358       130.1061
2015    20      6       0.6077163       128.0742
2015    20      7       0.6959047       140.4525
2015    21      0       0.5769216       122.4796
2015    21      1       0.6664664       135.5042
2015    21      2       0.9596596       170.3865
2015    21      3       1.338776        201.6407
2015    21      4       1.250165        195.6146
2015    21      5       1.259252        196.7372
2015    21      6       1.166587        189.9496
2015    21      7       1.089885        183.2083
2015    22      0       0.8601884       160.3247
2015    22      1       0.9205658       166.6773
2015    22      2       0.799865        153.4297
2015    22      3       0.7711694       150.3083
2015    22      4       0.7788134       151.327
2015    22      5       0.7252417       143.6814
2015    22      6       0.9417553       166.5363
2015    22      7       1.083393        180.6757
2015    23      0       1.353049        201.469
2015    23      1       1.144716        187.1359
2015    23      2       1.431442        205.9502
2015    23      3       1.050911        176.3288
2015    23      4       0.7245703       142.4683
2015    23      5       0.8545377       158.6185
2015    23      6       0.8906288       162.1254
2015    23      7       1.237915        190.7301
2015    24      0       1.073823        179.3701
2015    24      1       0.7492421       145.4488
2015    24      2       0.859767        158.339
2015    24      3       0.9790113       170.7483
2015    24      4       0.9789174       171.0099
2015    24      5       0.8853187       161.1381
2015    24      6       1.138031        186.5049
2015    24      7       1.145842        186.8659
2015    25      0       1.097182        182.2343
2015    25      1       1.085902        181.2476
2015    25      2       1.692399        224.3395
2015    25      3       1.348592        204.3235
2015    25      4       0.9341933       168.4841
2015    25      5       0.8620139       160.5982
2015    25      6       0.4965568       110.351
2015    25      7       0.3935989       92.9638
2015    26      0       0.313786        77.76774
2015    26      1       0.181526        49.56099
2015    26      2       0.08892728      27.45362
2015    26      3       0.07758941      24.5581
2015    26      4       0.08419891      26.12906
2015    26      5       0.1030376       30.6515
2015    26      6       0.1403563       39.4991
2015    26      7       0.1541831       42.48114
2015    27      0       0.1586241       43.20611
2015    27      1       0.1551238       42.54951
2015    27      2       0.1740982       46.56631
2015    27      3       0.1870745       49.44347
2015    27      4       0.2163033       55.71161
2015    27      5       0.217907        56.36186
2015    27      6       0.2083246       54.72697
2015    27      7       0.2123296       55.68355
2015    28      0       0.170512        46.28053
2015    28      1       0.1256718       35.37651
2015    28      2       0.1020087       30.19946
2015    28      3       0.1265889       36.28389
2015    28      4       0.1749629       47.60721
2015    28      5       0.1825965       49.41271
2015    28      6       0.1313747       37.69062
2015    28      7       0.06492815      21.26966
2015    29      0       0.0578445       19.41381
2015    29      1       0.06704753      21.74155
2015    29      2       0.06976343      22.38839
2015    29      3       0.07246801      23.07459
2015    29      4       0.07672331      24.17541
2015    29      5       0.07283536      23.18401
2015    29      6       0.07947695      24.81972
2015    29      7       0.08837505      27.01284
2015    30      0       0.101392        30.19843
2015    30      1       0.1124557       32.8945
2015    30      2       0.1184878       34.43532
2015    30      3       0.1212219       35.22101
2015    30      4       0.1186558       34.58185
2015    30      5       0.1301244       37.16998
2015    30      6       0.1516166       41.97895
2015    30      7       0.1876273       49.57961
2015    31      0       0.2363549       59.53586
2015    31      1       0.2952356       71.77706
2015    31      2       0.295317        71.3802
2015    31      3       0.3895281       88.32167
2015    31      4       0.4901371       105.7152
2015    31      5       0.4376719       98.88217
2015    31      6       0.5079049       111.0322
2015    31      7       0.5953188       124.2814
2016    1       0       0.1855859       50.74582
2016    1       1       0.1890594       51.475
2016    1       2       0.1615694       45.18573
2016    1       3       0.1396487       40.04314
2016    1       4       0.1648632       45.89098
2016    1       5       0.1900526       51.90206
2016    1       6       0.2048857       55.22857
2016    1       7       0.207989        55.93423
2016    2       0       0.3080968       77.55395
2016    2       1       0.4467386       103.7755
2016    2       2       0.5024422       112.6381
2016    2       3       0.4926104       110.573
2016    2       4       0.5123465       113.7419
2016    2       5       0.5303361       116.6488
2016    2       6       0.4946942       111.0033
2016    2       7       0.5038726       112.4719
2016    3       0       0.6217764       131.0606
2016    3       1       0.7592046       150.0712
2016    3       2       0.7793875       152.4693
2016    3       3       0.759627        150.0341
2016    3       4       0.7678041       151.326
2016    3       5       0.6613855       137.4265
2016    3       6       0.4682391       106.7874
2016    3       7       0.3006135       75.66654
2016    4       0       0.2966107       75.10197
2016    4       1       0.3178619       79.68608
2016    4       2       0.2969057       75.53021
2016    4       3       0.2451312       64.61023
2016    4       4       0.311997        78.62153
2016    4       5       0.3700066       90.00962
2016    4       6       0.2738344       70.66429
2016    4       7       0.1932518       52.85428
2016    5       0       0.2447437       64.25767
2016    5       1       0.2573442       66.8565
2016    5       2       0.2386467       62.621
2016    5       3       0.2399914       62.61585
2016    5       4       0.4389068       101.8932
2016    5       5       0.5617156       122.2294
2016    5       6       0.34249         83.9451
2016    5       7       0.3425495       83.91431
2016    6       0       0.4896811       110.2743
2016    6       1       0.4811026       108.8994
2016    6       2       0.5030114       112.8388
2016    6       3       0.5320876       117.5193
2016    6       4       0.6046027       128.402
2016    6       5       0.719142        144.5805
2016    6       6       0.4508343       102.8864
2016    6       7       0.347479        83.69557
2016    7       0       0.3636415       87.09685
2016    7       1       0.3441084       83.53409
2016    7       2       0.4901201       109.9853
2016    7       3       0.643521        133.9713
2016    7       4       0.7092503       143.2437
2016    7       5       0.7654045       150.4606
2016    7       6       0.8303441       158.6698
2016    7       7       0.8454367       160.4086
2016    8       0       0.7212649       144.1143
2016    8       1       0.6950258       140.7458
2016    8       2       0.6439832       133.7463
2016    8       3       0.6422797       133.6568
2016    8       4       0.6243371       131.2637
2016    8       5       0.4731244       106.8911
2016    8       6       0.2437018       62.71075
2016    8       7       0.1467511       41.49679
2016    9       0       0.1825954       50.26504
2016    9       1       0.2716051       69.46818
2016    9       2       0.3994864       93.52376
2016    9       3       0.3473553       83.75649
2016    9       4       0.3322748       80.90683
2016    9       5       0.392423        92.43776
2016    9       6       0.3778393       90.19356
2016    9       7       0.4085305       95.99076
2016    10      0       0.5300161       116.9499
2016    10      1       0.5983269       127.2903
2016    10      2       0.6793065       138.6664
2016    10      3       0.7906331       152.534
2016    10      4       0.7109674       142.0188
2016    10      5       0.7814556       150.8397
2016    10      6       0.8364485       157.7654
2016    10      7       0.7877105       152.6501
2016    11      0       0.7140327       142.9896
2016    11      1       0.5775301       122.8607
2016    11      2       0.7008535       140.3716
2016    11      3       0.7341363       144.278
2016    11      4       0.731492        143.7156
2016    11      5       0.6879694       138.2409
2016    11      6       0.6874171       138.2006
2016    11      7       1.018224        177.8058
2016    12      0       0.8123309       154.3836
2016    12      1       0.6710931       137.1813
2016    12      2       1.053448        182.7027
2016    12      3       0.4041462       94.36719
2016    12      4       0.2783544       70.27956
2016    12      5       0.2278602       59.63001
2016    12      6       0.2158995       57.09374
2016    12      7       0.1915785       51.93568
2016    13      0       0.2131604       56.98513
2016    13      1       0.3232032       79.96632
2016    13      2       0.3090236       77.01122
2016    13      3       0.1962047       52.74464
2016    13      4       0.1458734       40.84777
2016    13      5       0.1864678       50.3772
2016    13      6       0.1509947       42.44889
2016    13      7       0.1216932       35.60829
2016    14      0       0.135272        38.50491
2016    14      1       0.1640599       45.00111
2016    14      2       0.1619047       44.10859
2016    14      3       0.1735794       46.72704
2016    14      4       0.2241517       57.95409
2016    14      5       0.3400874       82.13939
2016    14      6       0.4874802       109.1337
2016    14      7       0.395728        92.92414
2016    15      0       0.4069816       95.30899
2016    15      1       0.4422308       101.8985
2016    15      2       0.4151079       97.08552
2016    15      3       0.4132141       96.66899
2016    15      4       0.4208051       97.96469
2016    15      5       0.4190118       97.96564
2016    15      6       0.4085377       96.35848
2016    15      7       0.4630782       106.073
2016    16      0       0.4269196       99.46554
2016    16      1       0.3985629       93.98082
2016    16      2       0.5163446       114.4557
2016    16      3       0.5428139       118.5026
2016    16      4       0.5619445       120.6504
2016    16      5       0.6051872       126.709
2016    16      6       0.6034131       126.658
2016    16      7       0.6338588       130.9841
2016    17      0       0.7137512       141.695
2016    17      1       0.6913129       138.7961
2016    17      2       0.6996402       139.7049
2016    17      3       0.6146964       128.2439
2016    17      4       0.5073725       112.5987
2016    17      5       0.3153198       78.32551
2016    17      6       0.2019136       54.14555
2016    17      7       0.2440458       63.05585
2016    18      0       0.2972346       74.52488
2016    18      1       0.2881888       72.47281
2016    18      2       0.2809558       70.97738
2016    18      3       0.2823601       71.15663
2016    18      4       0.2575466       65.58483
2016    18      5       0.214021        56.36509
2016    18      6       0.1971092       52.58512
2016    18      7       0.1766057       48.19094
2016    19      0       0.1483902       41.90688
2016    19      1       0.1342473       38.6345
2016    19      2       0.1291604       37.45766
2016    19      3       0.137899        39.34097
2016    19      4       0.1481459       41.58266
2016    19      5       0.1726065       47.22098
2016    19      6       0.2190804       57.74204
2016    19      7       0.2509335       64.5511
2016    20      0       0.2958509       73.74405
2016    20      1       0.3545375       85.24243
2016    20      2       0.4379767       100.3743
2016    20      3       0.5292711       115.6547
2016    20      4       0.5840728       124.1126
2016    20      5       0.6337331       131.4763
2016    20      6       0.6072698       127.8178
2016    20      7       0.5513165       119.2991
2016    21      0       0.5379021       116.8665
2016    21      1       0.5584562       120.172
2016    21      2       0.6395276       131.846
2016    21      3       0.6199278       128.999
2016    21      4       0.5549376       119.4224
2016    21      5       0.854686        159.6268
2016    21      6       0.726544        143.6782
2016    21      7       0.7853315       150.301
2016    22      0       0.8514534       158.0255
2016    22      1       0.7073818       140.2946
2016    22      2       0.6518414       132.9644
2016    22      3       0.6909662       137.6333
2016    22      4       0.638667        130.2616
2016    22      5       0.6083767       126.4093
2016    22      6       0.6909239       138.662
2016    22      7       0.6517746       133.0623
2016    23      0       0.6737735       136.1775
2016    23      1       0.7582842       147.728
2016    23      2       0.7449419       146.6955
2016    23      3       0.7092075       142.0991
2016    23      4       0.6712401       136.5913
2016    23      5       0.596556        126.2146
2016    23      6       0.5188692       114.3033
2016    23      7       0.5316452       115.964
2016    24      0       0.5940836       124.3761
2016    24      1       0.5222352       113.6899
2016    24      2       0.6371353       131.6612
2016    24      3       0.793357        151.6294
2016    24      4       0.7769163       149.972
2016    24      5       0.4673383       105.828
2016    24      6       0.3162884       78.21686
2016    24      7       0.2342937       61.39668
2016    25      0       0.1723426       47.61206
2016    25      1       0.1418692       40.35342
2016    25      2       0.1227034       35.76341
2016    25      3       0.1088677       32.39962
2016    25      4       0.09171633      28.44501
2016    25      5       0.09065118      28.04299
2016    25      6       0.08646508      26.83072
2016    25      7       0.09121993      27.92365
2016    26      0       0.1586916       44.2619
2016    26      1       0.2146693       56.96117
2016    26      2       0.2425022       63.09088
2016    26      3       0.2215672       58.86832
2016    26      4       0.2380555       62.45291
2016    26      5       0.2360143       61.80154
2016    26      6       0.2072836       55.0496
2016    26      7       0.2569855       65.37196
2016    27      0       0.3350233       80.92375
2016    27      1       0.5031782       110.4508
2016    27      2       0.6072549       126.4156
2016    27      3       0.6807557       136.6522
2016    27      4       0.7406382       144.7039
2016    27      5       0.8458522       157.4911
2016    27      6       0.9304871       165.9569
2016    27      7       0.8417826       155.6209
2016    28      0       0.765978        147.4943
2016    28      1       0.7996267       151.661
2016    28      2       0.7669181       147.8521
2016    28      3       0.728398        143.065
2016    28      4       0.7502861       145.6575
2016    28      5       0.6513165       132.3963
2016    28      6       0.6574615       133.6291
2016    28      7       0.6876059       138.17
2016    29      0       0.7087807       141.1371
2016    29      1       0.7800437       149.0009
2016    29      2       0.7180313       140.7609
2016    29      3       0.5907274       123.7913
2016    29      4       0.5680627       120.4686
2016    29      5       0.5240645       113.9596
2016    29      6       0.4939606       109.3445
2016    29      7       0.4613114       104.1369
2016    30      0       0.5061467       111.3749
2016    30      1       0.5824713       123.1292
2016    30      2       0.6107972       127.2806
2016    30      3       0.7564496       146.297
2016    30      4       0.730157        143.0339
2016    30      5       0.592624        124.6407
2016    30      6       0.5841683       123.9548
2016    30      7       0.5920579       125.2988
2016    31      0       0.5998594       126.1453
2016    31      1       0.8928595       162.7682
2016    31      2       1.286529        197.1434
2016    31      3       1.550643        215.2143
2016    31      4       2.160937        244.2116
2016    31      5       1.29565         199.0616
2016    31      6       1.270469        197.4014
2016    31      7       0.8648104       157.7342
2017    1       0       0.7823418       149.4987
2017    1       1       0.7983268       151.5323
2017    1       2       0.8914626       162.6812
2017    1       3       0.799754        152.5277
2017    1       4       0.7544612       147.3965
2017    1       5       0.6285642       130.9981
2017    1       6       0.4993011       111.1226
2017    1       7       0.4393353       100.9325
2017    2       0       0.3802813       90.23487
2017    2       1       0.3125548       77.0478
2017    2       2       0.2744507       69.47898
2017    2       3       0.2715989       68.93188
2017    2       4       0.3281335       80.2395
2017    2       5       0.3616159       86.75526
2017    2       6       0.3549596       85.59155
2017    2       7       0.3519795       84.72469
2017    3       0       0.3396839       82.15585
2017    3       1       0.3589081       85.89877
2017    3       2       0.3708769       88.4394
2017    3       3       0.3891864       91.76424
2017    3       4       0.4458502       101.4656
2017    3       5       0.4666731       105.0068
2017    3       6       0.479399        106.9114
2017    3       7       0.4732981       105.6476
2017    4       0       0.4867371       108.2331
2017    4       1       0.4423635       100.762
2017    4       2       0.3730144       89.05766
2017    4       3       0.4360596       100.4461
2017    4       4       0.5143326       113.2625
2017    4       5       0.5460384       117.9249
2017    4       6       0.6342233       131.3833
2017    4       7       0.6367842       131.8658
2017    5       0       0.6557634       134.5475
2017    5       1       0.5908468       124.9244
2017    5       2       0.5834694       124.0564
2017    5       3       0.6317884       131.2839
2017    5       4       0.7260495       144.7767
2017    5       5       0.7204042       144.6863
2017    5       6       0.8020068       155.1192
2017    5       7       0.7874141       153.9595
2017    6       0       0.785924        153.5058
2017    6       1       1.135733        188.181
2017    6       2       0.9255792       168.8058
2017    6       3       0.8646733       161.3803
2017    6       4       1.145923        189.0323
2017    6       5       1.077366        183.0726
2017    6       6       1.004908        176.6089
2017    6       7       1.110047        186.5415
2017    7       0       1.044727        180.3238
2017    7       1       0.8663127       162.5263
2017    7       2       0.7196269       145.1608
2017    7       3       0.6696191       138.6435
2017    7       4       0.7969627       155.4298
2017    7       5       0.6254668       132.2689
2017    7       6       0.2471791       64.59178
2017    7       7       0.987118        176.7907
2017    8       0       0.8186814       157.7102
2017    8       1       0.3352345       82.41538
2017    8       2       0.06570669      21.57612
2017    8       3       0.1326842       38.03777
2017    8       4       0.2723728       69.24751
2017    8       5       0.2532121       65.23853
2017    8       6       0.1344209       38.42905
2017    8       7       0.1726717       46.82839
2017    9       0       0.1735413       47.01253
2017    9       1       0.179331        48.4861
2017    9       2       0.2294582       59.48221
2017    9       3       0.2498515       63.85542
2017    9       4       0.2617157       66.36231
2017    9       5       0.2703453       68.1954
2017    9       6       0.2275104       59.0969
2017    9       7       0.1913849       51.19025
2017    10      0       0.236292        61.07179
2017    10      1       0.2735069       69.03554
2017    10      2       0.2930951       73.09966
2017    10      3       0.2864343       71.82098
2017    10      4       0.3041247       75.27631
2017    10      5       0.3202058       78.41176
2017    10      6       0.2856969       71.54228
2017    10      7       0.3412924       82.68874
2017    11      0       0.364685        87.30351
2017    11      1       0.3076086       76.33384
2017    11      2       0.2795822       70.50451
2017    11      3       0.2708705       68.63855
2017    11      4       0.3354453       81.54537
2017    11      5       0.3825375       90.38454
2017    11      6       0.3743754       88.83419
2017    11      7       0.3996415       93.49726
2017    12      0       0.4107756       95.26798
2017    12      1       0.3954931       92.20064
2017    12      2       0.3502978       83.61704
2017    12      3       0.289327        71.89662
2017    12      4       0.2111788       56.02983
2017    12      5       0.1762467       48.41558
2017    12      6       0.1496642       42.29688
2017    12      7       0.1263923       36.78642
2017    13      0       0.1128334       33.51373
2017    13      1       0.1021663       30.86979
2017    13      2       0.09839305      29.86527
2017    13      3       0.1005329       30.32946
2017    13      4       0.104847        31.2769
2017    13      5       0.1084064       31.99747
2017    13      6       0.1196083       34.6136
2017    13      7       0.1445665       40.53872
2017    14      0       0.1689084       46.16752
2017    14      1       0.2001203       53.27968
2017    14      2       0.2115642       55.81078
2017    14      3       0.2093697       55.4742
2017    14      4       0.2108141       55.91492
2017    14      5       0.2054898       54.94399
2017    14      6       0.1989591       53.11697
2017    14      7       0.3659139       87.00804
2017    15      0       0.2434094       63.16874
2017    15      1       0.085026        26.23532
2017    15      2       0.1478615       41.2647
2017    15      3       0.2633903       66.56613
2017    15      4       0.2883551       71.53303
2017    15      5       0.2910306       72.03766
2017    15      6       0.2947182       72.71014
2017    15      7       0.3114831       75.92126
2017    16      0       0.4512539       102.5249
2017    16      1       0.5841612       124.5333
2017    16      2       0.5070194       112.634
2017    16      3       0.4843024       108.6372
2017    16      4       0.579905        123.6068
2017    16      5       0.5927057       126.1863
2017    16      6       0.4732911       107.3565
2017    16      7       0.3493463       84.87211
2017    17      0       0.3021119       75.38692
2017    17      1       0.3360808       82.15615
2017    17      2       0.3735189       89.89422
2017    17      3       0.3696365       89.6228
2017    17      4       0.3463637       85.22081
2017    17      5       0.3303736       82.09517
2017    17      6       0.3205292       80.13754
2017    17      7       0.3088399       77.7364
2017    18      0       0.3039096       76.51942
2017    18      1       0.2980751       75.02645
2017    18      2       0.294103        74.07513
2017    18      3       0.2979477       74.7799
2017    18      4       0.3424962       83.29719
2017    18      5       0.3888186       91.79245
2017    18      6       0.3784615       89.89152
2017    18      7       0.3764266       89.51276
2017    19      0       0.4232236       98.08646
2017    19      1       0.4606665       104.7511
2017    19      2       0.4553495       103.936
2017    19      3       0.4356042       100.7454
2017    19      4       0.4996373       111.7092
2017    19      5       0.4866519       109.6291
2017    19      6       0.3706424       88.87596
2017    19      7       0.2763295       70.16542
2017    20      0       0.2462026       63.74222
2017    20      1       0.2413927       62.63218
2017    20      2       0.2529544       65.01989
2017    20      3       0.2742944       69.4441
2017    20      4       0.3137675       77.42687
2017    20      5       0.3807166       90.33994
2017    20      6       0.3302727       80.7959
2017    20      7       0.2897826       72.74593
2017    21      0       0.2437855       63.00884
2017    21      1       0.2480945       63.7271
2017    21      2       0.2564493       65.21524
2017    21      3       0.3239867       77.5474
2017    21      4       0.347717        82.89482
2017    21      5       0.4270476       97.54907
2017    21      6       0.4742687       103.7559
2017    21      7       0.3526882       83.5869
2017    22      0       0.3239634       78.50691
2017    22      1       0.3394353       81.6283
2017    22      2       0.3382593       81.54371
2017    22      3       0.2994765       74.32808
2017    22      4       0.3565557       85.74743
2017    22      5       0.3882155       92.0368
2017    22      6       0.2845145       71.93332
2017    22      7       0.2224171       58.63312
2017    23      0       0.2165305       57.23742
2017    23      1       0.2109581       55.99547
2017    23      2       0.2109887       55.94643
2017    23      3       0.1938179       52.12299
2017    23      4       0.1926219       51.87515
2017    23      5       0.2058778       54.61993
2017    23      6       0.7854928       148.1354
2017    23      7       1.372855        203.2113
2017    24      0       1.2729          197.0346
2017    24      1       0.5359209       115.3264
2017    24      2       0.5837877       123.0066
2017    24      3       0.3665852       86.21142
2017    24      4       0.4808775       105.3383
2017    24      5       0.6273256       127.0136
2017    24      6       0.6630432       132.2474
2017    24      7       0.6318956       127.2694
2017    25      0       0.5069128       109.4003
2017    25      1       0.6451967       130.4207
2017    25      2       0.6450306       130.3314
2017    25      3       1.030168        174.2267
2017    25      4       0.9903429       170.8269
2017    25      5       0.8407074       155.0571
2017    25      6       0.7047979       138.2851
2017    25      7       0.6490405       129.987
2017    26      0       0.5774732       120.0658
2017    26      1       0.5551529       116.7136
2017    26      2       0.4931667       107.4831
2017    26      3       0.5882191       122.7181
2017    26      4       0.5243007       113.0394
2017    26      5       0.5788137       121.8295
2017    26      6       0.418486        95.53009
2017    26      7       0.8476082       156.543
2017    27      0       0.8303929       154.649
2017    27      1       0.6129034       126.2907
2017    27      2       0.5657476       119.3303
2017    27      3       0.7868364       149.9433
2017    27      4       0.7738929       148.8656
2017    27      5       0.6701561       135.6282
2017    27      6       0.42033         96.57799
2017    27      7       0.3798164       89.03906
2017    28      0       0.374229        88.0245
2017    28      1       0.3726053       87.77296
2017    28      2       0.3540085       83.90967
2017    28      3       0.448716        101.4587
2017    28      4       1.343067        205.058
2017    28      5       1.233069        196.7725
2017    28      6       1.019927        177.366
2017    28      7       0.5276037       113.7734
2017    29      0       0.8101985       153.7609
2017    29      1       0.9639442       171.2746
2017    29      2       0.5208917       113.9523
2017    29      3       0.8519684       158.0002
2017    29      4       0.9089536       164.5021
2017    29      5       0.1742872       47.14292
2017    29      6       0.2439959       61.64108
2017    29      7       0.274909        68.16774
2017    30      0       0.180627        48.5915
2017    30      1       0.1929598       51.80092
2017    30      2       0.15039         42.13747
2017    30      3       0.8565339       162.9865
2017    30      4       0.9243499       171.6626
2017    30      5       0.6149331       131.6633
2017    30      6       0.7626984       152.8902
2017    30      7       0.694799        143.5754
2017    31      0       0.6834566       141.0492
2017    31      1       0.5601776       122.7488
2017    31      2       1.366652        211.0101
2017    31      3       0.7782577       150.8873
2017    31      4       0.6969865       139.8247
2017    31      5       0.8923568       163.9385
2017    31      6       0.572569        121.8943
2017    31      7       0.499322        110.2475
2018    1       0       0.48607         108.7217
2018    1       1       0.4450206       101.1484
2018    1       2       0.5107786       110.1744
2018    1       3       0.5132616       111.538
2018    1       4       0.369531        87.78588
2018    1       5       0.3164474       78.38062
2018    1       6       0.2900189       73.1306
2018    1       7       0.2419808       63.16607
2018    2       0       0.2326711       61.18882
2018    2       1       0.2483159       64.67401
2018    2       2       0.2328447       61.16555
2018    2       3       0.2479423       64.11968
2018    2       4       0.2480582       63.65169
2018    2       5       0.2595287       65.39487
2018    2       6       0.291998        71.00239
2018    2       7       0.2796195       69.01875
2018    3       0       0.3620109       85.24446
2018    3       1       1.038003        179.1724
2018    3       2       0.7978461       153.0739
2018    3       3       0.9574693       171.0983
2018    3       4       0.985543        173.9911
2018    3       5       0.9917442       175.1258
2018    3       6       0.9181199       167.8257
2018    3       7       0.858542        161.5441
2018    4       0       0.7945776       153.8581
2018    4       1       0.7723739       150.4765
2018    4       2       0.8086892       154.6882
2018    4       3       0.8759407       162.6283
2018    4       4       0.9563742       170.4094
2018    4       5       0.9376431       168.3815
2018    4       6       0.8907315       163.7452
2018    4       7       0.9565673       170.183
2018    5       0       1.140894        187.1775
2018    5       1       0.9971914       174.3152
2018    5       2       0.8824482       162.9485
2018    5       3       0.8616524       160.9212
2018    5       4       0.8459218       159.5291
2018    5       5       0.8398392       159.2306
2018    5       6       0.7842416       152.4583
2018    5       7       0.7411824       147.2155
2018    6       0       0.6747104       137.9618
2018    6       1       0.6456683       134.3661
2018    6       2       0.6037681       127.8496
2018    6       3       0.4608487       105.1203
2018    6       4       0.4335738       100.5687
2018    6       5       0.4574677       104.7976
2018    6       6       0.4913211       110.0307
2018    6       7       0.5734725       123.0447
2018    7       0       0.6191309       130.1255
2018    7       1       0.5246899       115.2396
2018    7       2       0.5188253       114.7277
2018    7       3       0.4913807       110.3653
2018    7       4       0.4899037       110.4219
2018    7       5       0.5726057       123.6633
2018    7       6       0.5821763       125.0534
2018    7       7       0.5977652       127.186
2018    8       0       0.5958269       126.7763
2018    8       1       0.5645742       121.9647
2018    8       2       0.5363648       117.5637
2018    8       3       0.5067074       112.841
2018    8       4       0.6227203       130.6591
2018    8       5       0.6313884       131.1185
2018    8       6       0.546108        117.9156
2018    8       7       0.5682957       120.4025
2018    9       0       0.5254208       114.2007
2018    9       1       0.482298        107.2564
2018    9       2       0.4980549       109.7003
2018    9       3       0.5504615       117.9068
2018    9       4       0.5954712       124.6407
2018    9       5       0.583964        123.033
2018    9       6       0.5113525       111.8432
2018    9       7       0.4259888       97.53215
2018    10      0       0.3478179       83.63737
2018    10      1       0.2777614       70.15529
2018    10      2       0.244219        63.21329
2018    10      3       0.2541178       65.25749
2018    10      4       0.2657011       67.65495
2018    10      5       0.2931224       73.31603
2018    10      6       0.3842275       90.98672
2018    10      7       0.4745658       106.8785
2018    11      0       0.484881        108.4635
2018    11      1       0.4785749       107.2531
2018    11      2       0.4189154       96.67017
2018    11      3       0.305318        74.94521
2018    11      4       0.3273709       79.52949
2018    11      5       0.3374197       81.75283
2018    11      6       0.2196399       57.58709
2018    11      7       0.1576187       43.72945
2018    12      0       0.2188253       57.39773
2018    12      1       0.3347084       81.19366
2018    12      2       0.6893587       138.7383
2018    12      3       1.389013        207.8156
2018    12      4       1.157837        190.2567
2018    12      5       0.8299597       157.181
2018    12      6       0.9930387       175.0717
2018    12      7       0.6908206       139.4039
2018    13      0       0.4763974       107.1646
2018    13      1       0.2476922       63.90542
2018    13      2       0.7000302       141.0065
2018    13      3       0.5860005       124.5456
2018    13      4       0.5739642       122.8394
2018    13      5       0.5732543       122.686
2018    13      6       0.483163        108.0018
2018    13      7       0.7323212       145.1517
2018    14      0       0.7046345       141.3688
2018    14      1       0.4971017       109.8589
2018    14      2       0.5773461       122.0311
2018    14      3       0.6115201       127.5735
2018    14      4       0.7368349       145.2542
2018    14      5       0.7321143       144.8339
2018    14      6       0.7007974       140.1189
2018    14      7       0.6743155       135.8966
2018    15      0       0.6352605       129.6504
2018    15      1       0.7386667       143.0968
2018    15      2       0.9137724       163.3497
2018    15      3       0.9871218       170.5748
2018    15      4       0.793898        150.7089
2018    15      5       0.8502029       158.012
2018    15      6       0.68089         137.4079
2018    15      7       0.6058355       127.0257
2018    16      0       0.5724708       122.0435
2018    16      1       0.5627464       120.7644
2018    16      2       0.5448758       118.1316
2018    16      3       0.5324029       116.192
2018    16      4       0.4910834       109.4671
2018    16      5       0.4521882       102.9359
2018    16      6       0.4717703       106.0845
2018    16      7       0.4936719       109.5383
2018    17      0       0.4910473       109.4756
2018    17      1       0.4689409       106.0504
2018    17      2       0.431155        99.24933
2018    17      3       0.3829874       90.11221
2018    17      4       0.3704472       87.41477
2018    17      5       0.36394         86.26226
2018    17      6       0.3370739       81.28532
2018    17      7       0.3127589       76.41578
2018    18      0       0.331278        79.63567
2018    18      1       0.3448631       82.34366
2018    18      2       0.3721816       87.67726
2018    18      3       0.3852577       90.32078
2018    18      4       0.4414058       100.6535
2018    18      5       0.4550479       102.7888
2018    18      6       0.4239588       96.81039
2018    18      7       0.410388        94.71685
2018    19      0       0.5579085       118.8847
2018    19      1       0.5734808       121.995
2018    19      2       0.6672544       135.4149
2018    19      3       0.7250367       143.0518
2018    19      4       0.6215878       128.7939
2018    19      5       0.6216277       129.1859
2018    19      6       0.6763718       136.7114
2018    19      7       0.8895104       161.1202
2018    20      0       0.9193368       165.0583
2018    20      1       1.04905         178.3627
2018    20      2       0.8911489       163.1603
2018    20      3       0.7523812       147.2999
2018    20      4       0.6844184       138.5914
2018    20      5       0.6831442       138.1704
2018    20      6       0.6330429       131.2294
2018    20      7       0.593545        125.3703
2018    21      0       0.5937302       125.368
2018    21      1       0.5888624       124.6867
2018    21      2       0.5725029       122.213
2018    21      3       0.6039066       126.9537
2018    21      4       0.6062437       127.3117
2018    21      5       0.5993785       126.1703
2018    21      6       0.5721583       122.2103
2018    21      7       0.5875147       124.1938
2018    22      0       0.5976246       125.2682
2018    22      1       0.61318         127.3991
2018    22      2       0.9616721       169.5436
2018    22      3       0.7525136       146.5777
2018    22      4       0.7709567       149.1991
2018    22      5       0.8070848       153.2459
2018    22      6       0.9064533       163.9381
2018    22      7       0.8954634       162.7326
2018    23      0       0.8955663       161.8273
2018    23      1       1.010375        172.6705
2018    23      2       1.276991        195.7963
2018    23      3       1.551815        214.6954
2018    23      4       1.390391        204.0806
2018    23      5       1.013803        173.5463
2018    23      6       0.6252876       127.5722
2018    23      7       0.6289911       128.0464
2018    24      0       0.5901332       123.2005
2018    24      1       0.5561397       118.4833
2018    24      2       0.5934642       123.2449
2018    24      3       0.7462758       141.214
2018    24      4       0.884554        157.0875
2018    24      5       1.061576        176.0511
2018    24      6       0.9387823       166.2069
2018    24      7       0.620647        128.7158
2018    25      0       0.549521        117.9847
2018    25      1       0.4724161       105.5398
2018    25      2       0.5416642       116.375
2018    25      3       0.7716135       149.7347
2018    25      4       0.4330723       99.43256
2018    25      5       0.1173859       34.5647
2018    25      6       0.07928252      24.87452
2018    25      7       0.09131579      27.82069
2018    26      0       0.1206953       34.64772
2018    26      1       0.2016693       53.03365
2018    26      2       0.2698052       67.99324
2018    26      3       0.2129914       55.89783
2018    26      4       0.1713968       46.37349
2018    26      5       0.1571501       43.29818
2018    26      6       0.1289822       37.02398
2018    26      7       0.1394521       39.55212
2018    27      0       0.2891392       72.54109
2018    27      1       0.3621577       86.99985
2018    27      2       0.368059        88.40167
2018    27      3       0.3679869       88.53648
2018    27      4       0.3670026       88.34575
2018    27      5       0.3501673       85.09431
2018    27      6       0.330068        81.12156
2018    27      7       0.3214639       79.39443
2018    28      0       0.3230906       79.62192
2018    28      1       0.2624472       67.30879
2018    28      2       0.1960686       52.86284
2018    28      3       0.1336414       38.16551
2018    28      4       0.09544895      28.93803
2018    28      5       0.1046401       31.23819
2018    28      6       0.1420888       40.05207
2018    28      7       0.150195        41.86777
2018    29      0       0.173165        47.3563
2018    29      1       0.3350164       82.05018
2018    29      2       0.4326811       100.0392
2018    29      3       0.4234773       98.00439
2018    29      4       0.3900837       91.55425
2018    29      5       0.3887479       90.98722
2018    29      6       0.407339        93.63701
2018    29      7       0.3197328       78.28811
2018    30      0       0.4336488       98.87992
2018    30      1       0.3477284       81.65127
2018    30      2       0.4771813       105.7276
2018    30      3       0.4800084       105.3832
2018    30      4       0.4703225       104.5912
2018    30      5       0.4657793       104.4398
2018    30      6       0.5398466       116.199
2018    30      7       0.58693         122.8342
2018    31      0       0.6593581       133.2794
2018    31      1       0.654912        133.4414
2018    31      2       0.784349        150.6316
2018    31      3       0.8729031       161.676
2018    31      4       0.8555231       160.5465
2018    31      5       0.803466        154.462
2018    31      6       0.8205408       155.9036
2018    31      7       0.7771066       150.7433
