####################################################################################################
# Month: 10Oct                                                                                     #
# Station: SKS                                                                                     #
# Frequency: 345 GHz                                                                               #
# Columns are: year    day     segment         tau     Tb (K)                                      #
####################################################################################################
2009    1       0       0.7165023       144.2229
2009    1       1       0.7748199       151.9414
2009    1       2       0.8395807       159.589
2009    1       3       0.884834        164.5607
2009    1       4       0.9834086       174.7715
2009    1       5       1.099032        185.3716
2009    1       6       1.036464        179.3688
2009    1       7       0.8957027       165.4237
2009    2       0       0.8352041       158.7902
2009    2       1       0.8388318       158.8662
2009    2       2       0.8425506       158.9693
2009    2       3       0.848998        159.5083
2009    2       4       1.056484        180.532
2009    2       5       1.383507        206.9808
2009    2       6       1.612328        221.8263
2009    2       7       2.092503        243.1482
2009    3       0       3.429321        271.2242
2009    3       1       2.879242        263.3866
2009    3       2       2.727484        261.3984
2009    3       3       2.23322         249.8337
2009    3       4       1.506416        217.1657
2009    3       5       1.732674        228.5509
2009    3       6       2.029714        241.7051
2009    3       7       2.249987        249.4744
2009    4       0       2.334103        251.393
2009    4       1       2.238902        248.0155
2009    4       2       2.046065        241.531
2009    4       3       1.837094        233.48
2009    4       4       1.779031        230.7095
2009    4       5       1.903995        235.7631
2009    4       6       1.900893        235.9451
2009    4       7       1.612207        222.3427
2009    5       0       1.448555        212.2474
2009    5       1       1.362013        205.1822
2009    5       2       1.406174        206.9418
2009    5       3       2.222566        241.9807
2009    5       4       2.121509        240.2758
2009    5       5       1.42438         210.3077
2009    5       6       1.199284        194.1508
2009    5       7       0.8646315       162.1583
2009    6       0       0.8312602       158.5275
2009    6       1       1.089026        186.0407
2009    6       2       1.486393        216.692
2009    6       3       1.447652        216.9002
2009    6       4       1.267284        201.8515
2009    6       5       0.8936496       167.0942
2009    6       6       0.727925        146.8735
2009    6       7       0.569713        124.129
2009    7       0       0.4900247       111.1396
2009    7       1       0.490517        111.1368
2009    7       2       0.5319222       117.9614
2009    7       3       0.5284036       117.4292
2009    7       4       0.5311955       117.4414
2009    7       5       0.5926981       126.4595
2009    7       6       0.7451826       148.2761
2009    7       7       0.8831376       165.2293
2009    8       0       0.9301439       170.0128
2009    8       1       1.080906        184.5892
2009    8       2       1.118476        187.916
2009    8       3       1.121674        188.3727
2009    8       4       1.100884        186.7748
2009    8       5       1.036532        181.0395
2009    8       6       1.034652        181.0542
2009    8       7       1.020338        179.4952
2009    9       0       0.9827812       175.4113
2009    9       1       0.9888641       176.0021
2009    9       2       0.9194417       169.0783
2009    9       3       0.8820745       165.1363
2009    9       4       0.9597885       173.412
2009    9       5       0.9693714       174.4672
2009    9       6       0.944063        172.0417
2009    9       7       0.9436998       172.279
2009    10      0       0.9717548       175.2168
2009    10      1       0.9990126       177.8632
2009    10      2       0.9106734       168.3936
2009    10      3       0.8198469       157.8191
2009    10      4       0.8818584       165.2673
2009    10      5       0.9109707       168.81
2009    10      6       0.8327792       159.7762
2009    10      7       0.7843064       153.7934
2009    11      0       0.8246967       158.7448
2009    11      1       0.8764453       164.5218
2009    11      2       0.8686042       163.4044
2009    11      3       0.8332396       159.1618
2009    11      4       0.8874473       165.3367
2009    11      5       0.8806374       164.7377
2009    11      6       0.845863        160.9198
2009    11      7       0.9920213       176.7123
2009    12      0       1.076157        184.4702
2009    12      1       1.084763        185.1125
2009    12      2       0.9404808       170.7207
2009    12      3       0.7757312       151.4634
2009    12      4       0.8517348       160.7229
2009    12      5       0.8859676       164.5328
2009    12      6       0.879234        163.9833
2009    12      7       0.8181431       157.4362
2009    13      0       0.6484962       134.4896
2009    13      1       2.381432        252.2882
2009    13      2       2.26907         247.5506
2009    13      3       2.824843        259.8797
2009    13      4       2.929687        261.6713
2009    13      5       2.973398        262.1522
2009    13      6       2.770173        259.6432
2009    13      7       2.092161        243.9548
2009    14      0       1.751868        229.4283
2009    14      1       1.226609        195.575
2009    14      2       1.015433        176.3694
2009    14      3       0.9154085       165.9063
2009    14      4       0.8496989       158.2248
2009    14      5       0.7885119       150.7504
2009    14      6       0.7918767       150.9496
2009    14      7       0.8247715       155.0371
2009    15      0       1.307943        201.5724
2009    15      1       1.611627        221.1784
2009    15      2       1.467482        212.8223
2009    15      3       1.666598        223.6359
2009    15      4       1.972526        236.3776
2009    15      5       2.379399        250.2414
2009    15      6       2.634841        256.8455
2009    15      7       2.878477        261.2446
2009    16      0       2.865037        261.3985
2009    16      1       2.783131        260.4537
2009    16      2       2.54601         255.5883
2009    16      3       2.346214        251.0851
2009    16      4       2.131045        245.4873
2009    16      5       2.25849         249.8032
2009    16      6       2.493778        255.577
2009    16      7       2.516072        255.6257
2009    17      0       2.399016        252.765
2009    17      1       2.241815        247.4195
2009    17      2       2.030132        239.397
2009    17      3       2.972871        261.2822
2009    17      4       2.744025        258.2145
2009    17      5       3.359026        265.8128
2009    17      6       3.138562        265.406
2009    17      7       3.40442         268.3237
2009    18      0       2.389207        250.8408
2009    18      1       2.071713        241.6037
2009    18      2       2.198004        245.7723
2009    18      3       2.531208        254.835
2009    18      4       2.822365        261.6186
2009    18      5       2.976487        264.6145
2009    18      6       2.845041        262.6472
2009    18      7       2.378134        253.0238
2009    19      0       2.25931         249.5407
2009    19      1       1.624662        223.6465
2009    19      2       1.00706         177.4173
2009    19      3       1.434354        211.4305
2009    19      4       1.689412        226.7456
2009    19      5       1.639139        224.1511
2009    19      6       1.373715        208.1547
2009    19      7       0.9806798       174.971
2009    20      0       0.4579063       104.6774
2009    20      1       0.5940231       126.1852
2009    20      2       0.8982104       165.225
2009    20      3       1.294699        201.3335
2009    20      4       1.73095         227.5323
2009    20      5       1.754172        228.6065
2009    20      6       1.561761        218.2578
2009    20      7       1.18213         191.8573
2009    21      0       0.6812723       137.5567
2009    21      1       0.3741999       87.9496
2009    21      2       0.3870845       90.38821
2009    21      3       0.4725361       104.8009
2009    21      4       0.6261046       127.6997
2009    21      5       0.6580426       132.5533
2009    21      6       0.5708528       120.7684
2009    21      7       0.5471005       117.4265
2009    22      0       0.5395208       116.1767
2009    22      1       0.5287456       114.644
2009    22      2       0.4826857       107.4332
2009    22      3       0.5340199       115.6329
2009    22      4       0.8721907       161.5452
2009    22      5       1.460868        212.9351
2009    22      6       1.662935        224.5988
2009    22      7       1.447081        212.0689
2009    23      0       1.234201        196.6862
2009    23      1       1.26699         199.3836
2009    23      2       1.174301        192.3815
2009    23      3       1.004349        176.64
2009    23      4       0.9774754       173.8176
2009    23      5       0.9194273       167.441
2009    23      6       1.047933        178.7901
2009    23      7       1.440679        208.8928
2009    24      0       2.071681        239.1143
2009    24      1       2.558203        253.5489
2009    24      2       2.638076        256.4617
2009    24      3       4.076463        273.0572
2009    24      4       3.715756        270.3216
2009    24      5       3.339273        266.7505
2009    24      6       3.216517        265.0617
2009    24      7       3.032213        261.7588
2009    25      0       2.750234        257.5332
2009    25      1       2.695646        256.5471
2009    25      2       2.780667        257.8482
2009    25      3       2.597332        254.0376
2009    25      4       2.491958        252.0447
2009    25      5       2.812451        258.6809
2009    25      6       2.574511        254.3172
2009    25      7       2.349613        249.2744
2009    26      0       2.865723        257.9155
2009    26      1       2.668577        251.6886
2009    26      2       3.787005        266.6529
2009    26      3       3.639872        265.1141
2009    26      4       2.548252        250.8867
2009    26      5       2.137985        241.3507
2009    26      6       2.7875          257.1084
2009    26      7       3.010277        259.5627
2009    27      0       3.0156          259.2074
2009    27      1       2.958716        258.9259
2009    27      2       3.466242        265.5392
2009    27      3       3.720217        267.7824
2009    27      4       3.319297        263.8165
2009    27      5       2.736634        255.9414
2009    27      6       2.638462        254.8146
2009    27      7       2.684314        256.0976
2009    28      0       2.792041        257.9807
2009    28      1       2.802724        258.1072
2009    28      2       2.714852        256.5856
2009    28      3       2.996099        261.3191
2009    28      4       3.099202        262.456
2009    28      5       3.375447        265.4479
2009    28      6       3.539542        266.8975
2009    28      7       3.496277        266.6468
2009    29      0       2.991025        260.7951
2009    29      1       2.044161        239.0971
2009    29      2       1.490645        213.4534
2009    29      3       1.555297        217.7648
2009    29      4       2.065282        240.767
2009    29      5       1.896279        233.901
2009    29      6       1.467424        211.2841
2009    29      7       1.130768        184.4994
2009    30      0       1.136532        182.8212
2009    30      1       1.303707        196.1921
2009    30      2       1.367293        201.502
2009    30      3       1.477249        208.0915
2009    30      4       1.805459        228.0842
2009    30      5       2.479943        250.1705
2009    30      6       2.243046        244.0825
2009    30      7       1.990513        235.7126
2009    31      0       2.002016        235.5667
2009    31      1       2.804108        255.166
2009    31      2       3.145986        259.3286
2009    31      3       2.939305        256.3622
2009    31      4       2.466652        247.2381
2009    31      5       2.225976        241.2121
2009    31      6       2.184696        240.0324
2009    31      7       1.725895        222.2662
2010    1       0       1.646364        227.611
2010    1       1       1.478419        217.255
2010    1       2       1.312333        205.5302
2010    1       3       1.395104        210.953
2010    1       4       1.607093        223.177
2010    1       5       1.421905        211.7937
2010    1       6       1.062694        183.0857
2010    1       7       0.8658277       163.1098
2010    2       0       0.7703452       151.364
2010    2       1       0.8004824       154.4954
2010    2       2       0.9727129       172.526
2010    2       3       1.237193        194.3666
2010    2       4       1.838289        232.7352
2010    2       5       2.195355        246.6133
2010    2       6       2.044066        241.636
2010    2       7       1.8407          233.3905
2010    3       0       1.703013        227.0247
2010    3       1       1.617643        222.3683
2010    3       2       1.623849        222.5208
2010    3       3       1.601561        221.2151
2010    3       4       1.626403        222.1731
2010    3       5       1.549942        217.6584
2010    3       6       1.510896        215.0509
2010    3       7       1.359531        205.0834
2010    4       0       1.359682        204.6114
2010    4       1       1.448156        210.177
2010    4       2       1.401195        207.5051
2010    4       3       1.451058        211.0257
2010    4       4       1.745275        227.7274
2010    4       5       1.936789        236.6663
2010    4       6       1.94545         236.9558
2010    4       7       1.914909        235.7523
2010    5       0       1.882447        234.6225
2010    5       1       1.869428        234.3048
2010    5       2       1.897287        235.476
2010    5       3       1.937159        237.2509
2010    5       4       2.173438        245.8849
2010    5       5       2.090609        243.3691
2010    5       6       1.768386        230.6264
2010    5       7       1.831638        233.3162
2010    6       0       2.077462        242.9608
2010    6       1       2.503686        254.8556
2010    6       2       2.544765        255.7953
2010    6       3       2.624287        257.2545
2010    6       4       2.958737        263.6153
2010    6       5       3.187207        267.4849
2010    6       6       2.948182        264.3388
2010    6       7       2.882838        262.7128
2010    7       0       3.109457        265.8171
2010    7       1       3.484129        269.5633
2010    7       2       3.602953        269.6241
2010    7       3       3.230604        265.2805
2010    7       4       3.236081        264.1525
2010    7       5       3.631944        267.5307
2010    7       6       3.220622        264.6325
2010    7       7       2.74205         258.4825
2010    8       0       2.40561         251.0903
2010    8       1       2.12164         242.3709
2010    8       2       1.801786        229.9329
2010    8       3       1.671188        223.486
2010    8       4       1.470619        212.1231
2010    8       5       1.3764          205.9024
2010    8       6       1.391765        206.8116
2010    8       7       1.273145        198.3126
2010    9       0       1.601609        219.2091
2010    9       1       1.763514        226.376
2010    9       2       1.354184        203.3458
2010    9       3       1.345522        202.9193
2010    9       4       1.649529        221.7466
2010    9       5       2.137239        241.9099
2010    9       6       2.257192        245.9402
2010    9       7       2.068637        240.2398
2010    10      0       2.231779        245.0761
2010    10      1       3.028832        261.0331
2010    10      2       3.779223        268.369
2010    10      3       4.38976         272.1456
2010    10      4       4.608195        273.5159
2010    10      5       4.5025          273.6382
2010    10      6       3.285213        265.2371
2010    10      7       2.473089        252.8985
2010    11      0       1.596777        220.9964
2010    11      1       1.049515        179.5852
2010    11      2       1.22141         194.3844
2010    11      3       2.097678        242.7124
2010    11      4       2.873425        261.929
2010    11      5       2.87127         262.3115
2010    11      6       3.107953        265.9253
2010    11      7       3.257869        267.6375
2010    12      0       3.161886        265.9075
2010    12      1       2.804013        260.5255
2010    12      2       3.30677         268.2165
2010    12      3       3.474129        270.6855
2010    12      4       3.59456         272.6636
2010    12      5       2.936714        265.7483
2010    12      6       3.591176        274.3326
2010    12      7       3.111579        269.4389
2010    13      0       2.94403         267.7383
2010    13      1       3.029627        267.2292
2010    13      2       3.606919        272.7737
2010    13      3       3.497144        272.6129
2010    13      4       3.623667        272.9595
2010    13      5       3.731279        273.5857
2010    13      6       3.088392        267.448
2010    13      7       2.875008        264.579
2010    14      0       3.367904        270.8606
2010    14      1       3.381982        270.5948
2010    14      2       3.146348        268.2429
2010    14      3       3.165656        268.4432
2010    14      4       3.444842        271.5665
2010    14      5       2.703303        261.8991
2010    14      6       0.829172        159.0845
2010    14      7       1.404702        211.108
2010    15      0       1.871598        235.1774
2010    15      1       2.054373        241.4099
2010    15      2       2.655787        256.7541
2010    15      3       2.95835         262.729
2010    15      4       2.819818        261.4092
2010    15      5       2.149042        245.6808
2010    15      6       1.577549        219.661
2010    15      7       1.763463        228.921
2010    16      0       2.023644        239.4978
2010    16      1       2.081765        240.1172
2010    16      2       2.055781        237.9088
2010    16      3       2.153792        241.6586
2010    16      4       2.280166        246.4966
2010    16      5       2.09314         242.1021
2010    16      6       1.707773        226.3989
2010    16      7       1.486751        212.703
2010    17      0       1.442741        208.6742
2010    17      1       1.639488        219.71
2010    17      2       1.882268        232.0714
2010    17      3       2.19657         244.1881
2010    17      4       2.138154        242.0989
2010    17      5       2.841806        258.7448
2010    17      6       3.727339        270.2471
2010    17      7       3.103875        264.823
2010    18      0       3.368274        267.7094
2010    18      1       3.268609        266.9966
2010    18      2       3.385928        268.1747
2010    18      3       3.537476        269.8581
2010    18      4       3.489794        269.6868
2010    18      5       3.767339        271.5617
2010    18      6       3.086198        265.8543
2010    18      7       3.150217        267.0846
2010    19      0       1.94881         239.8617
2010    19      1       1.102226        187.3911
2010    19      2       0.6865615       140.2938
2010    19      3       0.5613066       121.4529
2010    19      4       0.5963475       125.5573
2010    19      5       0.802297        153.0351
2010    19      6       0.9744626       173.4748
2010    19      7       1.722111        227.4733
2010    20      0       2.086658        240.0395
2010    20      1       1.301304        199.126
2010    20      2       1.698168        224.9501
2010    20      3       3.027767        263.487
2010    20      4       2.836236        261.1609
2010    20      5       1.668456        225.774
2010    20      6       1.254545        200.2149
2010    20      7       0.700527        142.9773
2010    21      0       0.5203181       116.129
2010    21      1       0.5882049       126.62
2010    21      2       0.9280224       169.9421
2010    21      3       1.349599        206.8238
2010    21      4       1.239708        198.0216
2010    21      5       1.053933        181.5491
2010    21      6       1.036775        179.2795
2010    21      7       1.085325        182.7772
2010    22      0       1.616881        220.6665
2010    22      1       1.931662        235.0687
2010    22      2       1.982888        236.8321
2010    22      3       2.055737        239.6708
2010    22      4       2.503286        252.4857
2010    22      5       2.18183         243.917
2010    22      6       2.129845        241.784
2010    22      7       1.889997        233.2668
2010    23      0       1.291912        200.2499
2010    23      1       0.7901965       151.322
2010    23      2       0.6536937       133.1811
2010    23      3       0.5966942       125.1298
2010    23      4       0.5719394       121.8504
2010    23      5       0.5778968       123.0028
2010    23      6       0.5471972       118.1801
2010    23      7       0.5407761       117.0385
2010    24      0       0.545095        117.6069
2010    24      1       0.5886274       124.2952
2010    24      2       0.5578219       119.7591
2010    24      3       0.4703492       105.9869
2010    24      4       0.4814571       108.3299
2010    24      5       0.3963249       93.7264
2010    24      6       0.3093344       77.02387
2010    24      7       0.2591861       67.0526
2010    25      0       0.2768642       70.47499
2010    25      1       0.4496322       101.555
2010    25      2       1.110011        181.6514
2010    25      3       1.931414        232.6926
2010    25      4       2.243359        247.6372
2010    25      5       2.870376        263.2498
2010    25      6       2.594747        257.6747
2010    25      7       2.408136        253.603
2010    26      0       2.843127        261.6621
2010    26      1       3.822582        272.0366
2010    26      2       3.227763        266.8729
2010    26      3       3.589248        270.1494
2010    26      4       3.698198        270.5986
2010    26      5       3.301769        268.1275
2010    26      6       3.372877        268.8678
2010    26      7       3.487305        269.9162
2010    27      0       3.765352        270.804
2010    27      1       3.405162        267.2993
2010    27      2       3.25064         265.5004
2010    27      3       3.246542        264.9741
2010    27      4       3.153594        264.6378
2010    27      5       3.811704        273.6156
2010    27      6       3.777101        270.9625
2010    27      7       3.927075        270.6058
2010    28      0       2.303179        246.7634
2010    28      1       0.904057        164.7538
2010    28      2       1.612196        218.2918
2010    28      3       1.407752        205.9955
2010    28      4       1.931295        232.8044
2010    28      5       2.663442        252.5082
2010    28      6       2.037508        236.1594
2010    28      7       2.388117        246.5949
2010    29      0       2.270097        243.011
2010    29      1       1.813813        227.5479
2010    29      2       1.825955        228.6585
2010    29      3       1.903696        232.4713
2010    29      4       1.291521        199.7821
2010    29      5       1.01081         176.7207
2010    29      6       0.5079348       112.3526
2010    29      7       0.3439211       82.95793
2010    30      0       0.3308631       80.31332
2010    30      1       0.3082287       75.58529
2010    30      2       0.2848197       70.80828
2010    30      3       0.2738387       68.62631
2010    30      4       0.2895424       71.57419
2010    30      5       0.3051821       74.55978
2010    30      6       0.3274211       78.92852
2010    30      7       0.3381373       81.06943
2010    31      0       0.3145069       76.63084
2010    31      1       0.300297        73.96446
2010    31      2       0.2983604       73.55734
2010    31      3       0.3164201       77.12182
2010    31      4       0.3115936       76.28293
2010    31      5       0.3104521       76.24217
2010    31      6       0.3440238       82.67245
2010    31      7       0.3874269       90.30112
2011    1       0       0.9948813       174.523
2011    1       1       0.683136        139.0065
2011    1       2       1.897205        240.1781
2011    1       3       1.721224        230.9011
2011    1       4       1.653101        223.8411
2011    1       5       1.124845        186.9192
2011    1       6       0.7043296       140.2627
2011    1       7       0.7241166       143.0758
2011    2       0       0.7807252       150.3969
2011    2       1       1.01347         176.2715
2011    2       2       1.569669        218.296
2011    2       3       2.483199        252.3635
2011    2       4       2.547663        253.6521
2011    2       5       2.182365        243.7859
2011    2       6       1.670065        223.0058
2011    2       7       1.523779        214.8655
2011    3       0       1.582158        218.4518
2011    3       1       1.660038        222.7927
2011    3       2       2.018779        238.993
2011    3       3       2.191406        244.683
2011    3       4       2.402803        250.7078
2011    3       5       2.438465        252.0618
2011    3       6       2.269854        247.9372
2011    3       7       1.907047        236.0396
2011    4       0       1.625429        222.8546
2011    4       1       1.548807        218.2754
2011    4       2       1.550596        218.0109
2011    4       3       1.589159        220.0177
2011    4       4       2.02091         239.6606
2011    4       5       2.303305        248.8008
2011    4       6       2.076521        241.6577
2011    4       7       1.888141        233.8623
2011    5       0       1.97642         236.9158
2011    5       1       2.136476        242.3337
2011    5       2       2.159067        243.2737
2011    5       3       2.133924        243.3369
2011    5       4       2.211826        246.2769
2011    5       5       2.167514        245.0105
2011    5       6       1.977651        238.7107
2011    5       7       1.958961        238.0463
2011    6       0       1.958813        237.9972
2011    6       1       1.812629        231.7185
2011    6       2       1.604293        221.6677
2011    6       3       1.636847        223.5082
2011    6       4       1.918149        237.2513
2011    6       5       2.115305        244.7394
2011    6       6       2.145704        245.3616
2011    6       7       1.581992        220.5123
2011    7       0       1.666598        223.9984
2011    7       1       1.55318         217.9
2011    7       2       1.570091        219.7298
2011    7       3       1.772629        230.3458
2011    7       4       2.068886        242.3834
2011    7       5       2.023293        240.3008
2011    7       6       1.863335        233.0973
2011    7       7       1.444452        211.9986
2011    8       0       1.819613        232.4306
2011    8       1       1.809454        232.5107
2011    8       2       1.659018        225.4624
2011    8       3       2.27757         249.2991
2011    8       4       2.884129        262.3792
2011    8       5       3.744438        272.1133
2011    8       6       3.725504        271.8799
2011    8       7       4.708899        275.2448
2011    9       0       4.365243        275.5726
2011    9       1       3.737075        272.1605
2011    9       2       3.073482        265.421
2011    9       3       3.462035        268.8516
2011    9       4       4.228312        272.9978
2011    9       5       4.359365        273.8153
2011    9       6       2.758262        257.9595
2011    9       7       1.625337        222.6358
2011    10      0       2.433493        251.1482
2011    10      1       3.01712         260.5418
2011    10      2       2.356296        246.6763
2011    10      3       1.482323        210.9444
2011    10      4       1.761125        225.4168
2011    10      5       2.647334        251.7207
2011    10      6       3.214193        261.1482
2011    10      7       2.560362        250.0922
2011    11      0       2.161949        240.6382
2011    11      1       2.016233        235.8087
2011    11      2       1.880529        231.289
2011    11      3       2.547568        251.6913
2011    11      4       2.212021        242.5995
2011    11      5       2.52282         250.5445
2011    11      6       1.932449        232.3086
2011    11      7       1.721741        223.1888
2011    12      0       1.918327        231.6607
2011    12      1       2.072301        237.5779
2011    12      2       1.86831         230.837
2011    12      3       1.979489        236.2564
2011    12      4       1.971018        236.1229
2011    12      5       1.995327        237.2934
2011    12      6       1.465571        211.6417
2011    12      7       1.380715        206.7865
2011    13      0       1.348444        204.4735
2011    13      1       1.470519        212.8627
2011    13      2       1.578174        219.1053
2011    13      3       1.598315        220.0388
2011    13      4       1.60738         220.5529
2011    13      5       1.538455        216.9198
2011    13      6       1.225302        195.7099
2011    13      7       1.034992        178.9608
2011    14      0       1.011247        176.5577
2011    14      1       1.052252        180.3164
2011    14      2       1.134904        187.4202
2011    14      3       1.186209        191.4743
2011    14      4       1.276959        198.4917
2011    14      5       1.336706        202.9229
2011    14      6       1.16779         189.689
2011    14      7       1.077487        181.765
2011    15      0       1.136137        187.0946
2011    15      1       1.224691        194.2682
2011    15      2       1.227483        194.7564
2011    15      3       1.367072        205.6198
2011    15      4       1.814908        230.6744
2011    15      5       2.157766        243.7299
2011    15      6       1.791225        229.4913
2011    15      7       1.534011        215.7212
2011    16      0       1.651658        221.7745
2011    16      1       1.858515        230.8381
2011    16      2       2.227198        243.7912
2011    16      3       2.539193        250.9154
2011    16      4       2.748835        253.9868
2011    16      5       2.914108        257.6217
2011    16      6       2.747572        254.5617
2011    16      7       2.48455         249.2758
2011    17      0       2.749992        254.3171
2011    17      1       3.3834          263.3878
2011    17      2       3.851359        267.7578
2011    17      3       3.82841         267.4671
2011    17      4       3.638264        265.8935
2011    17      5       2.437248        248.5214
2011    17      6       1.368074        203.4968
2011    17      7       1.087833        181.2695
2011    18      0       0.9121431       163.892
2011    18      1       0.9040144       162.5424
2011    18      2       0.9278788       164.5083
2011    18      3       1.04558         176.0131
2011    18      4       1.032144        175.1843
2011    18      5       0.7445803       144.4925
2011    18      6       0.2175952       57.69542
2011    18      7       0.216003        57.50127
2011    19      0       0.2292072       60.46187
2011    19      1       0.2095807       56.337
2011    19      2       0.1897438       51.89797
2011    19      3       0.162269        45.72828
2011    19      4       0.1486912       42.60707
2011    19      5       0.1477136       42.27816
2011    19      6       0.1365519       39.68526
2011    19      7       0.1218333       36.30036
2011    20      0       0.1151181       34.72225
2011    20      1       0.110903        33.64598
2011    20      2       0.1028564       31.76935
2011    20      3       0.1031857       31.66857
2011    20      4       0.125366        36.20227
2011    20      5       0.1763263       46.94131
2011    20      6       0.1918529       50.71877
2011    20      7       0.2565822       64.0234
2011    21      0       0.3241022       76.931
2011    21      1       0.376496        86.22645
2011    21      2       0.3927734       88.2708
2011    21      3       0.3949317       88.33596
2011    21      4       0.4246772       92.77525
2011    21      5       0.3650393       83.41579
2011    21      6       0.3616342       83.39487
2011    21      7       0.4339049       96.41765
2011    22      0       0.4575823       101.3229
2011    22      1       0.481581        105.7702
2011    22      2       0.4616003       103.0564
2011    22      3       0.4649608       103.515
2011    22      4       0.4785412       104.9767
2011    22      5       0.4520556       100.9922
2011    22      6       0.535767        113.6536
2011    22      7       0.6257071       126.7668
2011    23      0       0.6501414       130.0952
2011    23      1       0.63922         128.7468
2011    23      2       0.6985822       136.5861
2011    23      3       0.8661237       155.9761
2011    23      4       1.049513        173.2173
2011    23      5       1.506045        206.8225
2011    23      6       2.041479        234.1165
2011    23      7       1.971356        232.6355
2011    24      0       1.934897        231.457
2011    24      1       1.917771        231.986
2011    24      2       2.027301        237.1649
2011    24      3       2.149214        242.7263
2011    24      4       2.320206        248.2844
2011    24      5       1.521293        215.3052
2011    24      6       1.047321        179.0888
2011    24      7       1.024568        176.284
2011    25      0       1.214478        192.3452
2011    25      1       1.445871        209.1025
2011    25      2       1.988316        234.5381
2011    25      3       2.577242        250.6714
2011    25      4       3.03749         259.0066
2011    25      5       3.358825        263.7169
2011    25      6       3.245038        263.047
2011    25      7       2.798841        257.4474
2011    26      0       2.237391        245.5719
2011    26      1       1.747165        227.8408
2011    26      2       1.15085         189.7115
2011    26      3       0.9156051       167.2243
2011    26      4       0.9366705       169.6337
2011    26      5       0.943705        169.8791
2011    26      6       0.8185594       154.8184
2011    26      7       0.7060536       139.629
2011    27      0       0.8059776       152.1078
2011    27      1       0.8625966       159.1323
2011    27      2       0.8729174       160.2386
2011    27      3       0.8682782       159.4532
2011    27      4       0.8235643       154.3932
2011    27      5       0.7965644       150.8609
2011    27      6       0.7397112       143.4377
2011    27      7       0.7888984       149.3145
2011    28      0       0.7686902       146.0383
2011    28      1       0.6079245       124.6084
2011    28      2       0.3869504       89.13247
2011    28      3       0.332452        79.09742
2011    28      4       0.3859168       89.12136
2011    28      5       0.4356572       97.61163
2011    28      6       0.4792222       104.6073
2011    28      7       0.544471        114.2267
2011    29      0       0.552066        115.8095
2011    29      1       0.4994405       108.7369
2011    29      2       0.5404253       115.1921
2011    29      3       0.57609         121.2001
2011    29      4       0.5804536       122.0741
2011    29      5       0.5114128       111.4879
2011    29      6       0.4187077       96.22683
2011    29      7       0.4294002       98.46973
2011    30      0       0.4048885       94.16778
2011    30      1       0.3546792       84.75365
2011    30      2       0.3077355       75.97999
2011    30      3       0.2054672       55.69477
2011    30      4       0.1812868       50.33893
2011    30      5       0.1748323       48.70747
2011    30      6       0.1948708       52.99768
2011    30      7       0.2223421       58.66124
2011    31      0       0.2297919       59.94104
2011    31      1       0.2353944       60.64771
2011    31      2       0.2671313       66.41249
2011    31      3       0.301864        72.90842
2011    31      4       0.3659428       85.02165
2011    31      5       0.5488461       114.6311
2011    31      6       0.8645052       154.6693
2011    31      7       1.137232        181.4252
2012    1       0       1.339525        207.5595
2012    1       1       1.393088        211.2233
2012    1       2       1.466211        216.0211
2012    1       3       1.474251        216.3912
2012    1       4       1.38729         210.762
2012    1       5       1.294322        204.1016
2012    1       6       1.215886        198.1306
2012    1       7       1.001684        178.3833
2012    2       0       0.9709165       175.1051
2012    2       1       1.261559        201.5179
2012    2       2       1.449634        215.3248
2012    2       3       1.55378         221.2572
2012    2       4       1.241116        199.2067
2012    2       5       1.422792        211.8602
2012    2       6       1.676206        226.395
2012    2       7       2.24842         249.7105
2012    3       0       2.644596        260.0456
2012    3       1       2.790035        261.8818
2012    3       2       2.314604        251.838
2012    3       3       2.041229        242.6314
2012    3       4       1.733613        230.2975
2012    3       5       1.556488        221.3485
2012    3       6       0.9100502       168.0894
2012    3       7       0.7940163       154.4618
2012    4       0       0.8713032       163.4925
2012    4       1       1.260136        199.9827
2012    4       2       1.523786        217.6094
2012    4       3       1.838152        233.5096
2012    4       4       2.119262        244.309
2012    4       5       2.183764        246.634
2012    4       6       2.216571        246.6646
2012    4       7       2.293299        247.4104
2012    5       0       2.076851        240.6105
2012    5       1       1.840105        231.4186
2012    5       2       1.702862        224.9387
2012    5       3       1.531339        216.5914
2012    5       4       1.518884        216.7972
2012    5       5       1.374364        208.178
2012    5       6       1.297401        202.4127
2012    5       7       1.192303        193.9164
2012    6       0       1.120318        187.4918
2012    6       1       0.985632        174.6496
2012    6       2       0.8953465       165.3804
2012    6       3       0.8981859       165.9985
2012    6       4       1.077852        184.4283
2012    6       5       1.300571        202.8117
2012    6       6       1.255807        198.8657
2012    6       7       1.165562        191.5028
2012    7       0       1.128479        188.7111
2012    7       1       1.10235         186.4383
2012    7       2       1.030914        179.5936
2012    7       3       1.011747        177.5903
2012    7       4       1.134851        189.2524
2012    7       5       1.284454        201.8285
2012    7       6       0.9820199       175.1255
2012    7       7       0.8133372       156.1954
2012    8       0       0.7807264       152.0781
2012    8       1       0.7522052       148.7451
2012    8       2       0.653206        135.1741
2012    8       3       0.6586777       135.0599
2012    8       4       1.389994        206.3202
2012    8       5       2.47002         251.7065
2012    8       6       2.540843        253.0219
2012    8       7       2.705579        256.3477
2012    9       0       2.556895        253.8799
2012    9       1       2.472422        252.4505
2012    9       2       2.719639        257.5771
2012    9       3       2.931474        261.2217
2012    9       4       3.315318        266.269
2012    9       5       3.36206         266.8204
2012    9       6       2.947856        262.086
2012    9       7       2.861881        260.6595
2012    10      0       2.824621        259.7408
2012    10      1       2.711014        257.3539
2012    10      2       2.575777        254.3945
2012    10      3       2.320605        248.3618
2012    10      4       2.174886        243.973
2012    10      5       1.892292        233.6341
2012    10      6       1.882034        233.3395
2012    10      7       2.197947        245.6159
2012    11      0       2.360314        250.6154
2012    11      1       2.249051        247.3523
2012    11      2       2.285483        248.1895
2012    11      3       2.404256        251.2802
2012    11      4       2.579285        255.8069
2012    11      5       2.351078        250.4966
2012    11      6       1.792439        231.3591
2012    11      7       1.581561        220.8665
2012    12      0       1.628781        223.1343
2012    12      1       1.726582        228.1097
2012    12      2       1.71683         227.4165
2012    12      3       1.766233        229.3768
2012    12      4       2.03593         240.5638
2012    12      5       2.211946        246.943
2012    12      6       2.277247        248.7873
2012    12      7       2.338989        250.4643
2012    13      0       2.548852        255.4118
2012    13      1       2.764235        259.3228
2012    13      2       2.642101        257.0237
2012    13      3       2.553953        255.6418
2012    13      4       2.656923        258.0051
2012    13      5       2.432723        253.2769
2012    13      6       2.133476        244.9516
2012    13      7       2.060199        242.6504
2012    14      0       2.181592        246.6069
2012    14      1       2.273025        249.2452
2012    14      2       2.231857        248.4051
2012    14      3       2.118772        245.1363
2012    14      4       2.046367        242.8467
2012    14      5       1.897997        236.9198
2012    14      6       1.779739        231.6859
2012    14      7       1.969825        239.3175
2012    15      0       1.941716        238.3506
2012    15      1       1.70452         228.3686
2012    15      2       2.07746         242.9713
2012    15      3       2.244441        247.2066
2012    15      4       2.573416        256.3494
2012    15      5       3.040862        265.3165
2012    15      6       2.826298        262.6269
2012    15      7       2.470354        255.9233
2012    16      0       2.159337        246.8904
2012    16      1       2.066106        243.3375
2012    16      2       2.192654        247.8207
2012    16      3       2.129299        246.2895
2012    16      4       2.257262        250.6682
2012    16      5       2.473107        256.3562
2012    16      6       2.281654        251.3076
2012    16      7       2.107852        245.6844
2012    17      0       1.87            236.3756
2012    17      1       1.68493         227.2431
2012    17      2       1.6198          223.534
2012    17      3       1.626846        223.8297
2012    17      4       1.845353        234.1529
2012    17      5       2.134876        245.3571
2012    17      6       2.293687        250.6642
2012    17      7       2.484327        255.7489
2012    18      0       2.379318        252.6911
2012    18      1       2.225516        247.7101
2012    18      2       2.173253        245.8322
2012    18      3       2.122411        243.9421
2012    18      4       2.161725        245.2057
2012    18      5       2.160089        245.3128
2012    18      6       2.039286        241.6547
2012    18      7       1.968088        239.3244
2012    19      0       1.90596         236.6359
2012    19      1       1.872571        235.0019
2012    19      2       1.885952        235.6758
2012    19      3       1.850547        234.4379
2012    19      4       1.755439        230.3754
2012    19      5       1.659108        225.8306
2012    19      6       1.451944        213.9005
2012    19      7       1.224497        197.6363
2012    20      0       1.171149        193.3485
2012    20      1       1.125837        189.278
2012    20      2       1.111233        187.9712
2012    20      3       1.110538        188.0331
2012    20      4       1.057309        182.8477
2012    20      5       0.9883826       175.6687
2012    20      6       0.9284045       169.1003
2012    20      7       0.7681458       149.9512
2012    21      0       0.7286625       144.5959
2012    21      1       0.9552728       171.3401
2012    21      2       1.081784        183.965
2012    21      3       0.8723531       162.3761
2012    21      4       0.9634945       172.3223
2012    21      5       2.153795        244.2004
2012    21      6       2.279428        247.5586
2012    21      7       1.845211        232.1139
2012    22      0       1.437942        209.8668
2012    22      1       2.125849        241.6359
2012    22      2       2.755589        257.196
2012    22      3       2.46149         250.9112
2012    22      4       2.648522        254.6773
2012    22      5       2.873817        258.6871
2012    22      6       2.981578        260.2069
2012    22      7       2.39617         248.7977
2012    23      0       1.961551        234.5595
2012    23      1       2.209417        242.4519
2012    23      2       2.424305        248.1855
2012    23      3       2.631276        252.9658
2012    23      4       3.027589        260.1308
2012    23      5       3.901884        269.0815
2012    23      6       3.497985        265.4673
2012    23      7       3.978268        269.1587
2012    24      0       3.484674        265.5795
2012    24      1       3.392395        264.7618
2012    24      2       3.443507        265.4301
2012    24      3       3.139597        261.7376
2012    24      4       3.193956        262.7001
2012    24      5       3.074446        260.6103
2012    24      6       2.831484        257.0857
2012    24      7       2.386132        248.2102
2012    25      0       2.276238        245.5301
2012    25      1       2.365397        248.1503
2012    25      2       2.628865        254.647
2012    25      3       2.936568        260.2395
2012    25      4       2.998457        261.0679
2012    25      5       2.778864        257.7377
2012    25      6       1.949889        236.0046
2012    25      7       1.346637        204.2561
2012    26      0       1.058963        181.0576
2012    26      1       0.9079486       165.9343
2012    26      2       0.8041237       154.1513
2012    26      3       0.7020666       141.4889
2012    26      4       0.7161032       143.3058
2012    26      5       0.9383081       169.1823
2012    26      6       1.122723        186.9104
2012    26      7       1.463675        212.7599
2012    27      0       1.968247        238.1708
2012    27      1       2.166318        245.2226
2012    27      2       1.8853          235.0583
2012    27      3       1.943007        237.4395
2012    27      4       2.373883        251.6927
2012    27      5       2.874021        261.7791
2012    27      6       2.735558        259.2921
2012    27      7       2.729842        259.4465
2012    28      0       2.63087         257.9053
2012    28      1       2.42568         253.8736
2012    28      2       2.344758        251.4565
2012    28      3       2.072134        242.8808
2012    28      4       1.938146        237.6555
2012    28      5       1.790323        231.6659
2012    28      6       1.697129        226.5161
2012    28      7       1.510633        216.3175
2012    29      0       1.406451        210.9941
2012    29      1       1.739199        229.41
2012    29      2       1.846854        233.9298
2012    29      3       1.79231         231.2636
2012    29      4       1.756063        229.6543
2012    29      5       2.068129        242.343
2012    29      6       2.634164        257.838
2012    29      7       2.363087        251.1434
2012    30      0       1.739578        229.696
2012    30      1       0.925755        169.3961
2012    30      2       0.2531742       66.16884
2012    30      3       0.230979        61.07358
2012    30      4       0.2507397       64.24704
2012    30      5       0.37744         86.68807
2012    30      6       0.6284339       124.44
2012    30      7       1.06784         175.5529
2012    31      0       1.034679        173.1658
2012    31      1       1.88572         228.7723
2012    31      2       2.577851        251.532
2012    31      3       1.533866        213.4542
2012    31      4       0.9144364       164.3557
2012    31      5       0.9033839       162.8562
2012    31      6       1.168609        186.4027
2012    31      7       1.79746         225.9913
2013    1       0       3.015007        267.0063
2013    1       1       3.156048        268.1805
2013    1       2       3.450159        269.7181
2013    1       3       3.817788        271.8795
2013    1       4       3.474799        270.2098
2013    1       5       2.606629        258.4401
2013    1       6       1.832963        234.2648
2013    1       7       1.705885        227.9599
2013    2       0       1.765352        231.3676
2013    2       1       2.044286        243.2328
2013    2       2       1.631783        224.5544
2013    2       3       1.861956        235.5376
2013    2       4       2.250375        249.093
2013    2       5       2.472697        255.3885
2013    2       6       2.408609        254.08
2013    2       7       2.045571        242.7907
2013    3       0       1.830966        233.7237
2013    3       1       2.240059        248.183
2013    3       2       2.90258         262.7461
2013    3       3       2.825721        261.2144
2013    3       4       2.332582        250.6698
2013    3       5       1.332471        206.7347
2013    3       6       1.263671        201.9451
2013    3       7       1.604458        225.5615
2013    4       0       1.827013        237.3691
2013    4       1       2.0163          244.8868
2013    4       2       1.667977        228.3255
2013    4       3       1.277342        202.397
2013    4       4       1.200753        193.5001
2013    4       5       1.371413        205.8824
2013    4       6       1.296333        200.7118
2013    4       7       1.254637        197.5049
2013    5       0       1.29826         200.5664
2013    5       1       1.408875        210.3236
2013    5       2       1.00826         175.8054
2013    5       3       0.385647        91.5781
2013    5       4       0.299937        75.1978
2013    5       5       0.3139481       78.12138
2013    5       6       0.3085506       77.23854
2013    5       7       0.3247323       79.31695
2013    6       0       0.5782956       120.8081
2013    6       1       0.8318113       153.4752
2013    6       2       1.063902        177.3215
2013    6       3       1.316778        197.6727
2013    6       4       1.53656         212.5364
2013    6       5       1.244545        193.9131
2013    6       6       0.9403042       166.652
2013    6       7       0.9524111       167.3594
2013    7       0       1.115469        182.1129
2013    7       1       1.279195        194.9412
2013    7       2       1.317756        197.4426
2013    7       3       1.304449        196.6153
2013    7       4       1.329485        198.6619
2013    7       5       1.389771        203.0371
2013    7       6       1.566469        214.2986
2013    7       7       1.717795        222.6741
2013    8       0       1.800128        226.7699
2013    8       1       1.878365        230.128
2013    8       2       1.832518        228.1956
2013    8       3       1.813358        227.3576
2013    8       4       1.845559        228.8565
2013    8       5       1.880198        230.4046
2013    8       6       1.766014        225.2969
2013    8       7       1.587575        216.476
2013    9       0       1.581941        216.2175
2013    9       1       1.577271        216.0255
2013    9       2       1.547083        214.7024
2013    9       3       1.6122          218.8496
2013    9       4       1.64545         221.1778
2013    9       5       1.877384        233.8105
2013    9       6       2.302637        249.783
2013    9       7       2.776977        261.0922
2013    10      0       2.619761        258.0477
2013    10      1       2.089807        243.9762
2013    10      2       1.761795        230.5718
2013    10      3       2.04202         242.6706
2013    10      4       2.187664        247.4077
2013    10      5       2.152745        245.8807
2013    10      6       2.511503        255.5672
2013    10      7       2.397142        252.9084
2013    11      0       2.171778        246.7434
2013    11      1       2.077595        243.8937
2013    11      2       2.226158        248.7568
2013    11      3       2.314162        251.5256
2013    11      4       2.440635        254.4045
2013    11      5       2.539062        256.3544
2013    11      6       2.323391        251.35
2013    11      7       1.995017        240.9489
2013    12      0       1.931696        237.7955
2013    12      1       2.193986        246.4454
2013    12      2       2.043855        241.5694
2013    12      3       1.936277        237.7557
2013    12      4       2.117817        244.4365
2013    12      5       2.80591         262.6927
2013    12      6       1.603784        223.1593
2013    12      7       1.431484        213.1695
2013    13      0       1.668324        226.3255
2013    13      1       1.677392        226.4535
2013    13      2       1.695014        226.5785
2013    13      3       1.565945        220.3678
2013    13      4       1.756686        231.4805
2013    13      5       1.98369         241.5306
2013    13      6       1.758177        231.3568
2013    13      7       1.489114        216.4271
2013    14      0       1.409936        211.0958
2013    14      1       1.535421        218.9587
2013    14      2       1.382086        209.2621
2013    14      3       1.118263        189.0642
2013    14      4       1.414378        212.9044
2013    14      5       1.792817        233.9441
2013    14      6       1.98806         241.7273
2013    14      7       1.715773        229.8258
2013    15      0       1.61454         224.1749
2013    15      1       1.548905        219.7688
2013    15      2       1.162357        191.6514
2013    15      3       1.566631        220.7863
2013    15      4       1.976682        240.1989
2013    15      5       2.161518        246.9828
2013    15      6       1.947561        238.9313
2013    15      7       1.805765        233.1583
2013    16      0       1.737055        229.0051
2013    16      1       1.727814        227.5303
2013    16      2       2.04343         241.1002
2013    16      3       2.304429        248.8715
2013    16      4       2.597553        255.5612
2013    16      5       2.718208        257.0328
2013    16      6       3.478346        267.5774
2013    16      7       3.315132        265.5643
2013    17      0       2.811581        258.9968
2013    17      1       2.563295        255.5115
2013    17      2       1.927841        235.8508
2013    17      3       0.8109044       152.2717
2013    17      4       0.4799725       107.5439
2013    17      5       1.297042        201.5111
2013    17      6       1.344568        203.8028
2013    17      7       1.261057        197.8518
2013    18      0       1.177569        191.5914
2013    18      1       1.325369        203.7507
2013    18      2       1.136133        189.0242
2013    18      3       1.151997        190.5813
2013    18      4       1.056879        181.8735
2013    18      5       0.8131939       155.6029
2013    18      6       0.5872033       125.0529
2013    18      7       0.4971739       110.6263
2013    19      0       0.5105728       112.6085
2013    19      1       0.5449506       118.0051
2013    19      2       0.5372768       116.338
2013    19      3       0.551451        118.2742
2013    19      4       0.5873842       123.4482
2013    19      5       0.5084918       110.2857
2013    19      6       0.5179931       111.3803
2013    19      7       0.5464414       115.2129
2013    20      0       0.556964        116.3772
2013    20      1       0.5549464       115.7798
2013    20      2       0.5143514       109.3159
2013    20      3       0.4847191       104.7012
2013    20      4       0.522631        110.6268
2013    20      5       0.5752746       118.5979
2013    20      6       0.6079615       123.5642
2013    20      7       0.6271798       126.4976
2013    21      0       0.6444939       128.9726
2013    21      1       0.6960972       135.7232
2013    21      2       0.7493656       142.6713
2013    21      3       0.7635087       144.7756
2013    21      4       0.7485286       143.2082
2013    21      5       0.7267102       140.7913
2013    21      6       0.7164776       139.595
2013    21      7       0.7252866       140.2533
2013    22      0       0.7467764       143.0648
2013    22      1       0.7630641       145.6687
2013    22      2       0.7241222       141.1215
2013    22      3       0.6886382       136.4895
2013    22      4       0.6793222       135.1147
2013    22      5       0.719265        140.0032
2013    22      6       0.713501        139.2496
2013    22      7       0.6993383       138.098
2013    23      0       0.7700195       147.8798
2013    23      1       0.8166928       154.167
2013    23      2       0.797103        152.4113
2013    23      3       0.8063397       153.9136
2013    23      4       0.8756191       162.5286
2013    23      5       0.9909321       175.4162
2013    23      6       1.006621        177.0177
2013    23      7       0.9218245       168.0224
2013    24      0       0.8554863       160.5686
2013    24      1       0.8420669       158.9009
2013    24      2       0.8597075       160.9897
2013    24      3       0.8544647       160.5709
2013    24      4       0.8283765       157.7505
2013    24      5       0.7995742       154.3567
2013    24      6       0.707873        142.4816
2013    24      7       0.5904349       125.6275
2013    25      0       0.5190444       114.2421
2013    25      1       0.4626647       104.5944
2013    25      2       0.4223405       97.55587
2013    25      3       0.3969933       93.11572
2013    25      4       0.3632688       86.99583
2013    25      5       0.3277235       80.35344
2013    25      6       0.2808727       71.26925
2013    25      7       0.23906         62.94727
2013    26      0       0.2499068       65.26816
2013    26      1       0.282098        71.79205
2013    26      2       0.3759293       89.31967
2013    26      3       0.4742305       106.6719
2013    26      4       0.4602534       104.7965
2013    26      5       0.358159        86.4195
2013    26      6       0.3040499       76.29591
2013    26      7       0.277178        71.5188
2013    27      0       0.258258        67.72186
2013    27      1       0.2677405       69.24605
2013    27      2       0.2425172       63.90638
2013    27      3       0.255156        66.32561
2013    27      4       0.2611435       67.45083
2013    27      5       0.2542782       66.01993
2013    27      6       0.2683842       68.42382
2013    27      7       0.3284543       79.63126
2013    28      0       0.4436097       100.1741
2013    28      1       0.5603328       119.0767
2013    28      2       0.5793175       122.1284
2013    28      3       0.5286063       114.9529
2013    28      4       0.5000797       110.576
2013    28      5       0.5056049       111.6905
2013    28      6       0.5139653       113.1099
2013    28      7       0.5279363       115.1378
2013    29      0       0.5415316       117.3211
2013    29      1       0.5503573       118.3206
2013    29      2       0.5909664       123.44
2013    29      3       0.6531856       131.5086
2013    29      4       0.7694619       145.444
2013    29      5       0.826085        152.3634
2013    29      6       0.822471        152.6576
2013    29      7       0.8549948       156.504
2013    30      0       0.7960612       150.362
2013    30      1       1.008579        174.0367
2013    30      2       1.353605        203.9231
2013    30      3       1.619655        221.6058
2013    30      4       1.545467        217.3335
2013    30      5       1.367872        205.5606
2013    30      6       1.262053        197.513
2013    30      7       1.099722        183.8299
2013    31      0       0.9619387       170.255
2013    31      1       0.8653115       159.727
2013    31      2       0.8277636       155.2307
2013    31      3       0.8045124       152.569
2013    31      4       0.873708        160.5753
2013    31      5       0.9318678       167.0044
2013    31      6       0.8589861       158.9956
2013    31      7       0.8351445       156.4596
2014    1       0       0.6337828       131.1513
2014    1       1       0.5461599       118.3115
2014    1       2       0.4698131       106.1107
2014    1       3       0.4459468       102.2163
2014    1       4       0.4321424       100.0869
2014    1       5       0.3913622       93.31802
2014    1       6       0.2908286       74.05912
2014    1       7       0.249454        65.43336
2014    2       0       0.2936016       74.65079
2014    2       1       0.3175734       79.42481
2014    2       2       0.3269691       81.06952
2014    2       3       0.3443454       84.40356
2014    2       4       0.3467291       84.84568
2014    2       5       0.3399036       83.54643
2014    2       6       0.3143228       78.62107
2014    2       7       0.292265        74.28698
2014    3       0       0.2928573       74.30033
2014    3       1       0.3374342       82.95931
2014    3       2       0.4922006       110.8655
2014    3       3       0.7085753       143.3984
2014    3       4       0.9797687       175.0478
2014    3       5       1.270975        200.5205
2014    3       6       1.654151        224.3833
2014    3       7       2.153939        244.9655
2014    4       0       2.650665        257.5507
2014    4       1       2.650778        257.2774
2014    4       2       2.28052         249.0273
2014    4       3       2.096497        243.6341
2014    4       4       2.169159        245.7839
2014    4       5       2.380558        251.8192
2014    4       6       2.580384        256.3535
2014    4       7       2.764904        259.6287
2014    5       0       3.11281         264.9367
2014    5       1       2.887912        261.6892
2014    5       2       2.227935        247.278
2014    5       3       2.175694        245.9221
2014    5       4       2.743591        259.9506
2014    5       5       2.367317        251.6502
2014    5       6       1.862418        234.2692
2014    5       7       1.90154         235.7829
2014    6       0       1.83755         233.0577
2014    6       1       1.891331        234.6085
2014    6       2       2.078779        241.6231
2014    6       3       2.390354        250.7615
2014    6       4       2.4736          252.9186
2014    6       5       2.312682        249.0415
2014    6       6       1.886463        234.3608
2014    6       7       1.620257        220.9294
2014    7       0       1.583593        219.1846
2014    7       1       1.623818        221.3474
2014    7       2       1.548248        216.9987
2014    7       3       1.502328        214.2621
2014    7       4       1.577866        218.5202
2014    7       5       1.606564        219.8979
2014    7       6       1.618812        220.4248
2014    7       7       1.631418        220.8578
2014    8       0       1.666907        222.4241
2014    8       1       1.803958        228.1329
2014    8       2       2.054127        237.1036
2014    8       3       2.238529        242.4528
2014    8       4       1.936365        232.9876
2014    8       5       1.867923        230.9823
2014    8       6       1.803058        228.6711
2014    8       7       1.725593        225.2383
2014    9       0       1.800759        228.7029
2014    9       1       2.006659        236.5017
2014    9       2       2.186958        242.0869
2014    9       3       2.181636        242.0658
2014    9       4       1.978393        235.7783
2014    9       5       1.998949        237.676
2014    9       6       2.045361        240.2592
2014    9       7       1.692188        225.6995
2014    10      0       1.395306        208.4093
2014    10      1       1.329245        203.4726
2014    10      2       1.346731        204.8638
2014    10      3       1.420889        209.7861
2014    10      4       1.402743        208.5388
2014    10      5       1.231891        196.3496
2014    10      6       1.167477        191.1137
2014    10      7       1.155444        190.1611
2014    11      0       0.9797503       173.6223
2014    11      1       0.7892298       152.0027
2014    11      2       0.7798985       150.7053
2014    11      3       0.7978473       153.0795
2014    11      4       0.8565326       160.1978
2014    11      5       0.9204404       167.6345
2014    11      6       0.9066575       166.1475
2014    11      7       0.8257544       156.7288
2014    12      0       0.7952107       152.913
2014    12      1       0.9119838       166.1489
2014    12      2       1.088862        183.7086
2014    12      3       1.207126        194.0041
2014    12      4       1.25813         198.1177
2014    12      5       1.199857        193.5394
2014    12      6       1.028706        178.2664
2014    12      7       0.9493002       170.0315
2014    13      0       0.9322634       168.0428
2014    13      1       0.926996        166.9238
2014    13      2       0.9061589       163.8693
2014    13      3       0.9189542       164.8894
2014    13      4       1.06003         178.5555
2014    13      5       1.244514        194.8677
2014    13      6       0.8732015       160.3247
2014    13      7       0.8977954       162.6636
2014    14      0       1.243327        194.3855
2014    14      1       1.229322        193.4085
2014    14      2       0.8129213       153.0586
2014    14      3       0.7458679       145.5372
2014    14      4       0.9249406       168.1245
2014    14      5       1.10933         186.7618
2014    14      6       1.087859        184.5648
2014    14      7       0.9114089       165.8876
2014    15      0       1.009378        175.0488
2014    15      1       1.183779        189.8579
2014    15      2       1.512224        214.0833
2014    15      3       1.769879        228.6659
2014    15      4       1.606439        221.243
2014    15      5       1.8743          234.8316
2014    15      6       2.118549        243.8888
2014    15      7       2.023961        240.876
2014    16      0       2.08526         242.915
2014    16      1       2.497027        253.6805
2014    16      2       2.630249        257.3345
2014    16      3       2.565183        256.6426
2014    16      4       2.447401        253.6182
2014    16      5       2.210404        246.5621
2014    16      6       3.20822         269.0486
2014    16      7       2.062411        242.7953
2014    17      0       1.749773        229.8447
2014    17      1       1.603097        222.3895
2014    17      2       1.546581        218.19
2014    17      3       1.559961        219.2641
2014    17      4       1.966175        239.1962
2014    17      5       2.284687        249.886
2014    17      6       1.878048        236.0054
2014    17      7       1.725771        229.2504
2014    18      0       1.764179        231.9508
2014    18      1       1.491541        217.1404
2014    18      2       1.400246        211.8855
2014    18      3       1.8954          239.0121
2014    18      4       1.796293        234.6249
2014    18      5       1.55231         221.4727
2014    18      6       1.63535         225.542
2014    18      7       2.020726        242.0717
2014    19      0       2.556724        256.5492
2014    19      1       1.274855        200.2836
2014    19      2       0.4851136       110.0207
2014    19      3       0.5648473       122.8758
2014    19      4       0.4088171       97.04926
2014    19      5       0.3360785       83.29976
2014    19      6       0.26478         68.82903
2014    19      7       0.2421436       63.55009
2014    20      0       0.3002792       75.47677
2014    20      1       0.3742332       90.05714
2014    20      2       0.471518        106.2337
2014    20      3       0.5299559       115.9647
2014    20      4       0.5286289       116.0248
2014    20      5       0.5237237       115.4978
2014    20      6       0.5324865       117.1494
2014    20      7       0.5172737       115.0584
2014    21      0       0.5366287       118.2365
2014    21      1       0.5473151       119.9882
2014    21      2       0.5338607       117.9512
2014    21      3       0.5239392       116.4225
2014    21      4       0.4928572       111.2547
2014    21      5       0.4546803       104.1576
2014    21      6       0.5068609       111.2794
2014    21      7       0.5912942       123.4792
2014    22      0       0.694949        138.0888
2014    22      1       0.8263746       154.6819
2014    22      2       1.122187        188.2709
2014    22      3       2.30701         250.8269
2014    22      4       2.474452        254.2029
2014    22      5       2.704597        257.9375
2014    22      6       2.937037        261.4483
2014    22      7       2.517461        253.8175
2014    23      0       2.019488        240.2562
2014    23      1       2.754775        259.0141
2014    23      2       2.178557        245.9474
2014    23      3       1.592207        221.1669
2014    23      4       2.758508        259.1901
2014    23      5       2.543244        253.862
2014    23      6       2.009582        237.1765
2014    23      7       1.079873        181.9358
2014    24      0       0.6200922       128.9831
2014    24      1       0.8023921       152.6855
2014    24      2       1.87285         232.1456
2014    24      3       2.365387        248.6643
2014    24      4       2.530406        253.4357
2014    24      5       2.435469        250.9798
2014    24      6       2.704894        256.5381
2014    24      7       3.014061        262.3027
2014    25      0       1.158937        189.6035
2014    25      1       1.165613        189.7258
2014    25      2       1.481502        212.6097
2014    25      3       1.831085        231.0371
2014    25      4       2.027083        238.4039
2014    25      5       2.128814        241.6728
2014    25      6       2.280456        246.1083
2014    25      7       2.122909        240.9495
2014    26      0       2.650869        253.9644
2014    26      1       2.980994        259.0665
2014    26      2       2.797709        255.3601
2014    26      3       2.598061        251.5732
2014    26      4       2.549881        251.4953
2014    26      5       2.585499        252.9179
2014    26      6       2.514604        251.6486
2014    26      7       2.570553        252.9554
2014    27      0       2.697912        255.3497
2014    27      1       2.807799        257.1496
2014    27      2       2.754481        256.495
2014    27      3       2.392755        248.8864
2014    27      4       2.512317        251.5943
2014    27      5       2.519116        251.7551
2014    27      6       2.520893        252.0984
2014    27      7       2.645248        255.0098
2014    28      0       3.120095        262.3202
2014    28      1       3.12483         262.0103
2014    28      2       2.976636        259.2775
2014    28      3       2.875157        257.4489
2014    28      4       3.233334        262.4414
2014    28      5       3.291213        262.5986
2014    28      6       3.310728        263.2335
2014    28      7       2.774164        255.0872
2014    29      0       2.907047        257.8805
2014    29      1       3.159165        262.1644
2014    29      2       3.056906        261.3835
2014    29      3       2.623496        254.1432
2014    29      4       2.551047        252.5156
2014    29      5       2.163466        242.0585
2014    29      6       1.666553        221.8033
2014    29      7       1.609048        218.8189
2014    30      0       1.700948        223.3079
2014    30      1       1.911912        232.5568
2014    30      2       2.617141        253.5161
2014    30      3       2.54018         252.0151
2014    30      4       2.264255        244.7546
2014    30      5       2.102025        239.1475
2014    30      6       1.899397        231.271
2014    30      7       1.851684        228.9593
2014    31      0       1.983121        233.9059
2014    31      1       2.057276        236.4675
2014    31      2       2.213501        241.4848
2014    31      3       2.432315        247.172
2014    31      4       2.379847        245.7893
2014    31      5       2.623669        251.7425
2014    31      6       2.486645        248.7597
2014    31      7       2.437668        247.5001
2015    1       0       1.791342        232.1056
2015    1       1       1.693711        227.4891
2015    1       2       1.566978        220.6246
2015    1       3       1.572576        221.3847
2015    1       4       1.564551        221.1408
2015    1       5       1.316391        204.8534
2015    1       6       1.110707        187.8776
2015    1       7       0.9824196       175.7623
2015    2       0       0.9500099       172.8002
2015    2       1       0.9681757       174.8154
2015    2       2       0.9361835       171.5568
2015    2       3       0.8776467       165.1569
2015    2       4       0.8751435       164.8837
2015    2       5       0.8182301       158.1165
2015    2       6       0.7413618       147.3818
2015    2       7       0.6761657       138.1345
2015    3       0       0.6347886       132.4886
2015    3       1       0.6630141       136.6358
2015    3       2       0.7094518       142.9812
2015    3       3       0.7557838       149.098
2015    3       4       0.8166573       157.1785
2015    3       5       0.858424        162.2478
2015    3       6       0.7217284       144.914
2015    3       7       0.6517054       135.5811
2015    4       0       0.6571903       136.1763
2015    4       1       0.7818287       152.2158
2015    4       2       0.9237416       167.9501
2015    4       3       0.9840697       173.751
2015    4       4       1.023114        177.495
2015    4       5       1.009712        176.7839
2015    4       6       1.017486        178.4758
2015    4       7       1.05017         182.3284
2015    5       0       1.155337        192.6334
2015    5       1       1.352912        208.0551
2015    5       2       1.579202        222.0864
2015    5       3       1.671816        226.9103
2015    5       4       2.105926        244.9038
2015    5       5       2.741419        260.4063
2015    5       6       2.965594        263.688
2015    5       7       3.180503        266.1887
2015    6       0       2.7798          260.4444
2015    6       1       2.312734        250.4803
2015    6       2       2.202461        247.1368
2015    6       3       2.110513        243.7586
2015    6       4       2.472774        254.0686
2015    6       5       2.424732        253.3571
2015    6       6       2.347333        251.5279
2015    6       7       2.879757        262.2826
2015    7       0       3.084781        265.0612
2015    7       1       2.639485        258.5713
2015    7       2       2.40593         253.475
2015    7       3       2.479522        255.1382
2015    7       4       2.909098        263.4699
2015    7       5       3.222309        268.4011
2015    7       6       2.797851        262.5354
2015    7       7       2.840761        263.5416
2015    8       0       2.019698        242.1349
2015    8       1       1.243534        198.4047
2015    8       2       1.093854        185.7963
2015    8       3       1.581007        222.1728
2015    8       4       2.027743        242.8992
2015    8       5       2.162489        247.9815
2015    8       6       1.831286        235.0649
2015    8       7       1.487334        216.2034
2015    9       0       1.15225         189.7057
2015    9       1       1.654404        222.7402
2015    9       2       1.787798        230.0745
2015    9       3       2.267424        249.3153
2015    9       4       2.638623        259.0908
2015    9       5       2.67712         260.1167
2015    9       6       2.329659        252.5117
2015    9       7       2.605683        259.413
2015    10      0       2.973663        265.7561
2015    10      1       3.263155        269.8114
2015    10      2       2.898407        264.9361
2015    10      3       3.320048        269.5087
2015    10      4       2.799175        263.0271
2015    10      5       3.186295        269.1812
2015    10      6       3.203332        269.0088
2015    10      7       3.098319        267.941
2015    11      0       3.068246        267.8722
2015    11      1       3.279272        269.6181
2015    11      2       3.38687         270.7136
2015    11      3       2.796467        262.8352
2015    11      4       3.38885         270.7865
2015    11      5       3.377332        270.8458
2015    11      6       3.080418        268.6157
2015    11      7       2.840972        265.5128
2015    12      0       2.262398        251.0753
2015    12      1       1.5284          218.0096
2015    12      2       1.140632        188.9416
2015    12      3       0.975173        172.198
2015    12      4       1.067492        180.2438
2015    12      5       0.9628117       169.6639
2015    12      6       0.9740298       171.5437
2015    12      7       0.8028533       153.3521
2015    13      0       0.6419343       131.3144
2015    13      1       0.6326973       129.0676
2015    13      2       0.6032822       125.7602
2015    13      3       0.5996716       125.6428
2015    13      4       0.71184         141.9441
2015    13      5       0.8922364       164.7266
2015    13      6       1.057018        182.2741
2015    13      7       1.077644        184.6134
2015    14      0       1.009472        178.0107
2015    14      1       0.9704354       174.2323
2015    14      2       0.9029988       166.7642
2015    14      3       0.765729        150.2737
2015    14      4       0.7177565       144.0024
2015    14      5       0.6427468       133.3611
2015    14      6       0.6403987       132.0359
2015    14      7       0.6397583       132.203
2015    15      0       0.7141364       142.3653
2015    15      1       0.7477691       147.0738
2015    15      2       0.7612933       149.0032
2015    15      3       0.7383032       146.7746
2015    15      4       0.818823        156.6159
2015    15      5       0.950448        171.2561
2015    15      6       0.9299269       170.1518
2015    15      7       0.9514053       172.6226
2015    16      0       1.086593        185.1611
2015    16      1       1.256392        199.1022
2015    16      2       1.382852        208.541
2015    16      3       1.743985        229.8961
2015    16      4       2.056524        243.139
2015    16      5       2.148248        246.0868
2015    16      6       2.429988        253.8553
2015    16      7       3.870035        275.4984
2015    17      0       3.403934        270.8045
2015    17      1       3.510746        271.6669
2015    17      2       3.691627        272.3764
2015    17      3       3.485323        270.3768
2015    17      4       3.495886        270.1681
2015    17      5       2.897118        263.9223
2015    17      6       2.513874        256.8255
2015    17      7       2.234486        249.7248
2015    18      0       2.280634        250.9366
2015    18      1       2.206169        248.8056
2015    18      2       2.086547        244.161
2015    18      3       1.95021         239.0473
2015    18      4       2.016776        241.9293
2015    18      5       2.216758        248.6726
2015    18      6       2.045717        242.9097
2015    18      7       2.320427        251.019
2015    19      0       2.60306         257.7178
2015    19      1       2.714651        260.4682
2015    19      2       2.812774        262.4838
2015    19      3       2.754988        261.2006
2015    19      4       2.706736        260.2174
2015    19      5       3.080376        266.5269
2015    19      6       2.85656         263.4697
2015    19      7       3.042853        265.4501
2015    20      0       3.041939        265.1099
2015    20      1       3.068847        265.4076
2015    20      2       2.975094        264.3641
2015    20      3       2.635787        258.9238
2015    20      4       2.294904        250.6399
2015    20      5       2.154069        245.842
2015    20      6       2.117515        245.1632
2015    20      7       2.371112        252.9843
2015    21      0       1.944063        237.9808
2015    21      1       2.262482        248.7087
2015    21      2       3.215923        266.4726
2015    21      3       4.056991        272.1305
2015    21      4       4.000138        271.6581
2015    21      5       3.996181        271.9853
2015    21      6       3.848032        271.5724
2015    21      7       3.672711        270.8166
2015    22      0       2.969486        263.7581
2015    22      1       3.076786        264.9097
2015    22      2       2.74138         260.2276
2015    22      3       2.673925        259.8996
2015    22      4       2.703053        260.8133
2015    22      5       2.500611        255.4686
2015    22      6       2.953956        261.3228
2015    22      7       3.278626        265.4308
2015    23      0       3.897677        269.6479
2015    23      1       3.541046        268.2978
2015    23      2       3.916484        268.8117
2015    23      3       2.894581        258.2312
2015    23      4       2.186018        244.1429
2015    23      5       2.504017        252.6875
2015    23      6       2.538147        253.0176
2015    23      7       3.262883        262.0609
2015    24      0       2.895423        258.5554
2015    24      1       2.165955        242.7202
2015    24      2       2.417895        249.3185
2015    24      3       2.705964        255.2939
2015    24      4       2.759154        256.4888
2015    24      5       2.605524        253.5141
2015    24      6       3.109162        262.2776
2015    24      7       3.21514         263.4773
2015    25      0       3.10065         261.8057
2015    25      1       3.016767        260.6875
2015    25      2       3.890337        269.8394
2015    25      3       3.310502        265.6438
2015    25      4       2.559944        254.4858
2015    25      5       2.395177        250.6786
2015    25      6       1.696637        225.9551
2015    25      7       1.373622        207.9288
2015    26      0       1.097564        186.0777
2015    26      1       0.6336923       132.2725
2015    26      2       0.298963        74.94029
2015    26      3       0.2573377       66.28433
2015    26      4       0.2818012       71.03256
2015    26      5       0.3509735       84.19686
2015    26      6       0.4862158       107.9644
2015    26      7       0.5356466       115.315
2015    27      0       0.5484035       116.5699
2015    27      1       0.5419398       115.8279
2015    27      2       0.6110759       125.4339
2015    27      3       0.6582514       132.1004
2015    27      4       0.7642567       145.8323
2015    27      5       0.7699648       147.3549
2015    27      6       0.7335864       143.8201
2015    27      7       0.7478331       145.8545
2015    28      0       0.5972562       124.8545
2015    28      1       0.4335075       96.98506
2015    28      2       0.3467557       82.78089
2015    28      3       0.4372661       99.70539
2015    28      4       0.613472        128.0474
2015    28      5       0.6409125       132.1953
2015    28      6       0.455009        103.4955
2015    28      7       0.2108819       56.13857
2015    29      0       0.184411        50.19939
2015    29      1       0.2103091       55.7665
2015    29      2       0.2274752       59.36963
2015    29      3       0.237715        61.56408
2015    29      4       0.2521382       64.68837
2015    29      5       0.2389706       61.9014
2015    29      6       0.2616652       66.52528
2015    29      7       0.295969        73.4295
2015    30      0       0.3441272       82.77166
2015    30      1       0.3842893       90.2921
2015    30      2       0.4034395       94.02084
2015    30      3       0.4115948       95.85622
2015    30      4       0.4060826       94.80487
2015    30      5       0.4491429       101.926
2015    30      6       0.5188673       112.8037
2015    30      7       0.6510445       131.1101
2015    31      0       0.8282009       152.4728
2015    31      1       1.018613        173.4037
2015    31      2       1.027039        173.28
2015    31      3       1.277633        193.5302
2015    31      4       1.616924        215.824
2015    31      5       1.534204        214.4144
2015    31      6       1.77053         227.7555
2015    31      7       2.065935        239.678
2016    1       0       0.6527549       135.7757
2016    1       1       0.6659637       137.515
2016    1       2       0.5660599       122.7602
2016    1       3       0.4865077       109.9713
2016    1       4       0.5795981       124.7596
2016    1       5       0.6711613       138.8858
2016    1       6       0.7248282       146.2131
2016    1       7       0.7361356       147.7461
2016    2       0       1.094623        188.5842
2016    2       1       1.583308        224.6906
2016    2       2       1.782637        234.151
2016    2       3       1.751688        232.0063
2016    2       4       1.821278        235.1085
2016    2       5       1.883048        237.6861
2016    2       6       1.755853        232.1286
2016    2       7       1.786417        233.4599
2016    3       0       2.196055        249.6606
2016    3       1       2.665528        261.773
2016    3       2       2.734838        262.8493
2016    3       3       2.664312        261.4042
2016    3       4       2.686441        262.0687
2016    3       5       2.312951        253.816
2016    3       6       1.653328        227.2019
2016    3       7       1.063928        184.6692
2016    4       0       1.046633        183.4741
2016    4       1       1.117054        190.5639
2016    4       2       1.041228        183.58
2016    4       3       0.8598274       164.1918
2016    4       4       1.091772        188.43
2016    4       5       1.291882        205.2428
2016    4       6       0.9624423       175.4626
2016    4       7       0.6803284       140.6537
2016    5       0       0.8647921       164.207
2016    5       1       0.9101398       169.1295
2016    5       2       0.8448954       161.1116
2016    5       3       0.8492853       160.9028
2016    5       4       1.542196        220.5904
2016    5       5       1.952374        240.0667
2016    5       6       1.207698        196.94
2016    5       7       1.208363        196.9561
2016    6       0       1.719587        229.5003
2016    6       1       1.687946        228.0804
2016    6       2       1.756604        231.843
2016    6       3       1.852511        235.939
2016    6       4       2.084977        244.0999
2016    6       5       2.332684        251.6421
2016    6       6       1.59702         221.7414
2016    6       7       1.231686        196.4552
2016    7       0       1.291703        201.9301
2016    7       1       1.220889        196.7259
2016    7       2       1.729458        229.7487
2016    7       3       2.25402         250.2359
2016    7       4       2.480275        256.6238
2016    7       5       2.671514        260.803
2016    7       6       2.8931          265.36
2016    7       7       2.953423        266.6222
2016    8       0       2.541144        258.1371
2016    8       1       2.443628        255.6642
2016    8       2       2.262968        250.8379
2016    8       3       2.25596         250.8664
2016    8       4       2.197981        249.3913
2016    8       5       1.678647        227.1056
2016    8       6       0.8621428       160.6066
2016    8       7       0.5115149       113.6
2016    9       0       0.6382637       134.4354
2016    9       1       0.9595797       173.7759
2016    9       2       1.418614        210.7904
2016    9       3       1.234445        197.1286
2016    9       4       1.180863        192.7894
2016    9       5       1.393763        209.3368
2016    9       6       1.341335        206.6466
2016    9       7       1.447577        214.213
2016    10      0       1.866441        236.8187
2016    10      1       2.102057        245.5431
2016    10      2       2.382398        253.5006
2016    10      3       2.768502        261.1763
2016    10      4       2.500487        255.5196
2016    10      5       2.693356        260.1504
2016    10      6       2.825983        263.1234
2016    10      7       2.722852        261.5724
2016    11      0       2.490488        256.4027
2016    11      1       2.016774        241.3607
2016    11      2       2.435568        254.0608
2016    11      3       2.516542        255.3615
2016    11      4       2.562323        256.0116
2016    11      5       2.418436        252.8462
2016    11      6       2.422848        253.1509
2016    11      7       3.525184        272.043
2016    12      0       2.778166        261.2865
2016    12      1       2.337867        252.1819
2016    12      2       3.619469        273.9278
2016    12      3       1.434842        211.8258
2016    12      4       0.9865175       175.0082
2016    12      5       0.8048165       154.6111
2016    12      6       0.7614046       149.3965
2016    12      7       0.6743062       138.4372
2016    13      0       0.7494031       149.0972
2016    13      1       1.135206        190.4598
2016    13      2       1.085684        185.6755
2016    13      3       0.6889943       139.8621
2016    13      4       0.5086682       111.8095
2016    13      5       0.6558176       134.7834
2016    13      6       0.527174        115.9747
2016    13      7       0.4200943       98.2017
2016    14      0       0.469975        105.8617
2016    14      1       0.574645        122.0965
2016    14      2       0.5666161       119.6501
2016    14      3       0.6086613       125.8377
2016    14      4       0.7929876       151.0099
2016    14      5       1.20685         194.4937
2016    14      6       1.720342        228.8019
2016    14      7       1.401371        209.777
2016    15      0       1.439           212.9409
2016    15      1       1.561602        221.0219
2016    15      2       1.467155        215.2068
2016    15      3       1.459848        214.6505
2016    15      4       1.485787        216.2061
2016    15      5       1.476183        216.1438
2016    15      6       1.436436        214.0711
2016    15      7       1.627448        225.6319
2016    16      0       1.509098        218.4255
2016    16      1       1.412402        211.5367
2016    16      2       1.821399        234.5564
2016    16      3       1.916048        238.4768
2016    16      4       1.989977        240.1406
2016    16      5       2.139213        244.6884
2016    16      6       2.130025        244.7441
2016    16      7       2.23549         248.0132
2016    17      0       2.515102        255.1155
2016    17      1       2.434871        253.0536
2016    17      2       2.41613         252.0475
2016    17      3       2.152692        244.8143
2016    17      4       1.779014        231.4906
2016    17      5       1.104938        187.6695
2016    17      6       0.70643         142.5068
2016    17      7       0.8585679       160.7948
2016    18      0       1.041059        180.8888
2016    18      1       1.012263        177.6385
2016    18      2       0.9881443       175.2546
2016    18      3       0.9954862       175.8185
2016    18      4       0.9117355       166.1037
2016    18      5       0.7567186       147.9505
2016    18      6       0.6963984       139.8941
2016    18      7       0.6215628       129.9462
2016    19      0       0.5177302       114.6297
2016    19      1       0.4654051       106.1345
2016    19      2       0.4463892       102.9696
2016    19      3       0.478471        107.8887
2016    19      4       0.5158436       113.5786
2016    19      5       0.6036707       127.1569
2016    19      6       0.7685457       150.1081
2016    19      7       0.8815917       163.5118
2016    20      0       1.041377        179.9986
2016    20      1       1.246563        197.8364
2016    20      2       1.538743        217.6022
2016    20      3       1.85314         233.5726
2016    20      4       2.03965         240.9224
2016    20      5       2.206784        246.6049
2016    20      6       2.120411        244.2428
2016    20      7       1.936276        237.4916
2016    21      0       1.895619        235.2292
2016    21      1       1.964429        238.1596
2016    21      2       2.249809        247.4039
2016    21      3       2.183234        245.2432
2016    21      4       1.949054        237.1972
2016    21      5       2.73921         258.7486
2016    21      6       2.484074        253.4362
2016    21      7       2.690576        256.8904
2016    22      0       2.883793        260.3582
2016    22      1       2.441219        251.6613
2016    22      2       2.290938        248.0337
2016    22      3       2.392164        250.2574
2016    22      4       2.252967        245.7503
2016    22      5       2.145312        243.109
2016    22      6       2.416886        252.1852
2016    22      7       2.286242        248.453
2016    23      0       2.354881        250.3912
2016    23      1       2.629423        257.1659
2016    23      2       2.572202        256.5044
2016    23      3       2.458659        254.1845
2016    23      4       2.319736        250.2198
2016    23      5       2.082922        243.1298
2016    23      6       1.827143        233.428
2016    23      7       1.878623        235.2114
2016    24      0       2.094039        241.7565
2016    24      1       1.848536        232.5524
2016    24      2       2.229208        247.0387
2016    24      3       2.647547        256.2361
2016    24      4       2.619184        255.8547
2016    24      5       1.640095        223.9019
2016    24      6       1.114423        187.6182
2016    24      7       0.8247967       157.8714
2016    25      0       0.6034999       128.2869
2016    25      1       0.4937094       110.6124
2016    25      2       0.4237502       98.58036
2016    25      3       0.3729948       89.33277
2016    25      4       0.3098706       78.06241
2016    25      5       0.3061874       76.90354
2016    25      6       0.290772        73.27557
2016    25      7       0.3082242       76.47032
2016    26      0       0.5555364       120.5749
2016    26      1       0.758384        149.4494
2016    26      2       0.8573419       161.8375
2016    26      3       0.780028        153.1884
2016    26      4       0.8388533       160.3284
2016    26      5       0.8335223       159.208
2016    26      6       0.7329169       145.4327
2016    26      7       0.9118824       166.0025
2016    27      0       1.189374        192.3259
2016    27      1       1.783134        229.5167
2016    27      2       2.148021        243.7442
2016    27      3       2.40185         251.0271
2016    27      4       2.576754        255.3041
2016    27      5       2.840376        260.1102
2016    27      6       2.996179        261.9128
2016    27      7       2.820138        258.2661
2016    28      0       2.684246        256.4615
2016    28      1       2.792092        258.1981
2016    28      2       2.684673        256.3128
2016    28      3       2.539938        253.6508
2016    28      4       2.561817        254.3016
2016    28      5       2.256623        246.4133
2016    28      6       2.274327        247.2524
2016    28      7       2.389909        250.9611
2016    29      0       2.477279        253.3248
2016    29      1       2.687945        256.5256
2016    29      2       2.462187        251.1291
2016    29      3       2.084142        241.1192
2016    29      4       2.003314        238.186
2016    29      5       1.851074        232.4182
2016    29      6       1.744233        227.9107
2016    29      7       1.627055        222.3259
2016    30      0       1.783982        229.8582
2016    30      1       2.036178        239.8776
2016    30      2       2.103498        242.1388
2016    30      3       2.357264        249.3895
2016    30      4       2.216979        245.4237
2016    30      5       1.893635        234.4132
2016    30      6       1.99621         238.903
2016    30      7       2.031579        240.364
2016    31      0       2.017099        239.4821
2016    31      1       2.508678        252.851
2016    31      2       3.298366        264.2373
2016    31      3       3.990914        270.0393
2016    31      4       5.170226        276.0892
2016    31      5       3.688839        268.4583
2016    31      6       3.73184         268.4703
2016    31      7       2.86437         257.719
2017    1       0       2.504773        252.1029
2017    1       1       2.546075        253.0776
2017    1       2       2.702926        256.7834
2017    1       3       2.517536        253.5298
2017    1       4       2.356072        250.1777
2017    1       5       2.081277        242.7252
2017    1       6       1.745403        229.2132
2017    1       7       1.540425        218.3697
2017    2       0       1.332496        204.7322
2017    2       1       1.088827        184.3856
2017    2       2       0.9614976       172.2241
2017    2       3       0.9582439       172.0461
2017    2       4       1.152768        190.4991
2017    2       5       1.265545        199.8731
2017    2       6       1.257715        199.551
2017    2       7       1.249562        198.4566
2017    3       0       1.207944        194.7111
2017    3       1       1.276538        200.2684
2017    3       2       1.317371        203.8828
2017    3       3       1.383564        208.5238
2017    3       4       1.585379        220.4091
2017    3       5       1.658023        224.3034
2017    3       6       1.702402        226.2355
2017    3       7       1.682356        224.9117
2017    4       0       1.724274        227.3695
2017    4       1       1.56866         219.0825
2017    4       2       1.321571        204.5356
2017    4       3       1.548916        219.6185
2017    4       4       1.826505        233.3181
2017    4       5       1.93873         237.348
2017    4       6       2.247423        248.6318
2017    4       7       2.255643        249.0568
2017    5       0       2.318597        250.8015
2017    5       1       2.094211        243.5408
2017    5       2       2.069174        243.0745
2017    5       3       2.237758        248.7141
2017    5       4       2.561162        257.7912
2017    5       5       2.534116        257.9372
2017    5       6       2.811785        263.6376
2017    5       7       2.753825        263.7919
2017    6       0       2.75535         263.6715
2017    6       1       3.768646        273.9714
2017    6       2       3.229077        269.0716
2017    6       3       3.008474        265.4979
2017    6       4       3.649269        271.7714
2017    6       5       3.578934        270.9251
2017    6       6       3.433467        269.9108
2017    6       7       3.510055        270.679
2017    7       0       3.138633        266.7622
2017    7       1       2.75134         261.7463
2017    7       2       2.434059        256.0282
2017    7       3       2.303048        252.9852
2017    7       4       2.718274        262.4418
2017    7       5       2.087278        245.9869
2017    7       6       0.8042945       156.4274
2017    7       7       2.553763        258.4287
2017    8       0       2.381771        253.8035
2017    8       1       1.166443        193.0776
2017    8       2       0.2135736       57.04846
2017    8       3       0.458522        104.2724
2017    8       4       0.9582213       172.154
2017    8       5       0.8893866       164.6826
2017    8       6       0.4664499       105.4969
2017    8       7       0.6066844       126.336
2017    9       0       0.6095631       126.6743
2017    9       1       0.6295042       130.005
2017    9       2       0.8102834       153.7749
2017    9       3       0.8832235       162.3568
2017    9       4       0.92644         167.2223
2017    9       5       0.9576534       170.6804
2017    9       6       0.8038794       153.1727
2017    9       7       0.6736494       136.3004
2017    10      0       0.8356748       157.2369
2017    10      1       0.9654305       171.9376
2017    10      2       1.033636        178.876
2017    10      3       1.010111        176.7477
2017    10      4       1.07352         182.5728
2017    10      5       1.131594        187.6859
2017    10      6       1.010218        176.4711
2017    10      7       1.2034          194.1641
2017    11      0       1.280293        200.4537
2017    11      1       1.079104        183.7708
2017    11      2       0.9835219       174.1922
2017    11      3       0.950182        170.6232
2017    11      4       1.171149        191.4028
2017    11      5       1.326249        203.3722
2017    11      6       1.313642        202.4211
2017    11      7       1.403745        208.808
2017    12      0       1.444673        211.0045
2017    12      1       1.39569         207.1529
2017    12      2       1.239909        195.4064
2017    12      3       1.022663        176.7407
2017    12      4       0.7403529       146.3582
2017    12      5       0.6139921       129.5117
2017    12      6       0.5191281       115.0087
2017    12      7       0.4351553       100.9374
2017    13      0       0.3859337       92.13303
2017    13      1       0.3472858       84.80903
2017    13      2       0.3338616       82.00164
2017    13      3       0.3420012       83.36755
2017    13      4       0.3579837       86.06089
2017    13      5       0.3710719       88.05724
2017    13      6       0.4121014       95.26567
2017    13      7       0.5031819       110.8672
2017    14      0       0.5917342       124.73
2017    14      1       0.7037453       140.8875
2017    14      2       0.7447171       146.3221
2017    14      3       0.7365271       145.584
2017    14      4       0.741287        146.5146
2017    14      5       0.721211        144.4006
2017    14      6       0.7009471       140.7249
2017    14      7       1.296912        200.9419
2017    15      0       0.8560631       161.0468
2017    15      1       0.2852947       71.35087
2017    15      2       0.5164457       112.8867
2017    15      3       0.9339681       167.9157
2017    15      4       1.024474        176.9157
2017    15      5       1.034161        177.7684
2017    15      6       1.044942        178.5699
2017    15      7       1.102451        183.5905
2017    16      0       1.602288        221.5988
2017    16      1       2.061903        243.0548
2017    16      2       1.793117        232.5958
2017    16      3       1.716791        228.5839
2017    16      4       2.054684        242.6728
2017    16      5       2.094312        244.9984
2017    16      6       1.673443        227.4418
2017    16      7       1.238282        198.9895
2017    17      0       1.074374        184.2688
2017    17      1       1.192987        194.8543
2017    17      2       1.325805        206.5802
2017    17      3       1.309791        206.375
2017    17      4       1.226058        199.936
2017    17      5       1.167982        195.054
2017    17      6       1.132037        191.9391
2017    17      7       1.090014        187.9988
2017    18      0       1.073247        185.9135
2017    18      1       1.053723        183.3552
2017    18      2       1.03977         181.6541
2017    18      3       1.053712        182.7849
2017    18      4       1.21344         196.2507
2017    18      5       1.377731        208.1374
2017    18      6       1.341641        205.6271
2017    18      7       1.334479        205.0855
2017    19      0       1.496986        215.9402
2017    19      1       1.623466        223.3229
2017    19      2       1.602569        222.3121
2017    19      3       1.532535        218.7855
2017    19      4       1.750989        230.3627
2017    19      5       1.707717        228.5254
2017    19      6       1.309791        204.0839
2017    19      7       0.978289        174.7986
2017    20      0       0.8712999       162.9358
2017    20      1       0.8543453       160.7687
2017    20      2       0.8959751       165.3574
2017    20      3       0.9720324       173.4545
2017    20      4       1.11083         186.9496
2017    20      5       1.344536        205.856
2017    20      6       1.167686        192.106
2017    20      7       1.024712        179.0538
2017    21      0       0.8620785       161.3872
2017    21      1       0.8775112       162.6827
2017    21      2       0.908196        165.5099
2017    21      3       1.079829        180.9178
2017    21      4       1.233382        195.0961
2017    21      5       1.516973        215.2093
2017    21      6       1.550842        215.0099
2017    21      7       1.253277        196.041
2017    22      0       1.150427        188.3975
2017    22      1       1.205347        193.216
2017    22      2       1.200537        193.0614
2017    22      3       1.06099         181.5834
2017    22      4       1.261232        199.3127
2017    22      5       1.366789        207.7372
2017    22      6       1.002323        177.3227
2017    22      7       0.7833505       152.4173
2017    23      0       0.7629466       149.5698
2017    23      1       0.7433628       146.9903
2017    23      2       0.7440145       146.923
2017    23      3       0.6823746       138.6627
2017    23      4       0.6772089       138.0271
2017    23      5       0.7039172       141.2424
2017    23      6       2.23853         244.1932
2017    23      7       3.735786        268.251
2017    24      0       3.395932        266.0025
2017    24      1       1.68957         223.6444
2017    24      2       1.722003        225.3173
2017    24      3       1.227234        193.484
2017    24      4       1.474253        209.6608
2017    24      5       1.827578        227.25
2017    24      6       1.907941        231.0942
2017    24      7       1.815472        226.6544
2017    25      0       1.620562        217.6237
2017    25      1       1.8943          230.5514
2017    25      2       1.888986        230.4902
2017    25      3       2.596271        251.6077
2017    25      4       2.54848         250.7932
2017    25      5       2.347861        246.2396
2017    25      6       2.179086        241.1281
2017    25      7       2.040533        235.8226
2017    26      0       1.878577        229.8175
2017    26      1       1.82927         227.6086
2017    26      2       1.623632        218.4379
2017    26      3       1.749727        225.6347
2017    26      4       1.621653        219.5042
2017    26      5       1.633325        220.6358
2017    26      6       1.421716        207.5337
2017    26      7       2.490413        250.2893
2017    27      0       2.597662        252.6833
2017    27      1       2.145543        241.0251
2017    27      2       1.957478        234.3673
2017    27      3       2.354782        247.4971
2017    27      4       2.267602        245.6985
2017    27      5       1.973931        236.4091
2017    27      6       1.439817        209.8777
2017    27      7       1.341245        202.9472
2017    28      0       1.32412         201.8617
2017    28      1       1.318027        201.5532
2017    28      2       1.256496        196.2339
2017    28      3       1.442708        210.0852
2017    28      4       3.252153        266.392
2017    28      5       3.153853        265.2918
2017    28      6       2.623354        256.1441
2017    28      7       1.803748        228.7255
2017    29      0       2.204767        244.4967
2017    29      1       2.001152        238.076
2017    29      2       1.285162        199.7345
2017    29      3       2.245621        244.5072
2017    29      4       2.26233         245.1576
2017    29      5       0.6066511       126.1614
2017    29      6       0.8644065       157.8687
2017    29      7       0.9750452       170.2099
2017    30      0       0.6352424       130.3936
2017    30      1       0.6809274       138.0078
2017    30      2       0.5206614       114.2786
2017    30      3       2.067511        245.5988
2017    30      4       2.407594        257.4818
2017    30      5       1.88242         239.8239
2017    30      6       1.902345        241.7778
2017    30      7       1.801278        237.0941
2017    31      0       1.960765        242.4537
2017    31      1       1.851465        238.0721
2017    31      2       3.125878        270.8477
2017    31      3       2.313321        248.8422
2017    31      4       2.219634        245.5764
2017    31      5       2.410507        250.9918
2017    31      6       1.848349        232.0703
2017    31      7       1.701231        225.1819
2018    1       0       1.659714        224.6644
2018    1       1       1.534553        216.7942
2018    1       2       1.594019        218.0518
2018    1       3       1.626209        220.4454
2018    1       4       1.282784        200.066
2018    1       5       1.094743        185.9454
2018    1       6       1.012745        178.3505
2018    1       7       0.8498648       161.1102
2018    2       0       0.8151428       157.0884
2018    2       1       0.8744593       164.3525
2018    2       2       0.8212541       157.7439
2018    2       3       0.8738145       163.2519
2018    2       4       0.8779588       162.5871
2018    2       5       0.9147324       165.2217
2018    2       6       0.9811337       170.5134
2018    2       7       0.991966        172.1741
2018    3       0       1.287201        198.3649
2018    3       1       3.359485        268.9186
2018    3       2       2.794229        260.7827
2018    3       3       3.272634        267.172
2018    3       4       3.347915        268.4409
2018    3       5       3.406497        269.7285
2018    3       6       3.187018        267.8458
2018    3       7       2.982276        265.5273
2018    4       0       2.763038        261.8727
2018    4       1       2.694675        259.9705
2018    4       2       2.818102        262.0974
2018    4       3       3.029446        265.4547
2018    4       4       3.229291        267.4752
2018    4       5       3.126802        266.1846
2018    4       6       3.117558        266.2878
2018    4       7       3.28904         267.6835
2018    5       0       3.686676        270.3757
2018    5       1       3.439533        268.6931
2018    5       2       3.080105        265.2771
2018    5       3       2.988477        264.2045
2018    5       4       2.939169        263.9783
2018    5       5       2.90984         263.916
2018    5       6       2.716104        260.6772
2018    5       7       2.56598         258.0061
2018    6       0       2.306936        251.7911
2018    6       1       2.248437        250.1699
2018    6       2       2.113067        245.5253
2018    6       3       1.623163        224.4594
2018    6       4       1.52629         219.2793
2018    6       5       1.604706        223.9504
2018    6       6       1.709778        229.0554
2018    6       7       2.010696        241.8078
2018    7       0       2.169278        247.4434
2018    7       1       1.847234        234.6501
2018    7       2       1.81589         233.7334
2018    7       3       1.715005        229.1048
2018    7       4       1.70673         229.1269
2018    7       5       1.987673        241.2653
2018    7       6       2.021926        242.4163
2018    7       7       2.077109        244.0666
2018    8       0       2.070978        243.5765
2018    8       1       1.962074        239.4284
2018    8       2       1.860635        235.2643
2018    8       3       1.756303        230.5933
2018    8       4       2.011249        241.4331
2018    8       5       2.000812        240.5409
2018    8       6       1.819482        232.5673
2018    8       7       1.875841        233.8723
2018    9       0       1.80026         230.37
2018    9       1       1.693502        224.9264
2018    9       2       1.737858        227.0056
2018    9       3       1.897422        234.1034
2018    9       4       2.059206        240.1587
2018    9       5       2.024557        239.0525
2018    9       6       1.80055         229.8886
2018    9       7       1.507541        214.5088
2018    10      0       1.230534        195.9606
2018    10      1       0.9785944       173.9698
2018    10      2       0.8588404       161.1519
2018    10      3       0.8947766       165.1519
2018    10      4       0.9359416       169.5898
2018    10      5       1.031843        179.4445
2018    10      6       1.350155        206.1098
2018    10      7       1.664381        225.1899
2018    11      0       1.700076        226.7539
2018    11      1       1.679425        225.4439
2018    11      2       1.477199        213.4287
2018    11      3       1.080911        182.2494
2018    11      4       1.158058        189.7186
2018    11      5       1.191824        193.128
2018    11      6       0.7733622       149.9888
2018    11      7       0.5492034       118.6488
2018    12      0       0.6888799       138.7544
2018    12      1       0.9413134       169.0831
2018    12      2       1.658515        223.2911
2018    12      3       3.071892        263.7399
2018    12      4       2.840008        260.4201
2018    12      5       2.253113        247.4452
2018    12      6       2.346131        249.9864
2018    12      7       1.769897        229.1873
2018    13      0       1.297974        201.6689
2018    13      1       0.7839543       151.8906
2018    13      2       1.520206        216.6281
2018    13      3       1.553875        218.3622
2018    13      4       1.672891        225.1236
2018    13      5       1.692536        226.158
2018    13      6       1.516654        215.9625
2018    13      7       1.88426         234.7068
2018    14      0       1.91398         235.8356
2018    14      1       1.616572        221.0458
2018    14      2       1.783983        228.9657
2018    14      3       1.900242        234.4469
2018    14      4       2.224311        246.4923
2018    14      5       2.296629        249.0399
2018    14      6       2.364663        250.2237
2018    14      7       2.365789        249.3798
2018    15      0       2.242586        244.6749
2018    15      1       2.470328        250.0653
2018    15      2       2.927005        258.9098
2018    15      3       3.091982        261.1995
2018    15      4       2.765297        257.2324
2018    15      5       2.802226        258.7052
2018    15      6       2.305067        248.7428
2018    15      7       2.092494        242.3996
2018    16      0       2.003435        239.1922
2018    16      1       1.967409        238.1206
2018    16      2       1.903381        235.7476
2018    16      3       1.858601        233.9856
2018    16      4       1.726476        228.0443
2018    16      5       1.595472        221.2961
2018    16      6       1.667602        224.8475
2018    16      7       1.747683        228.5079
2018    17      0       1.735385        228.551
2018    17      1       1.65433         224.9928
2018    17      2       1.522782        217.219
2018    17      3       1.356889        205.5725
2018    17      4       1.31603         201.936
2018    17      5       1.293798        200.3347
2018    17      6       1.197405        192.8666
2018    17      7       1.11098         185.118
2018    18      0       1.177156        190.0971
2018    18      1       1.225005        194.1871
2018    18      2       1.323371        202.281
2018    18      3       1.365895        205.9508
2018    18      4       1.565235        219.2796
2018    18      5       1.613977        221.7143
2018    18      6       1.491593        213.7171
2018    18      7       1.459261        211.9916
2018    19      0       1.947945        236.6313
2018    19      1       2.027318        240.828
2018    19      2       2.353913        250.7714
2018    19      3       2.550013        255.2397
2018    19      4       2.178778        245.7158
2018    19      5       2.189317        246.4749
2018    19      6       2.377828        251.4382
2018    19      7       2.883317        260.2591
2018    20      0       3.040803        263.0471
2018    20      1       3.375579        267.166
2018    20      2       3.025839        263.5053
2018    20      3       2.632984        257.6894
2018    20      4       2.402202        252.8519
2018    20      5       2.400564        252.484
2018    20      6       2.225804        247.6422
2018    20      7       2.088473        242.9842
2018    21      0       2.087559        242.8104
2018    21      1       2.068125        242.1091
2018    21      2       2.008698        239.8226
2018    21      3       2.114683        243.6529
2018    21      4       2.122426        243.9592
2018    21      5       2.099609        242.9983
2018    21      6       2.004316        239.7649
2018    21      7       2.050546        241.123
2018    22      0       2.093452        241.9931
2018    22      1       2.154602        243.7287
2018    22      2       3.135526        263.2513
2018    22      3       2.62432         256.0622
2018    22      4       2.679855        257.5844
2018    22      5       2.781959        259.1861
2018    22      6       3.068752        263.0546
2018    22      7       3.050171        262.4493
2018    23      0       2.99768         260.7663
2018    23      1       3.121925        261.4739
2018    23      2       3.469094        265.0867
2018    23      3       4.005882        269.632
2018    23      4       3.73549         267.7571
2018    23      5       2.798086        257.6634
2018    23      6       1.814523        229.5377
2018    23      7       1.90237         233.151
2018    24      0       1.949623        235.374
2018    24      1       1.885532        233.1162
2018    24      2       1.924499        233.8762
2018    24      3       2.059245        235.7633
2018    24      4       2.342091        243.4019
2018    24      5       2.811221        254.4973
2018    24      6       2.867634        257.885
2018    24      7       2.143984        243.0406
2018    25      0       1.894362        233.8448
2018    25      1       1.644482        221.9315
2018    25      2       1.682385        223.5959
2018    25      3       2.283256        247.794
2018    25      4       1.510111        215.3378
2018    25      5       0.4013309       94.77967
2018    25      6       0.2627318       67.07281
2018    25      7       0.3072277       75.88314
2018    26      0       0.4154093       95.1734
2018    26      1       0.7105502       140.2737
2018    26      2       0.9535427       170.2167
2018    26      3       0.750211        146.4357
2018    26      4       0.6012376       125.1313
2018    26      5       0.5495844       117.7544
2018    26      6       0.4466716       101.8033
2018    26      7       0.4853435       108.5325
2018    27      0       1.02392         178.807
2018    27      1       1.281834        201.3932
2018    27      2       1.299487        203.2514
2018    27      3       1.295918        203.2762
2018    27      4       1.293007        203.095
2018    27      5       1.236648        198.7551
2018    27      6       1.166818        192.8183
2018    27      7       1.13632         190.0526
2018    28      0       1.142245        190.3357
2018    28      1       0.9271496       169.4669
2018    28      2       0.6871818       139.9746
2018    28      3       0.4616528       104.6166
2018    28      4       0.3222063       79.15912
2018    28      5       0.3572524       85.96852
2018    28      6       0.494085        109.5814
2018    28      7       0.5226118       113.9301
2018    29      0       0.6065194       127.4454
2018    29      1       1.187809        194.6349
2018    29      2       1.534373        219.102
2018    29      3       1.505421        216.6726
2018    29      4       1.388793        208.249
2018    29      5       1.381637        207.287
2018    29      6       1.372977        206.2675
2018    29      7       1.136235        188.999
2018    30      0       1.534773        217.2505
2018    30      1       1.221772        190.6469
2018    30      2       1.680082        223.8516
2018    30      3       1.672838        221.9951
2018    30      4       1.66335         222.674
2018    30      5       1.64537         222.7864
2018    30      6       1.903584        234.6181
2018    30      7       2.039294        238.9007
2018    31      0       2.298932        248.0172
2018    31      1       2.312001        249.3984
2018    31      2       2.718005        259.5182
2018    31      3       2.987352        264.6572
2018    31      4       2.995099        265.7771
2018    31      5       2.810577        262.8958
2018    31      6       2.862336        263.1476
2018    31      7       2.72267         260.6589
