####################################################################################################
# Month: 11Nov                                                                                     #
# Station: YAN                                                                                     #
# Frequency: 230 GHz                                                                               #
# Columns are: year    day     segment         tau     Tb (K)                                      #
####################################################################################################
2009    1       0       0.2793021       68.29458
2009    1       1       0.2298311       58.50156
2009    1       2       0.1883326       49.72889
2009    1       3       0.1693407       45.50014
2009    1       4       0.1933498       50.59763
2009    1       5       0.2500041       62.24534
2009    1       6       0.2864377       69.31983
2009    1       7       0.2431821       61.00336
2009    2       0       0.2140618       55.03389
2009    2       1       0.2167002       55.36444
2009    2       2       0.1915299       49.97852
2009    2       3       0.2078207       53.24681
2009    2       4       0.2338149       58.59122
2009    2       5       0.2025384       52.40427
2009    2       6       0.2336046       58.99193
2009    2       7       0.2683359       66.14015
2009    3       0       0.2210111       56.29353
2009    3       1       0.2020765       52.1839
2009    3       2       0.2030199       52.14902
2009    3       3       0.1922317       49.7482
2009    3       4       0.2470002       61.12898
2009    3       5       0.2491035       61.72179
2009    3       6       0.2792765       67.81515
2009    3       7       0.2687435       65.95492
2009    4       0       0.226013        57.46968
2009    4       1       0.169736        45.40715
2009    4       2       0.1564209       42.3621
2009    4       3       0.138275        38.19085
2009    4       4       0.1205928       34.03211
2009    4       5       0.1160771       32.98755
2009    4       6       0.1460885       39.91046
2009    4       7       0.1187931       33.77004
2009    5       0       0.09688192      28.69427
2009    5       1       0.07787809      24.23524
2009    5       2       0.07395296      23.32976
2009    5       3       0.0733009       23.09996
2009    5       4       0.05479091      18.46428
2009    5       5       0.05983843      19.72974
2009    5       6       0.07342552      23.23449
2009    5       7       0.06700205      21.78205
2009    6       0       0.04323623      15.63955
2009    6       1       0.03807423      14.26627
2009    6       2       0.03737631      14.05621
2009    6       3       0.03576145      13.60256
2009    6       4       0.03509425      13.403
2009    6       5       0.03974635      14.63499
2009    6       6       0.05408231      18.35072
2009    6       7       0.06085155      20.09949
2009    7       0       0.06588093      21.26742
2009    7       1       0.0856284       26.1485
2009    7       2       0.09885725      29.41567
2009    7       3       0.1059372       30.96993
2009    7       4       0.1205563       34.33055
2009    7       5       0.1696557       45.4597
2009    7       6       0.2418011       60.78269
2009    7       7       0.2764149       67.65915
2009    8       0       0.1804054       47.76593
2009    8       1       0.1512024       41.45824
2009    8       2       0.1343525       37.67218
2009    8       3       0.09384795      28.12328
2009    8       4       0.06688987      21.49303
2009    8       5       0.08989551      27.08721
2009    8       6       0.1625594       43.85355
2009    8       7       0.1873779       49.36127
2009    9       0       0.1797056       47.78264
2009    9       1       0.1756229       47.02732
2009    9       2       0.2329967       58.92722
2009    9       3       0.3043648       73.2633
2009    9       4       0.3137228       74.84979
2009    9       5       0.33818         79.56644
2009    9       6       0.3681892       84.70452
2009    9       7       0.2935546       71.2545
2009    10      0       0.2175627       56.19466
2009    10      1       0.1803913       48.45407
2009    10      2       0.1818813       48.84709
2009    10      3       0.2944847       71.88322
2009    10      4       0.4521133       99.7333
2009    10      5       0.5085005       108.4394
2009    10      6       0.432625        96.13465
2009    10      7       0.4558273       99.60026
2009    11      0       0.4057133       91.60431
2009    11      1       0.2914622       71.10724
2009    11      2       0.2368731       60.36151
2009    11      3       0.2646285       66.13112
2009    11      4       0.3304392       78.95871
2009    11      5       0.3841321       88.65788
2009    11      6       0.3587601       84.05963
2009    11      7       0.4374343       97.37218
2009    12      0       0.4791587       104.3011
2009    12      1       0.4699087       102.4402
2009    12      2       0.4939914       105.9827
2009    12      3       0.5204328       109.5283
2009    12      4       0.4609413       100.5989
2009    12      5       0.4401502       96.54246
2009    12      6       0.44927         98.10288
2009    12      7       0.3725945       84.96861
2009    13      0       0.4134045       91.87324
2009    13      1       0.435294        95.74389
2009    13      2       0.4499106       98.27985
2009    13      3       0.4112068       92.10126
2009    13      4       0.3880905       88.14154
2009    13      5       0.4028317       90.72271
2009    13      6       0.4668988       101.5059
2009    13      7       0.5109764       108.4478
2009    14      0       0.5134902       108.7337
2009    14      1       0.4898795       105.0324
2009    14      2       0.4338325       96.10108
2009    14      3       0.3877332       88.47587
2009    14      4       0.3582321       83.3292
2009    14      5       0.4032908       91.4243
2009    14      6       0.4146477       93.46898
2009    14      7       0.460121        101.0431
2009    15      0       0.479612        104.1485
2009    15      1       0.4773471       103.3747
2009    15      2       0.3844154       87.28225
2009    15      3       0.2888172       69.38632
2009    15      4       0.285639        68.65535
2009    15      5       0.3505235       81.07698
2009    15      6       0.4295066       95.2345
2009    15      7       0.4888173       104.7089
2009    16      0       0.434396        96.00122
2009    16      1       0.4646769       101.6702
2009    16      2       0.4982348       106.2773
2009    16      3       0.4095081       92.05857
2009    16      4       0.4757225       103.0439
2009    16      5       0.473593        102.7261
2009    16      6       0.4675941       101.864
2009    16      7       0.4706831       102.6637
2009    17      0       0.5033464       106.4598
2009    17      1       0.4380527       95.66466
2009    17      2       0.3482054       81.00386
2009    17      3       0.351675        81.80148
2009    17      4       0.380049        86.68502
2009    17      5       0.5047317       106.9172
2009    17      6       0.4888978       105.2322
2009    17      7       0.5384291       112.9694
2009    18      0       0.5296655       111.1865
2009    18      1       0.5172377       109.3553
2009    18      2       0.4519744       99.46769
2009    18      3       0.4655581       101.9946
2009    18      4       0.4363988       97.38254
2009    18      5       0.4827417       104.7092
2009    18      6       0.4476558       99.04337
2009    18      7       0.5274562       112.2049
2009    19      0       0.5741535       118.7377
2009    19      1       0.5286333       111.4727
2009    19      2       0.5001162       106.7038
2009    19      3       0.4295915       95.58528
2009    19      4       0.4725014       102.9055
2009    19      5       0.5326889       111.7152
2009    19      6       0.4265002       94.90367
2009    19      7       0.44585         98.32836
2009    20      0       0.4025058       91.2315
2009    20      1       0.476266        103.4356
2009    20      2       0.4353808       96.52176
2009    20      3       0.4724492       102.7692
2009    20      4       0.5107801       108.7339
2009    20      5       0.4364742       96.21116
2009    20      6       0.4979505       106.3774
2009    20      7       0.5339271       111.899
2009    21      0       0.4602204       100.9684
2009    21      1       0.4072595       92.37621
2009    21      2       0.314104        75.24515
2009    21      3       0.222835        56.93208
2009    21      4       0.1795868       47.7295
2009    21      5       0.2891998       70.14615
2009    21      6       0.40477         91.38141
2009    21      7       0.4098742       92.29684
2009    22      0       0.2989949       71.66668
2009    22      1       0.1766809       46.60711
2009    22      2       0.2278065       57.21513
2009    22      3       0.3483842       80.24788
2009    22      4       0.3162881       75.11152
2009    22      5       0.3519004       82.18303
2009    22      6       0.4568605       99.87172
2009    22      7       0.5140812       109.3533
2009    23      0       0.5183782       109.5436
2009    23      1       0.4428052       96.55446
2009    23      2       0.4131836       91.80019
2009    23      3       0.4371696       95.70445
2009    23      4       0.3778202       86.19092
2009    23      5       0.4614884       100.2729
2009    23      6       0.5185558       109.162
2009    23      7       0.512923        108.554
2009    24      0       0.5204476       110.0936
2009    24      1       0.4943515       106.3578
2009    24      2       0.4490631       99.25084
2009    24      3       0.430789        96.39192
2009    24      4       0.4206033       94.41236
2009    24      5       0.4643845       101.2719
2009    24      6       0.5532901       114.6583
2009    24      7       0.553374        115.3807
2009    25      0       0.5478337       113.9733
2009    25      1       0.5313573       111.1107
2009    25      2       0.4868652       104.6874
2009    25      3       0.4950672       106.1174
2009    25      4       0.4872088       104.7965
2009    25      5       0.5031907       106.899
2009    25      6       0.4847551       104.3383
2009    25      7       0.5323571       111.9423
2009    26      0       0.4911969       105.2264
2009    26      1       0.4606135       100.2508
2009    26      2       0.4198434       94.01846
2009    26      3       0.4763721       103.6766
2009    26      4       0.501454        107.7499
2009    26      5       0.4781331       103.6647
2009    26      6       0.4916475       106.1956
2009    26      7       0.5844218       120.3388
2009    27      0       0.5248535       110.4442
2009    27      1       0.5055131       107.199
2009    27      2       0.4891552       104.5698
2009    27      3       0.4819464       103.3174
2009    27      4       0.4810091       103.487
2009    27      5       0.519135        109.7565
2009    27      6       0.5516198       114.6527
2009    27      7       0.6282343       126.3895
2009    28      0       0.5506533       115.4558
2009    28      1       0.4637716       101.2618
2009    28      2       0.4004202       90.4715
2009    28      3       0.3795154       86.79196
2009    28      4       0.3758801       86.18047
2009    28      5       0.3952357       90.00317
2009    28      6       0.4533419       100.2323
2009    28      7       0.5537814       116.1256
2009    29      0       0.5286134       112.2991
2009    29      1       0.4737971       103.5009
2009    29      2       0.4489192       98.87494
2009    29      3       0.4008723       90.49903
2009    29      4       0.3454143       80.90276
2009    29      5       0.3806712       87.37133
2009    29      6       0.4230048       94.51465
2009    29      7       0.3842158       87.98894
2009    30      0       0.334633        78.70397
2009    30      1       0.3390386       79.48451
2009    30      2       0.4028865       90.99134
2009    30      3       0.4195671       94.09122
2009    30      4       0.43011         96.08886
2009    30      5       0.4718994       102.6633
2009    30      6       0.5008262       107.6357
2009    30      7       0.5682114       118.1141
2010    1       0       0.1084677       30.90205
2010    1       1       0.07967229      24.19667
2010    1       2       0.09211347      27.39972
2010    1       3       0.1849457       48.29673
2010    1       4       0.2649481       64.4453
2010    1       5       0.3812247       85.89681
2010    1       6       0.424993        93.58409
2010    1       7       0.4882232       104.0857
2010    2       0       0.3985057       89.70123
2010    2       1       0.3572816       81.89995
2010    2       2       0.3728148       84.93926
2010    2       3       0.3517456       81.62778
2010    2       4       0.3218838       76.22875
2010    2       5       0.3487021       81.19865
2010    2       6       0.3404159       79.81642
2010    2       7       0.2846673       69.30237
2010    3       0       0.2215902       56.52731
2010    3       1       0.2095098       53.63162
2010    3       2       0.192982        50.34325
2010    3       3       0.1415057       39.20364
2010    3       4       0.09395573      28.202
2010    3       5       0.08472091      25.99295
2010    3       6       0.08353704      25.66801
2010    3       7       0.06182382      20.34667
2010    4       0       0.03548349      13.60862
2010    4       1       0.03034629      12.24388
2010    4       2       0.02630058      11.14408
2010    4       3       0.02183759      9.883061
2010    4       4       0.02175919      9.832317
2010    4       5       0.02692378      11.26236
2010    4       6       0.03699321      13.95147
2010    4       7       0.04252833      15.44465
2010    5       0       0.03363887      13.08622
2010    5       1       0.03858259      14.40001
2010    5       2       0.05587819      18.90755
2010    5       3       0.06919159      22.27621
2010    5       4       0.07540624      23.79644
2010    5       5       0.1133593       32.94279
2010    5       6       0.1787636       47.84685
2010    5       7       0.2571777       64.30925
2010    6       0       0.2936867       71.70677
2010    6       1       0.2438538       61.69652
2010    6       2       0.2008351       52.5753
2010    6       3       0.2476323       62.15727
2010    6       4       0.2512916       62.97792
2010    6       5       0.3188997       75.95378
2010    6       6       0.3426341       80.4616
2010    6       7       0.2973772       72.07146
2010    7       0       0.1727371       46.42235
2010    7       1       0.1313395       36.743
2010    7       2       0.0898839       26.75983
2010    7       3       0.05361696      17.98126
2010    7       4       0.04268708      15.31309
2010    7       5       0.06573546      21.24763
2010    7       6       0.1200137       34.28767
2010    7       7       0.1514473       41.56148
2010    8       0       0.1390077       38.9079
2010    8       1       0.1831047       48.94842
2010    8       2       0.1583246       43.31659
2010    8       3       0.1351107       38.0027
2010    8       4       0.1065669       31.302
2010    8       5       0.1008267       29.92248
2010    8       6       0.1351562       37.86854
2010    8       7       0.1622762       43.92658
2010    9       0       0.2019205       52.46588
2010    9       1       0.2436314       61.01425
2010    9       2       0.2291341       57.92994
2010    9       3       0.2358852       59.60623
2010    9       4       0.3236849       76.86924
2010    9       5       0.4078529       91.38413
2010    9       6       0.4520186       98.95933
2010    9       7       0.46576         100.8898
2010    10      0       0.4752541       102.3385
2010    10      1       0.4684886       101.2291
2010    10      2       0.4779542       102.5131
2010    10      3       0.5234222       110.5462
2010    10      4       0.4574008       99.4351
2010    10      5       0.4324112       95.35294
2010    10      6       0.4316811       95.01641
2010    10      7       0.4295748       95.01554
2010    11      0       0.4776126       103.0276
2010    11      1       0.4668189       100.9556
2010    11      2       0.4105638       91.29041
2010    11      3       0.3809291       86.02241
2010    11      4       0.3192543       75.02547
2010    11      5       0.3394116       79.11885
2010    11      6       0.4107573       91.73892
2010    11      7       0.4842532       103.8674
2010    12      0       0.4542141       98.84556
2010    12      1       0.4020855       89.81347
2010    12      2       0.363758        83.19896
2010    12      3       0.3119409       73.54124
2010    12      4       0.2686866       65.27974
2010    12      5       0.2918128       70.00525
2010    12      6       0.3183405       75.13801
2010    12      7       0.3645475       83.73067
2010    13      0       0.3482012       80.91707
2010    13      1       0.3126806       74.41491
2010    13      2       0.26669         65.58591
2010    13      3       0.2241938       56.99243
2010    13      4       0.2086256       53.92365
2010    13      5       0.2259408       57.44553
2010    13      6       0.2397467       60.05109
2010    13      7       0.2724161       66.7199
2010    14      0       0.2430603       61.22633
2010    14      1       0.268292        66.33459
2010    14      2       0.2533437       63.3921
2010    14      3       0.2032541       53.04539
2010    14      4       0.2064307       53.80249
2010    14      5       0.2358519       59.72278
2010    14      6       0.2559033       63.64018
2010    14      7       0.2650631       65.73421
2010    15      0       0.2646971       65.67688
2010    15      1       0.3143733       75.22674
2010    15      2       0.2806593       68.42053
2010    15      3       0.2245708       57.10879
2010    15      4       0.1578759       42.96823
2010    15      5       0.1456383       40.33805
2010    15      6       0.2138929       55.09779
2010    15      7       0.304712        73.09621
2010    16      0       0.2569282       63.46563
2010    16      1       0.1876213       48.88143
2010    16      2       0.08652842      26.01307
2010    16      3       0.04504516      15.80935
2010    16      4       0.03933453      14.4931
2010    16      5       0.05922213      19.70748
2010    16      6       0.08909256      27.06575
2010    16      7       0.1132527       32.75082
2010    17      0       0.08066701      25.12207
2010    17      1       0.05916958      19.79202
2010    17      2       0.05169964      17.86879
2010    17      3       0.04740808      16.74287
2010    17      4       0.03790962      14.25707
2010    17      5       0.04324631      15.66962
2010    17      6       0.08138863      25.19053
2010    17      7       0.1330366       37.25006
2010    18      0       0.1130693       32.74603
2010    18      1       0.1399756       38.74452
2010    18      2       0.2225904       56.38817
2010    18      3       0.2762642       67.32702
2010    18      4       0.30565         72.68468
2010    18      5       0.3446426       80.08711
2010    18      6       0.3518601       81.18732
2010    18      7       0.287162        69.08592
2010    19      0       0.09667092      28.22297
2010    19      1       0.04000195      14.33178
2010    19      2       0.03145037      12.10146
2010    19      3       0.03677994      13.43557
2010    19      4       0.03168671      12.20111
2010    19      5       0.03293198      12.70699
2010    19      6       0.05204922      17.79105
2010    19      7       0.06115221      20.17957
2010    20      0       0.04798266      16.74673
2010    20      1       0.0499017       17.14556
2010    20      2       0.08503282      25.71329
2010    20      3       0.1806371       47.68047
2010    20      4       0.2571795       63.40558
2010    20      5       0.334874        78.37024
2010    20      6       0.3291312       77.09198
2010    20      7       0.3389582       79.24999
2010    21      0       0.254679        63.08795
2010    21      1       0.2110234       53.93597
2010    21      2       0.216754        54.85389
2010    21      3       0.2226462       55.99989
2010    21      4       0.2540729       62.52161
2010    21      5       0.3386627       78.7042
2010    21      6       0.3523532       81.48344
2010    21      7       0.3578966       82.40021
2010    22      0       0.3036793       72.03151
2010    22      1       0.2364298       58.95379
2010    22      2       0.2287493       57.63203
2010    22      3       0.2262926       57.16005
2010    22      4       0.2203525       55.97515
2010    22      5       0.2875548       69.23034
2010    22      6       0.3299874       77.15672
2010    22      7       0.398403        89.53403
2010    23      0       0.3805237       86.56546
2010    23      1       0.3811437       86.56024
2010    23      2       0.3340221       78.08688
2010    23      3       0.290121        69.83926
2010    23      4       0.2598244       63.97145
2010    23      5       0.2913875       69.84229
2010    23      6       0.2949549       70.90074
2010    23      7       0.3230909       75.94026
2010    24      0       0.2685466       64.59737
2010    24      1       0.2382711       58.51856
2010    24      2       0.2279241       56.46372
2010    24      3       0.2734794       65.93684
2010    24      4       0.2742766       66.33615
2010    24      5       0.2584207       63.70372
2010    24      6       0.288364        69.59085
2010    24      7       0.3240656       76.56299
2010    25      0       0.2867138       69.02195
2010    25      1       0.2548543       62.69487
2010    25      2       0.2904643       69.79768
2010    25      3       0.3533975       81.25412
2010    25      4       0.3617183       82.91286
2010    25      5       0.388116        87.28885
2010    25      6       0.4113628       91.53546
2010    25      7       0.4298296       94.7705
2010    26      0       0.3272768       76.70294
2010    26      1       0.3530772       81.00258
2010    26      2       0.4310919       94.77232
2010    26      3       0.4510913       98.16207
2010    26      4       0.2848603       68.91005
2010    26      5       0.3219564       76.0534
2010    26      6       0.3587735       82.64244
2010    26      7       0.4584693       99.60089
2010    27      0       0.4067012       90.92621
2010    27      1       0.3856315       87.41019
2010    27      2       0.3385951       78.98395
2010    27      3       0.2984272       71.49736
2010    27      4       0.2839399       68.83529
2010    27      5       0.3449658       80.01231
2010    27      6       0.3288713       77.38225
2010    27      7       0.4126294       92.18917
2010    28      0       0.3710306       84.33664
2010    28      1       0.3952476       88.47798
2010    28      2       0.3475473       80.10207
2010    28      3       0.3405226       78.57807
2010    28      4       0.2736823       66.13289
2010    28      5       0.2648519       64.68351
2010    28      6       0.3266371       76.61458
2010    28      7       0.3264169       76.81778
2010    29      0       0.3244727       76.02804
2010    29      1       0.2836557       68.21851
2010    29      2       0.2814996       67.47321
2010    29      3       0.2726881       65.82015
2010    29      4       0.2955779       70.4066
2010    29      5       0.336437        78.25676
2010    29      6       0.3688482       84.57169
2010    29      7       0.4266693       94.50575
2010    30      0       0.3866803       87.74453
2010    30      1       0.3376613       78.68276
2010    30      2       0.30711         72.73404
2010    30      3       0.2680716       65.059
2010    30      4       0.2310764       57.77601
2010    30      5       0.2247134       56.72514
2010    30      6       0.2635104       64.69228
2010    30      7       0.249585        61.93041
2011    1       0       0.1491743       40.22269
2011    1       1       0.1085309       30.9554
2011    1       2       0.08876586      26.31002
2011    1       3       0.06623779      21.0266
2011    1       4       0.0570381       19.00602
2011    1       5       0.10276         30.27612
2011    1       6       0.2168408       55.1325
2011    1       7       0.2643202       65.27122
2011    2       0       0.2317898       59.09794
2011    2       1       0.2289105       58.61996
2011    2       2       0.2412212       61.23193
2011    2       3       0.2606765       65.14424
2011    2       4       0.2735979       67.70631
2011    2       5       0.3687274       85.20882
2011    2       6       0.3851928       87.84159
2011    2       7       0.3803975       87.20037
2011    3       0       0.3469571       81.56402
2011    3       1       0.3047204       73.86235
2011    3       2       0.3040658       73.70645
2011    3       3       0.3353828       79.57707
2011    3       4       0.4289098       95.51895
2011    3       5       0.4722141       102.1708
2011    3       6       0.477585        102.7127
2011    3       7       0.3974309       90.40313
2011    4       0       0.4071184       92.46602
2011    4       1       0.3295253       78.45409
2011    4       2       0.2573674       64.51965
2011    4       3       0.2117043       55.11086
2011    4       4       0.1644411       44.95132
2011    4       5       0.2262818       58.19877
2011    4       6       0.2968971       72.44192
2011    4       7       0.3738499       86.55482
2011    5       0       0.2794711       68.40079
2011    5       1       0.2549979       64.06409
2011    5       2       0.2954686       71.86408
2011    5       3       0.2318825       59.36241
2011    5       4       0.1931261       51.02425
2011    5       5       0.2381271       60.41236
2011    5       6       0.2914967       70.99058
2011    5       7       0.2315527       58.93959
2011    6       0       0.1414966       39.54755
2011    6       1       0.08328151      26.03445
2011    6       2       0.05436605      18.69457
2011    6       3       0.06787218      22.11055
2011    6       4       0.1175089       34.20144
2011    6       5       0.1710751       46.36013
2011    6       6       0.2234849       57.75323
2011    6       7       0.2072613       54.21952
2011    7       0       0.1759024       47.501
2011    7       1       0.1446928       40.51039
2011    7       2       0.1412904       39.75871
2011    7       3       0.1829406       48.97517
2011    7       4       0.2311742       59.42161
2011    7       5       0.363996        85.32859
2011    7       6       0.3213576       77.37363
2011    7       7       0.3158443       76.22451
2011    8       0       0.2774079       68.78891
2011    8       1       0.2359679       60.41582
2011    8       2       0.2482687       62.75826
2011    8       3       0.269864        66.90376
2011    8       4       0.3473473       81.23032
2011    8       5       0.4029984       90.69079
2011    8       6       0.3276102       77.23992
2011    8       7       0.2959666       71.59273
2011    9       0       0.2662164       65.95605
2011    9       1       0.2748164       67.28793
2011    9       2       0.292415        70.27477
2011    9       3       0.2854571       69.09789
2011    9       4       0.2124221       54.81494
2011    9       5       0.1866488       49.41404
2011    9       6       0.2388266       60.17992
2011    9       7       0.3420519       80.16563
2011    10      0       0.3975187       89.35979
2011    10      1       0.3770512       85.3901
2011    10      2       0.2743594       66.83605
2011    10      3       0.2271582       57.46031
2011    10      4       0.2456498       60.62761
2011    10      5       0.2655697       64.61032
2011    10      6       0.2998727       71.39246
2011    10      7       0.3740689       85.02155
2011    11      0       0.2889924       69.68778
2011    11      1       0.2307039       58.3309
2011    11      2       0.1883636       49.7545
2011    11      3       0.1534799       42.22915
2011    11      4       0.1559864       42.76271
2011    11      5       0.2589328       64.36809
2011    11      6       0.3610826       83.36454
2011    11      7       0.4008664       90.68235
2011    12      0       0.3420361       80.48365
2011    12      1       0.3438605       80.5458
2011    12      2       0.3483639       80.88581
2011    12      3       0.3723273       84.70633
2011    12      4       0.3557422       82.02532
2011    12      5       0.4242776       94.22146
2011    12      6       0.4077188       91.92658
2011    12      7       0.4437759       98.23094
2011    13      0       0.5111585       108.6124
2011    13      1       0.4158164       92.88193
2011    13      2       0.3732878       85.26996
2011    13      3       0.3293705       77.39484
2011    13      4       0.2551671       63.57434
2011    13      5       0.2868744       70.01315
2011    13      6       0.3378277       79.28734
2011    13      7       0.4070557       91.4486
2011    14      0       0.3543534       82.26059
2011    14      1       0.3014232       72.28757
2011    14      2       0.2538608       62.76675
2011    14      3       0.222063        56.09325
2011    14      4       0.2073866       53.58955
2011    14      5       0.2796112       68.60043
2011    14      6       0.3369499       79.65435
2011    14      7       0.4509288       99.60391
2011    15      0       0.3992767       90.45087
2011    15      1       0.3809468       87.29253
2011    15      2       0.4022775       90.95832
2011    15      3       0.2178126       56.03023
2011    15      4       0.1519989       41.76218
2011    15      5       0.1975026       51.57838
2011    15      6       0.3222919       76.15957
2011    15      7       0.4199679       92.97714
2011    16      0       0.3617598       83.22975
2011    16      1       0.2752234       67.50937
2011    16      2       0.2604302       64.44821
2011    16      3       0.288508        69.52924
2011    16      4       0.3152455       74.21431
2011    16      5       0.3853454       86.77401
2011    16      6       0.4629999       99.59272
2011    16      7       0.4545976       98.84108
2011    17      0       0.365862        84.03129
2011    17      1       0.2891092       69.43762
2011    17      2       0.3372809       78.01619
2011    17      3       0.423135        93.09878
2011    17      4       0.2667038       65.33533
2011    17      5       0.3235324       76.03969
2011    17      6       0.4021373       89.89468
2011    17      7       0.383567        87.49736
2011    18      0       0.3673628       84.70724
2011    18      1       0.375992        86.09336
2011    18      2       0.4377652       96.69184
2011    18      3       0.4281709       95.09922
2011    18      4       0.4703122       101.7735
2011    18      5       0.4761425       102.547
2011    18      6       0.4493172       98.74231
2011    18      7       0.5334381       111.9744
2011    19      0       0.4990828       106.5678
2011    19      1       0.466071        100.9757
2011    19      2       0.4181499       92.70262
2011    19      3       0.3887154       87.9777
2011    19      4       0.4462264       97.3209
2011    19      5       0.4806509       103.024
2011    19      6       0.4217747       94.25245
2011    19      7       0.4681987       102.0968
2011    20      0       0.4921014       105.3695
2011    20      1       0.4742001       102.2638
2011    20      2       0.3874043       87.92905
2011    20      3       0.3058208       73.3702
2011    20      4       0.2645335       65.30024
2011    20      5       0.3293621       77.99562
2011    20      6       0.3441979       81.00136
2011    20      7       0.3156048       75.90513
2011    21      0       0.2241074       57.45749
2011    21      1       0.1891992       50.18405
2011    21      2       0.207042        53.95299
2011    21      3       0.2107922       54.67599
2011    21      4       0.1868435       49.60257
2011    21      5       0.1884299       49.92949
2011    21      6       0.2608668       64.85281
2011    21      7       0.2927641       71.40292
2011    22      0       0.2885909       70.93647
2011    22      1       0.3300872       78.66013
2011    22      2       0.3858806       88.88527
2011    22      3       0.385573        88.63751
2011    22      4       0.3824503       87.88132
2011    22      5       0.4335056       96.19958
2011    22      6       0.3996844       90.79757
2011    22      7       0.405065        91.78052
2011    23      0       0.4274507       95.57253
2011    23      1       0.4603657       100.7438
2011    23      2       0.4244707       94.46558
2011    23      3       0.4072426       91.1271
2011    23      4       0.3228708       76.38626
2011    23      5       0.3634163       84.31983
2011    23      6       0.3917391       89.37265
2011    23      7       0.4184988       94.17078
2011    24      0       0.4187331       93.90969
2011    24      1       0.333157        78.57687
2011    24      2       0.2383007       59.78067
2011    24      3       0.3072293       72.88746
2011    24      4       0.2853919       69.39452
2011    24      5       0.3084307       74.28661
2011    24      6       0.3106893       74.65497
2011    24      7       0.3186528       76.21385
2011    25      0       0.2950355       71.49239
2011    25      1       0.2850987       69.79119
2011    25      2       0.2736623       67.34917
2011    25      3       0.2347838       59.39269
2011    25      4       0.1664681       44.96919
2011    25      5       0.1303815       36.92969
2011    25      6       0.1629359       44.16873
2011    25      7       0.1990747       52.06741
2011    26      0       0.1824722       48.53555
2011    26      1       0.167998        45.53777
2011    26      2       0.1842541       49.25772
2011    26      3       0.1894802       50.23004
2011    26      4       0.1975231       52.07795
2011    26      5       0.2968676       72.26106
2011    26      6       0.3573164       83.67795
2011    26      7       0.3730448       86.58142
2011    27      0       0.321009        76.94233
2011    27      1       0.4095526       92.32199
2011    27      2       0.3761          85.97754
2011    27      3       0.3686582       84.41122
2011    27      4       0.3642914       83.93737
2011    27      5       0.3459318       80.88314
2011    27      6       0.3153493       75.25144
2011    27      7       0.335023        79.11423
2011    28      0       0.3777544       86.61713
2011    28      1       0.4844568       103.7554
2011    28      2       0.4165229       92.38259
2011    28      3       0.2614511       64.73097
2011    28      4       0.2421788       60.96164
2011    28      5       0.3310612       78.01108
2011    28      6       0.4013326       90.3083
2011    28      7       0.3913363       88.01454
2011    29      0       0.3258056       76.73813
2011    29      1       0.3331544       78.69894
2011    29      2       0.2852587       69.82569
2011    29      3       0.2426319       61.39508
2011    29      4       0.1953003       51.45607
2011    29      5       0.2692367       66.32102
2011    29      6       0.4091625       92.29364
2011    29      7       0.3445023       80.60303
2011    30      0       0.3775397       86.54226
2011    30      1       0.4476973       98.4614
2011    30      2       0.3347468       78.60495
2011    30      3       0.2341103       59.19878
2011    30      4       0.2089098       54.11518
2011    30      5       0.2411662       61.12593
2011    30      6       0.2799846       68.50259
2011    30      7       0.3124137       75.03498
2012    1       0       0.4692127       101.288
2012    1       1       0.4406799       96.69588
2012    1       2       0.4574818       99.506
2012    1       3       0.4336132       95.46212
2012    1       4       0.3740909       85.23534
2012    1       5       0.3980399       89.38668
2012    1       6       0.4045572       90.8839
2012    1       7       0.4071911       91.34734
2012    2       0       0.2738915       66.71635
2012    2       1       0.2151817       54.73325
2012    2       2       0.2023285       52.10412
2012    2       3       0.1886717       49.23822
2012    2       4       0.1731752       45.89648
2012    2       5       0.1854227       48.65923
2012    2       6       0.2795596       67.81071
2012    2       7       0.300378        71.8163
2012    3       0       0.1995475       51.84135
2012    3       1       0.1857305       48.90574
2012    3       2       0.2346867       58.60788
2012    3       3       0.269149        65.37132
2012    3       4       0.2502032       61.67098
2012    3       5       0.2374249       59.47224
2012    3       6       0.3621709       83.45503
2012    3       7       0.4254934       94.54735
2012    4       0       0.3822841       87.10516
2012    4       1       0.3332098       78.00505
2012    4       2       0.3517557       81.21365
2012    4       3       0.3227317       76.22437
2012    4       4       0.2976827       71.80177
2012    4       5       0.3549895       82.23883
2012    4       6       0.376307        86.39663
2012    4       7       0.4102815       92.48975
2012    5       0       0.3954044       89.66192
2012    5       1       0.4098745       92.24736
2012    5       2       0.3606958       83.63636
2012    5       3       0.3564369       82.68706
2012    5       4       0.3688625       84.84391
2012    5       5       0.402504        90.54962
2012    5       6       0.3896157       88.57486
2012    5       7       0.4005375       90.32104
2012    6       0       0.338868        79.12876
2012    6       1       0.319042        75.31687
2012    6       2       0.3169624       75.06069
2012    6       3       0.3163291       75.11719
2012    6       4       0.2924365       70.73583
2012    6       5       0.2962884       71.52081
2012    6       6       0.3089319       74.31441
2012    6       7       0.2685364       66.85854
2012    7       0       0.1686037       45.86058
2012    7       1       0.1507172       41.72765
2012    7       2       0.1977779       51.97307
2012    7       3       0.2621459       65.39331
2012    7       4       0.2851234       69.89037
2012    7       5       0.3033539       73.1854
2012    7       6       0.327129        77.92609
2012    7       7       0.3137544       75.60461
2012    8       0       0.2279399       58.44143
2012    8       1       0.1989257       52.13899
2012    8       2       0.1873085       49.46404
2012    8       3       0.2018149       52.2758
2012    8       4       0.2169597       55.50212
2012    8       5       0.3137454       74.63816
2012    8       6       0.380376        86.81751
2012    8       7       0.3161752       75.00767
2012    9       0       0.1722622       45.9074
2012    9       1       0.1242557       35.10323
2012    9       2       0.125864        35.16597
2012    9       3       0.1420856       38.61495
2012    9       4       0.1200288       33.69226
2012    9       5       0.1272211       35.4189
2012    9       6       0.1641213       43.82464
2012    9       7       0.196608        50.84862
2012    10      0       0.2316421       57.892
2012    10      1       0.2515695       62.22233
2012    10      2       0.2571961       63.42006
2012    10      3       0.27654         67.49182
2012    10      4       0.2568691       64.0397
2012    10      5       0.3114286       74.4499
2012    10      6       0.4007923       90.50884
2012    10      7       0.4520187       98.79433
2012    11      0       0.4441185       97.04056
2012    11      1       0.3587269       82.76358
2012    11      2       0.3900732       87.96369
2012    11      3       0.5141126       109.4923
2012    11      4       0.3939198       89.76597
2012    11      5       0.3967163       89.83753
2012    11      6       0.5024999       107.0977
2012    11      7       0.3498887       81.30403
2012    12      0       0.186205        49.2309
2012    12      1       0.1401202       39.09135
2012    12      2       0.1621548       44.12452
2012    12      3       0.1845764       49.12865
2012    12      4       0.1800405       48.4026
2012    12      5       0.2851285       69.82367
2012    12      6       0.3716284       85.92968
2012    12      7       0.365218        84.87711
2012    13      0       0.3405726       80.55662
2012    13      1       0.2754177       68.16241
2012    13      2       0.2608864       65.05014
2012    13      3       0.2771975       68.12297
2012    13      4       0.2824617       69.12103
2012    13      5       0.3158159       75.49178
2012    13      6       0.3380272       79.7025
2012    13      7       0.3582041       83.59981
2012    14      0       0.3748406       86.65185
2012    14      1       0.459297        100.5053
2012    14      2       0.4598744       99.75073
2012    14      3       0.4172317       92.57117
2012    14      4       0.4238395       93.53647
2012    14      5       0.3697068       84.64401
2012    14      6       0.4713298       101.6426
2012    14      7       0.4151735       92.65466
2012    15      0       0.3712105       85.25308
2012    15      1       0.3240825       76.89033
2012    15      2       0.3196051       75.75232
2012    15      3       0.2708125       66.20592
2012    15      4       0.2162365       55.28997
2012    15      5       0.243909        61.12484
2012    15      6       0.2952169       71.34332
2012    15      7       0.2948904       71.23602
2012    16      0       0.2132645       54.58013
2012    16      1       0.1852599       48.48779
2012    16      2       0.2000924       51.49467
2012    16      3       0.2034697       51.83667
2012    16      4       0.1969916       50.51022
2012    16      5       0.2361948       58.59201
2012    16      6       0.2894696       69.28703
2012    16      7       0.30184         71.69875
2012    17      0       0.2590482       63.54756
2012    17      1       0.2367855       59.13706
2012    17      2       0.2476885       61.2184
2012    17      3       0.2484133       61.55671
2012    17      4       0.267453        65.63593
2012    17      5       0.3417799       79.85767
2012    17      6       0.3424269       80.36741
2012    17      7       0.37419         86.42534
2012    18      0       0.34462         80.81631
2012    18      1       0.3110568       74.16829
2012    18      2       0.2746443       67.3136
2012    18      3       0.236066        59.5833
2012    18      4       0.1786629       47.36579
2012    18      5       0.2169514       55.30166
2012    18      6       0.2942808       70.2116
2012    18      7       0.2392396       60.02811
2012    19      0       0.1772539       46.90845
2012    19      1       0.2112071       53.76276
2012    19      2       0.2714733       65.98346
2012    19      3       0.2824431       68.18541
2012    19      4       0.2492808       61.58885
2012    19      5       0.3296716       76.77787
2012    19      6       0.3644575       82.89311
2012    19      7       0.3810031       86.02297
2012    20      0       0.2919005       70.32413
2012    20      1       0.2529977       62.853
2012    20      2       0.2810442       68.3279
2012    20      3       0.2856367       69.34103
2012    20      4       0.2618248       64.81482
2012    20      5       0.3322185       77.93013
2012    20      6       0.3665449       84.36366
2012    20      7       0.4133256       92.81714
2012    21      0       0.3323375       78.62794
2012    21      1       0.29969         72.49364
2012    21      2       0.2899826       70.43043
2012    21      3       0.2042548       53.03709
2012    21      4       0.1233351       35.01356
2012    21      5       0.0990781       29.23647
2012    21      6       0.1023245       30.00286
2012    21      7       0.0969092       28.69135
2012    22      0       0.05710645      19.19436
2012    22      1       0.03891311      14.53089
2012    22      2       0.03504792      13.5173
2012    22      3       0.03477565      13.45463
2012    22      4       0.034266        13.32591
2012    22      5       0.04418921      15.93588
2012    22      6       0.0653904       21.36989
2012    22      7       0.07852981      24.67181
2012    23      0       0.06284251      20.82434
2012    23      1       0.04317398      15.74377
2012    23      2       0.0326742       12.91671
2012    23      3       0.03064983      12.34199
2012    23      4       0.03189007      12.68777
2012    23      5       0.08203597      25.33724
2012    23      6       0.1801125       47.69132
2012    23      7       0.1825565       48.13529
2012    24      0       0.0814412       25.03384
2012    24      1       0.04646572      16.29478
2012    24      2       0.07008917      22.23622
2012    24      3       0.1200068       34.21707
2012    24      4       0.1623316       43.9109
2012    24      5       0.2605108       64.36695
2012    24      6       0.3364841       79.13994
2012    24      7       0.4051636       91.29451
2012    25      0       0.4082952       91.22531
2012    25      1       0.4609758       99.88657
2012    25      2       0.3944453       89.04192
2012    25      3       0.3263936       77.0704
2012    25      4       0.3341752       78.11037
2012    25      5       0.3653644       83.91051
2012    25      6       0.4146005       92.76814
2012    25      7       0.4436634       98.342
2012    26      0       0.403263        91.01745
2012    26      1       0.3676984       84.13837
2012    26      2       0.3566164       81.8824
2012    26      3       0.3201907       75.68677
2012    26      4       0.2433986       61.07265
2012    26      5       0.2731177       66.85719
2012    26      6       0.3773019       86.26192
2012    26      7       0.3977881       89.59936
2012    27      0       0.2999352       72.04893
2012    27      1       0.249263        61.55979
2012    27      2       0.2130874       54.4225
2012    27      3       0.2111835       54.34222
2012    27      4       0.2234925       57.16613
2012    27      5       0.3226938       76.20968
2012    27      6       0.3156109       74.79105
2012    27      7       0.3529475       81.61748
2012    28      0       0.2907891       70.48986
2012    28      1       0.2385729       60.21462
2012    28      2       0.1872176       49.37182
2012    28      3       0.1772071       47.15754
2012    28      4       0.1918319       50.31447
2012    28      5       0.2498836       62.41634
2012    28      6       0.3252292       76.77222
2012    28      7       0.3684935       84.50642
2012    29      0       0.3944924       88.54539
2012    29      1       0.3701977       83.99987
2012    29      2       0.2849736       68.47134
2012    29      3       0.2258142       56.72519
2012    29      4       0.2269906       56.66128
2012    29      5       0.2850995       67.8115
2012    29      6       0.3606006       81.85797
2012    29      7       0.303279        71.60373
2012    30      0       0.2405866       59.42555
2012    30      1       0.1997975       51.33722
2012    30      2       0.1946889       50.26918
2012    30      3       0.1744633       45.83862
2012    30      4       0.1830376       47.60121
2012    30      5       0.2228362       56.01072
2012    30      6       0.2662437       64.74133
2012    30      7       0.2961803       70.37927
2013    1       0       0.0943922       28.407
2013    1       1       0.05893545      19.53892
2013    1       2       0.04234552      15.21577
2013    1       3       0.03412005      13.10076
2013    1       4       0.03067316      12.21965
2013    1       5       0.03537606      13.50512
2013    1       6       0.04574535      16.29876
2013    1       7       0.0381688       14.36492
2013    2       0       0.0337196       13.1966
2013    2       1       0.03149815      12.61764
2013    2       2       0.05139392      17.83707
2013    2       3       0.1622754       43.9819
2013    2       4       0.2860852       69.12635
2013    2       5       0.4081764       90.78198
2013    2       6       0.4331787       94.2692
2013    2       7       0.3220784       75.55802
2013    3       0       0.2655317       64.61867
2013    3       1       0.2688116       65.35607
2013    3       2       0.3687927       83.93509
2013    3       3       0.4527727       98.65664
2013    3       4       0.3774032       86.0021
2013    3       5       0.4021177       90.05166
2013    3       6       0.4200314       92.99638
2013    3       7       0.4276427       94.87202
2013    4       0       0.4659799       101.1233
2013    4       1       0.4197355       93.25716
2013    4       2       0.3223677       76.36082
2013    4       3       0.2617015       64.62165
2013    4       4       0.2659551       65.33354
2013    4       5       0.3788432       85.76815
2013    4       6       0.4045586       90.44403
2013    4       7       0.4361147       95.98879
2013    5       0       0.4209615       92.99029
2013    5       1       0.348982        80.42385
2013    5       2       0.3157508       74.81032
2013    5       3       0.3629806       83.47858
2013    5       4       0.3568569       82.31833
2013    5       5       0.3370714       78.97541
2013    5       6       0.3406081       79.40508
2013    5       7       0.3540926       81.49814
2013    6       0       0.3508057       80.34371
2013    6       1       0.3394862       78.152
2013    6       2       0.3344222       77.21526
2013    6       3       0.2693622       65.41949
2013    6       4       0.3107555       73.45087
2013    6       5       0.3308742       77.55382
2013    6       6       0.3442778       80.1793
2013    6       7       0.3787961       86.34901
2013    7       0       0.3899382       87.99704
2013    7       1       0.3394507       78.7509
2013    7       2       0.3276085       76.55254
2013    7       3       0.3388406       78.45666
2013    7       4       0.2949032       70.69855
2013    7       5       0.3031441       72.45607
2013    7       6       0.3011586       72.04723
2013    7       7       0.3174869       75.01924
2013    8       0       0.2502299       62.51385
2013    8       1       0.209355        54.2093
2013    8       2       0.1775422       47.36318
2013    8       3       0.1586368       42.9539
2013    8       4       0.1286695       36.05433
2013    8       5       0.1514262       41.0067
2013    8       6       0.258304        63.44163
2013    8       7       0.3115836       74.03029
2013    9       0       0.2940862       70.91981
2013    9       1       0.3238349       76.55997
2013    9       2       0.3413777       79.50684
2013    9       3       0.3038801       72.82864
2013    9       4       0.3327363       77.71239
2013    9       5       0.4127987       90.95841
2013    9       6       0.355521        81.49146
2013    9       7       0.3187153       75.34963
2013    10      0       0.2920254       70.52918
2013    10      1       0.231901        58.63472
2013    10      2       0.1867709       48.99249
2013    10      3       0.180696        47.6265
2013    10      4       0.171314        45.50214
2013    10      5       0.1935528       50.06467
2013    10      6       0.239279        59.40628
2013    10      7       0.228178        57.21886
2013    11      0       0.1679898       44.72719
2013    11      1       0.1264718       35.44836
2013    11      2       0.1034679       30.00145
2013    11      3       0.08642571      26.27964
2013    11      4       0.08760552      26.83111
2013    11      5       0.1752162       46.75797
2013    11      6       0.2270977       57.39703
2013    11      7       0.2283853       57.92151
2013    12      0       0.1810243       47.72578
2013    12      1       0.1559379       42.19223
2013    12      2       0.158444        42.8935
2013    12      3       0.1807781       47.67258
2013    12      4       0.2085593       53.75827
2013    12      5       0.3126258       74.33465
2013    12      6       0.3505286       81.60869
2013    12      7       0.3440373       80.47673
2013    13      0       0.3063521       72.71063
2013    13      1       0.2839873       68.24864
2013    13      2       0.271644        65.75409
2013    13      3       0.2346017       58.4874
2013    13      4       0.2282749       57.31371
2013    13      5       0.3145479       74.28437
2013    13      6       0.3903347       88.43605
2013    13      7       0.4175258       93.49307
2013    14      0       0.4650297       101.424
2013    14      1       0.3975867       90.40955
2013    14      2       0.3294929       78.20588
2013    14      3       0.2960199       71.65821
2013    14      4       0.2710784       66.66707
2013    14      5       0.3533044       81.62027
2013    14      6       0.4168098       92.67805
2013    14      7       0.3978246       90.15907
2013    15      0       0.4363818       96.72186
2013    15      1       0.36676         84.6178
2013    15      2       0.3080726       73.75027
2013    15      3       0.2795377       68.09744
2013    15      4       0.2405776       60.44518
2013    15      5       0.2903861       70.27343
2013    15      6       0.3679937       84.95713
2013    15      7       0.4895048       105.4973
2013    16      0       0.4445136       97.6456
2013    16      1       0.3780369       86.23978
2013    16      2       0.3053945       72.85471
2013    16      3       0.2857896       68.88647
2013    16      4       0.2711691       65.97732
2013    16      5       0.2729618       66.48633
2013    16      6       0.30395         72.61578
2013    16      7       0.324661        76.58812
2013    17      0       0.3021983       72.4799
2013    17      1       0.3027282       72.73952
2013    17      2       0.2712391       66.58601
2013    17      3       0.1963913       51.05836
2013    17      4       0.153522        41.60302
2013    17      5       0.1508232       41.14782
2013    17      6       0.2012497       52.13599
2013    17      7       0.2441834       61.39808
2013    18      0       0.2253386       57.54165
2013    18      1       0.2078669       53.77974
2013    18      2       0.1753689       46.67091
2013    18      3       0.1370531       38.07025
2013    18      4       0.1140743       32.7814
2013    18      5       0.1358544       37.93108
2013    18      6       0.1858806       49.03869
2013    18      7       0.1977704       51.45754
2013    19      0       0.1304653       36.70393
2013    19      1       0.09029185      27.28889
2013    19      2       0.07491496      23.48932
2013    19      3       0.07110282      22.55227
2013    19      4       0.05300537      18.10962
2013    19      5       0.04982051      17.32063
2013    19      6       0.07154089      22.75702
2013    19      7       0.07148945      22.68611
2013    20      0       0.04682124      16.53889
2013    20      1       0.03140137      12.51576
2013    20      2       0.02943865      11.97134
2013    20      3       0.04646518      16.41409
2013    20      4       0.07995308      24.75035
2013    20      5       0.152556        41.58984
2013    20      6       0.2702425       66.12052
2013    20      7       0.324154        76.61793
2013    21      0       0.3341174       78.26102
2013    21      1       0.3643591       83.94528
2013    21      2       0.3853684       87.79897
2013    21      3       0.3435826       80.40469
2013    21      4       0.3209479       76.08748
2013    21      5       0.3789659       86.81131
2013    21      6       0.3993992       90.52982
2013    21      7       0.467149        101.7687
2013    22      0       0.4221829       93.79164
2013    22      1       0.3706914       84.54207
2013    22      2       0.3461745       80.07985
2013    22      3       0.3317699       77.32965
2013    22      4       0.284595        68.49348
2013    22      5       0.2879602       69.3736
2013    22      6       0.3299184       77.56224
2013    22      7       0.3169044       75.62156
2013    23      0       0.2074543       53.72571
2013    23      1       0.1395228       38.80312
2013    23      2       0.1143894       32.96942
2013    23      3       0.0972702       28.98149
2013    23      4       0.0849359       26.06211
2013    23      5       0.08841305      26.86023
2013    23      6       0.1003887       29.80037
2013    23      7       0.1154034       33.40401
2013    24      0       0.1006353       30.00004
2013    24      1       0.07965522      24.91706
2013    24      2       0.0813513       25.31977
2013    24      3       0.1130408       32.82987
2013    24      4       0.2235608       56.94157
2013    24      5       0.305141        73.11794
2013    24      6       0.3391064       79.64549
2013    24      7       0.3231937       76.95242
2013    25      0       0.2484256       62.6532
2013    25      1       0.1933299       51.16736
2013    25      2       0.1994447       52.45148
2013    25      3       0.2300553       58.92852
2013    25      4       0.2364529       60.27014
2013    25      5       0.2388758       60.58639
2013    25      6       0.239331        60.51
2013    25      7       0.3074438       73.72698
2013    26      0       0.3032433       73.30971
2013    26      1       0.2410981       61.15081
2013    26      2       0.2143125       55.3637
2013    26      3       0.208261        53.87899
2013    26      4       0.2393763       60.23932
2013    26      5       0.3290585       77.37935
2013    26      6       0.3062592       73.46498
2013    26      7       0.344022        80.60464
2013    27      0       0.3125168       75.10642
2013    27      1       0.2555092       64.05127
2013    27      2       0.2323643       59.17348
2013    27      3       0.2512714       62.75405
2013    27      4       0.2488336       62.29674
2013    27      5       0.3198788       75.99792
2013    27      6       0.3628387       84.03416
2013    27      7       0.3955907       89.88915
2013    28      0       0.3723776       84.95468
2013    28      1       0.3446343       79.62326
2013    28      2       0.2606789       63.96685
2013    28      3       0.2695188       65.3602
2013    28      4       0.234335        58.86548
2013    28      5       0.2597166       64.18091
2013    28      6       0.3194651       75.95327
2013    28      7       0.3729648       85.7786
2013    29      0       0.3280466       77.3884
2013    29      1       0.2190055       56.18275
2013    29      2       0.1426816       39.56522
2013    29      3       0.09945395      29.52236
2013    29      4       0.07807983      24.55151
2013    29      5       0.10925         32.2138
2013    29      6       0.2060692       53.98011
2013    29      7       0.2896148       70.92617
2013    30      0       0.3085005       74.37691
2013    30      1       0.3105542       74.46726
2013    30      2       0.3441231       80.50219
2013    30      3       0.3419722       80.08994
2013    30      4       0.368217        83.95677
2013    30      5       0.3873173       87.28594
2013    30      6       0.3451103       80.57948
2013    30      7       0.3748894       86.40299
2014    1       0       0.4905694       104.7416
2014    1       1       0.4384108       96.5097
2014    1       2       0.3804294       86.52116
2014    1       3       0.33593         78.38325
2014    1       4       0.2803791       67.77067
2014    1       5       0.2710752       65.9473
2014    1       6       0.3139          74.36362
2014    1       7       0.3661039       84.06886
2014    2       0       0.3635394       83.40634
2014    2       1       0.3874471       87.08883
2014    2       2       0.33857         78.56281
2014    2       3       0.2713875       66.13391
2014    2       4       0.2791728       67.70302
2014    2       5       0.3185107       75.07947
2014    2       6       0.3480888       80.81519
2014    2       7       0.3517144       81.34788
2014    3       0       0.1501873       40.92807
2014    3       1       0.06830721      21.74397
2014    3       2       0.06080884      19.99934
2014    3       3       0.07095647      22.70429
2014    3       4       0.07779085      24.41966
2014    3       5       0.0876266       26.79311
2014    3       6       0.1154011       33.42797
2014    3       7       0.1038646       30.81948
2014    4       0       0.09479391      28.79382
2014    4       1       0.1034819       30.90162
2014    4       2       0.1160542       33.79566
2014    4       3       0.1352068       38.08216
2014    4       4       0.1618918       44.08139
2014    4       5       0.29284         70.75216
2014    4       6       0.3742295       85.71502
2014    4       7       0.396929        89.76104
2014    5       0       0.341694        80.41941
2014    5       1       0.3121014       75.19939
2014    5       2       0.3197248       76.30892
2014    5       3       0.379707        86.72615
2014    5       4       0.2938303       70.56958
2014    5       5       0.2519209       62.46486
2014    5       6       0.3757435       86.12203
2014    5       7       0.5085817       107.9724
2014    6       0       0.3867626       88.38579
2014    6       1       0.3946908       89.62537
2014    6       2       0.3879917       87.75823
2014    6       3       0.3187389       74.70734
2014    6       4       0.3033588       72.10321
2014    6       5       0.206843        53.4131
2014    6       6       0.2844577       69.38933
2014    6       7       0.4059938       91.27783
2014    7       0       0.3660303       84.43929
2014    7       1       0.3946088       89.54037
2014    7       2       0.3709578       85.24373
2014    7       3       0.2768312       68.18556
2014    7       4       0.2499635       62.92662
2014    7       5       0.3244169       77.20129
2014    7       6       0.3903365       89.03916
2014    7       7       0.3493504       81.41032
2014    8       0       0.2603321       64.90624
2014    8       1       0.2380676       60.53057
2014    8       2       0.241364        61.11785
2014    8       3       0.2623821       65.19436
2014    8       4       0.2189096       56.25183
2014    8       5       0.2481624       62.10796
2014    8       6       0.3478164       80.44418
2014    8       7       0.2842429       68.68495
2014    9       0       0.1632779       44.05012
2014    9       1       0.1503034       41.28541
2014    9       2       0.1627733       44.07285
2014    9       3       0.1525231       41.68369
2014    9       4       0.1577529       42.73723
2014    9       5       0.2019063       52.22585
2014    9       6       0.3072626       73.16253
2014    9       7       0.4007339       90.0541
2014    10      0       0.4190471       93.06951
2014    10      1       0.33965         79.0869
2014    10      2       0.3600605       82.22751
2014    10      3       0.3707223       83.97534
2014    10      4       0.3273229       76.56741
2014    10      5       0.4097287       90.96197
2014    10      6       0.43769         95.55209
2014    10      7       0.4657153       100.6084
2014    11      0       0.33363         77.79061
2014    11      1       0.2127339       53.9053
2014    11      2       0.21111         53.43649
2014    11      3       0.2348594       58.47517
2014    11      4       0.2272577       57.30367
2014    11      5       0.20309         52.40652
2014    11      6       0.2213223       56.4034
2014    11      7       0.2622015       64.91633
2014    12      0       0.224693        57.08315
2014    12      1       0.1784881       47.12902
2014    12      2       0.181584        47.69241
2014    12      3       0.2056732       52.75853
2014    12      4       0.2002259       51.7906
2014    12      5       0.235399        59.24988
2014    12      6       0.2831513       68.92101
2014    12      7       0.323664        76.67249
2014    13      0       0.2512212       62.36763
2014    13      1       0.2257439       57.02361
2014    13      2       0.2001127       51.61981
2014    13      3       0.1768224       46.57782
2014    13      4       0.1659016       44.18648
2014    13      5       0.1440042       39.31838
2014    13      6       0.1371993       37.93222
2014    13      7       0.1239121       34.90849
2014    14      0       0.110867        31.83024
2014    14      1       0.1000828       29.33279
2014    14      2       0.09308841      27.64698
2014    14      3       0.08536154      25.80369
2014    14      4       0.07544532      23.35253
2014    14      5       0.07744187      23.75058
2014    14      6       0.09855668      28.9214
2014    14      7       0.1648694       44.23972
2014    15      0       0.1681383       45.09974
2014    15      1       0.1633706       44.03849
2014    15      2       0.1726445       46.12235
2014    15      3       0.1762878       46.9391
2014    15      4       0.1936951       50.59088
2014    15      5       0.2629901       64.93599
2014    15      6       0.3105184       74.12115
2014    15      7       0.357421        82.93042
2014    16      0       0.4032093       90.94472
2014    16      1       0.3625236       83.85403
2014    16      2       0.3288342       77.61692
2014    16      3       0.2826945       68.77527
2014    16      4       0.2611346       64.5883
2014    16      5       0.3423972       80.14686
2014    16      6       0.4293893       95.15915
2014    16      7       0.4400573       97.2198
2014    17      0       0.3614731       83.51065
2014    17      1       0.3530677       81.944
2014    17      2       0.3573661       82.61425
2014    17      3       0.3722681       84.94012
2014    17      4       0.3493219       80.98496
2014    17      5       0.3397074       79.10102
2014    17      6       0.3566781       82.10334
2014    17      7       0.3178288       75.5173
2014    18      0       0.3001212       71.83833
2014    18      1       0.3088303       73.02958
2014    18      2       0.2816431       67.7879
2014    18      3       0.2390497       59.44423
2014    18      4       0.1887218       49.29491
2014    18      5       0.1755477       46.75032
2014    18      6       0.1968936       51.44445
2014    18      7       0.1578008       42.95999
2014    19      0       0.107645        31.55062
2014    19      1       0.0988141       29.45647
2014    19      2       0.08477368      26.13305
2014    19      3       0.07409462      23.50932
2014    19      4       0.07826448      24.54586
2014    19      5       0.1147933       33.24385
2014    19      6       0.2113759       54.614
2014    19      7       0.274712        67.46484
2014    20      0       0.3245889       76.33276
2014    20      1       0.3305077       76.98428
2014    20      2       0.2432005       60.35913
2014    20      3       0.1654328       44.28245
2014    20      4       0.1388732       38.65277
2014    20      5       0.2019627       52.38353
2014    20      6       0.2606963       64.44444
2014    20      7       0.3337126       78.34955
2014    21      0       0.2878127       69.72692
2014    21      1       0.2269709       57.80796
2014    21      2       0.1748254       46.97271
2014    21      3       0.1821817       48.55289
2014    21      4       0.2402673       60.85447
2014    21      5       0.2606435       64.87385
2014    21      6       0.2974777       71.93073
2014    21      7       0.2451933       61.2528
2014    22      0       0.08403924      25.80741
2014    22      1       0.04339292      15.77072
2014    22      2       0.0360815       13.8826
2014    22      3       0.0390594       14.62587
2014    22      4       0.06360913      20.72301
2014    22      5       0.1792956       46.71188
2014    22      6       0.3393975       78.63848
2014    22      7       0.3731577       85.42328
2014    23      0       0.3914454       88.39723
2014    23      1       0.3444115       80.05141
2014    23      2       0.2824855       68.7595
2014    23      3       0.2713499       66.2034
2014    23      4       0.3163262       74.38343
2014    23      5       0.3147214       74.24829
2014    23      6       0.2987868       71.84343
2014    23      7       0.3046582       72.78858
2014    24      0       0.1498436       40.92577
2014    24      1       0.08177093      25.1485
2014    24      2       0.04785954      16.89016
2014    24      3       0.03214732      12.77577
2014    24      4       0.02579611      11.05383
2014    24      5       0.03634945      13.94189
2014    24      6       0.05539438      18.81728
2014    24      7       0.06018827      20.01465
2014    25      0       0.02917632      12.0135
2014    25      1       0.02167905      9.924142
2014    25      2       0.02661285      11.21657
2014    25      3       0.03347547      12.9787
2014    25      4       0.03096734      12.35095
2014    25      5       0.03059656      12.29398
2014    25      6       0.04167164      15.18725
2014    25      7       0.04795928      16.82239
2014    26      0       0.03840484      14.32551
2014    26      1       0.03506831      13.44059
2014    26      2       0.03113621      12.41976
2014    26      3       0.03010105      12.12833
2014    26      4       0.02755159      11.40648
2014    26      5       0.03918674      14.56261
2014    26      6       0.06349664      20.73557
2014    26      7       0.06486803      21.18887
2014    27      0       0.0445901       16.04613
2014    27      1       0.03427273      13.35542
2014    27      2       0.02546067      10.8949
2014    27      3       0.02672138      11.19311
2014    27      4       0.02768664      11.51676
2014    27      5       0.06971028      22.42752
2014    27      6       0.1050436       30.92501
2014    27      7       0.1639582       44.35949
2014    28      0       0.1213469       34.86519
2014    28      1       0.1644172       44.5109
2014    28      2       0.3184369       75.9355
2014    28      3       0.4318983       95.22121
2014    28      4       0.3421772       79.52821
2014    28      5       0.3901271       88.36485
2014    28      6       0.3819592       87.51803
2014    28      7       0.3766162       86.24345
2014    29      0       0.3806895       86.53865
2014    29      1       0.3981974       89.67101
2014    29      2       0.3856325       87.30705
2014    29      3       0.4063895       90.888
2014    29      4       0.3243974       76.61113
2014    29      5       0.3696434       84.75005
2014    29      6       0.3961118       89.24252
2014    29      7       0.4269399       94.74321
2014    30      0       0.4189576       93.71501
2014    30      1       0.3717331       85.68835
2014    30      2       0.3162023       75.3403
2014    30      3       0.2430012       60.86521
2014    30      4       0.2081329       53.64838
2014    30      5       0.2595882       64.25566
2014    30      6       0.3494251       81.47557
2014    30      7       0.4373387       96.91416
2015    1       0       0.05898865      19.78313
2015    1       1       0.04219025      15.4493
2015    1       2       0.03034438      12.28568
2015    1       3       0.02825236      11.69013
2015    1       4       0.02767006      11.55595
2015    1       5       0.03304164      13.00088
2015    1       6       0.03464284      13.46522
2015    1       7       0.02965983      12.12311
2015    2       0       0.02982814      12.1627
2015    2       1       0.03011293      12.23269
2015    2       2       0.03005434      12.2079
2015    2       3       0.03187439      12.67381
2015    2       4       0.03085121      12.41649
2015    2       5       0.03275752      12.94214
2015    2       6       0.04867265      17.10394
2015    2       7       0.04869282      17.12541
2015    3       0       0.04551004      16.3096
2015    3       1       0.03560123      13.75313
2015    3       2       0.03320628      13.10303
2015    3       3       0.04087367      15.10889
2015    3       4       0.03357196      13.18493
2015    3       5       0.02641245      11.24179
2015    3       6       0.03687559      14.05798
2015    3       7       0.04596536      16.44763
2015    4       0       0.04073246      15.07399
2015    4       1       0.04559111      16.32533
2015    4       2       0.04128923      15.21156
2015    4       3       0.03091859      12.44402
2015    4       4       0.02907048      11.93154
2015    4       5       0.06303973      20.63448
2015    4       6       0.1116686       31.93065
2015    4       7       0.104643        30.30234
2015    5       0       0.09806         28.66488
2015    5       1       0.1411202       38.72624
2015    5       2       0.1626221       43.49566
2015    5       3       0.1624108       43.40623
2015    5       4       0.2123005       54.21249
2015    5       5       0.2964788       70.98196
2015    5       6       0.3943863       88.58281
2015    5       7       0.3599643       82.34215
2015    6       0       0.3337848       77.58261
2015    6       1       0.3658034       83.14786
2015    6       2       0.3966813       88.70231
2015    6       3       0.3707024       84.82388
2015    6       4       0.3448322       79.9406
2015    6       5       0.3568503       82.12568
2015    6       6       0.4141888       91.75871
2015    6       7       0.3631334       83.61639
2015    7       0       0.2432405       61.24556
2015    7       1       0.2401701       60.71353
2015    7       2       0.2566254       64.09404
2015    7       3       0.3101651       74.518
2015    7       4       0.2574277       64.41564
2015    7       5       0.3000881       72.73384
2015    7       6       0.3212239       76.7283
2015    7       7       0.344516        80.95027
2015    8       0       0.2819822       69.14211
2015    8       1       0.2607571       64.84066
2015    8       2       0.2683336       66.2991
2015    8       3       0.2375476       60.05385
2015    8       4       0.2653324       65.62475
2015    8       5       0.3493373       81.44205
2015    8       6       0.3660252       84.6369
2015    8       7       0.3624317       84.15793
2015    9       0       0.3692193       84.98664
2015    9       1       0.3592145       83.04639
2015    9       2       0.4159059       92.26547
2015    9       3       0.3406644       79.07025
2015    9       4       0.2940077       70.65082
2015    9       5       0.3797466       86.33978
2015    9       6       0.3813718       86.73992
2015    9       7       0.4323345       96.07256
2015    10      0       0.52116         110.4025
2015    10      1       0.4374895       96.7895
2015    10      2       0.3355628       78.87889
2015    10      3       0.3160409       75.13332
2015    10      4       0.3212404       76.19031
2015    10      5       0.3962885       89.64207
2015    10      6       0.4849758       104.0911
2015    10      7       0.4723329       102.5416
2015    11      0       0.4968739       105.9247
2015    11      1       0.467884        101.0272
2015    11      2       0.4395166       96.57395
2015    11      3       0.4216557       93.53344
2015    11      4       0.3967126       89.73219
2015    11      5       0.4376202       96.15193
2015    11      6       0.4431384       97.11775
2015    11      7       0.4293989       95.56558
2015    12      0       0.4412273       97.73088
2015    12      1       0.4107804       92.56713
2015    12      2       0.3970669       90.01809
2015    12      3       0.3782353       86.42604
2015    12      4       0.4024706       90.28119
2015    12      5       0.4139099       92.11385
2015    12      6       0.4330481       95.81044
2015    12      7       0.5273878       111.3346
2015    13      0       0.5037418       106.8874
2015    13      1       0.4519475       98.51023
2015    13      2       0.4451647       97.38433
2015    13      3       0.4106868       91.5958
2015    13      4       0.3616756       83.16653
2015    13      5       0.3432284       80.08984
2015    13      6       0.4068712       91.53336
2015    13      7       0.4929749       106.0577
2015    14      0       0.4716351       102.206
2015    14      1       0.4546701       98.98142
2015    14      2       0.4507294       98.10025
2015    14      3       0.4273331       94.62977
2015    14      4       0.3879308       88.18262
2015    14      5       0.4191423       93.30397
2015    14      6       0.4537816       98.76109
2015    14      7       0.4637083       100.5273
2015    15      0       0.4296982       95.05014
2015    15      1       0.372601        85.55089
2015    15      2       0.3657804       83.99898
2015    15      3       0.3341112       78.07212
2015    15      4       0.2996613       71.66015
2015    15      5       0.4177469       92.82378
2015    15      6       0.3847722       87.94305
2015    15      7       0.3693004       85.37115
2015    16      0       0.2796604       68.20362
2015    16      1       0.221455        56.0639
2015    16      2       0.2203116       55.87465
2015    16      3       0.2576717       63.82096
2015    16      4       0.3122079       74.34998
2015    16      5       0.4090562       91.69465
2015    16      6       0.3837149       87.75005
2015    16      7       0.2713805       67.02245
2015    17      0       0.1406553       39.29997
2015    17      1       0.07409194      23.48136
2015    17      2       0.07016368      22.43576
2015    17      3       0.08696663      26.49158
2015    17      4       0.09674553      28.84485
2015    17      5       0.1090133       31.82093
2015    17      6       0.1458588       40.10427
2015    17      7       0.1633825       44.13743
2015    18      0       0.1355103       37.92747
2015    18      1       0.114566        32.98967
2015    18      2       0.0912257       27.54728
2015    18      3       0.07638563      23.90637
2015    18      4       0.07550676      23.57714
2015    18      5       0.1187235       33.97384
2015    18      6       0.1733312       46.36713
2015    18      7       0.1947272       51.14074
2015    19      0       0.1448387       40.27357
2015    19      1       0.1226393       35.16008
2015    19      2       0.09247391      27.88217
2015    19      3       0.06008399      19.74456
2015    19      4       0.05539001      18.49314
2015    19      5       0.05985328      19.6035
2015    19      6       0.07236205      22.81366
2015    19      7       0.1027872       30.27092
2015    20      0       0.1157973       33.4499
2015    20      1       0.1165898       33.83805
2015    20      2       0.1061424       31.39931
2015    20      3       0.1139468       33.28227
2015    20      4       0.1719595       46.51829
2015    20      5       0.3439222       81.24201
2015    20      6       0.4953715       107.0956
2015    20      7       0.5136323       109.6031
2015    21      0       0.4410387       97.39463
2015    21      1       0.3223333       76.8495
2015    21      2       0.3727523       86.10104
2015    21      3       0.4621114       101.1899
2015    21      4       0.4114895       92.17795
2015    21      5       0.3850969       87.29693
2015    21      6       0.3724155       85.72981
2015    21      7       0.3797533       87.26248
2015    22      0       0.3489555       81.81361
2015    22      1       0.3010741       72.87054
2015    22      2       0.2495462       62.6211
2015    22      3       0.2948229       71.25822
2015    22      4       0.2779518       67.86257
2015    22      5       0.3292257       77.88346
2015    22      6       0.3785132       86.73461
2015    22      7       0.426225        95.05203
2015    23      0       0.3498901       81.27626
2015    23      1       0.310157        73.73805
2015    23      2       0.2311082       58.63492
2015    23      3       0.143675        39.70879
2015    23      4       0.1404793       38.8832
2015    23      5       0.1904536       50.05823
2015    23      6       0.3787332       86.55144
2015    23      7       0.4327778       95.55974
2015    24      0       0.2970958       71.62391
2015    24      1       0.2649248       64.99328
2015    24      2       0.2302891       57.90307
2015    24      3       0.2037357       52.68931
2015    24      4       0.1714454       45.7817
2015    24      5       0.1894614       49.82139
2015    24      6       0.2984699       71.94699
2015    24      7       0.3530738       81.91405
2015    25      0       0.27065         66.54869
2015    25      1       0.1981031       51.77144
2015    25      2       0.1677007       45.01952
2015    25      3       0.1600284       43.22817
2015    25      4       0.1700946       45.41439
2015    25      5       0.2922532       70.63792
2015    25      6       0.3369839       79.11622
2015    25      7       0.3084506       73.8635
2015    26      0       0.2585272       64.25279
2015    26      1       0.1802909       47.87089
2015    26      2       0.1578065       42.65757
2015    26      3       0.1512928       41.0315
2015    26      4       0.1379918       38.11759
2015    26      5       0.1545211       41.94388
2015    26      6       0.2499821       62.28188
2015    26      7       0.3304775       77.76479
2015    27      0       0.335082        78.67099
2015    27      1       0.2487047       62.3761
2015    27      2       0.2050881       53.18446
2015    27      3       0.1839499       48.54834
2015    27      4       0.1794738       47.66416
2015    27      5       0.1893414       50.08353
2015    27      6       0.2408086       61.10102
2015    27      7       0.2979213       72.67451
2015    28      0       0.1898218       50.57647
2015    28      1       0.116395        33.95575
2015    28      2       0.09406493      28.47773
2015    28      3       0.07541631      23.98863
2015    28      4       0.1028637       30.6906
2015    28      5       0.19899         52.33289
2015    28      6       0.261291        65.35934
2015    28      7       0.3373657       80.09668
2015    29      0       0.1967602       51.62928
2015    29      1       0.05887727      19.78903
2015    29      2       0.04258107      15.60519
2015    29      3       0.04020975      14.96196
2015    29      4       0.0352228       13.65017
2015    29      5       0.05087519      17.76473
2015    29      6       0.1020502       30.30375
2015    29      7       0.1030864       30.63303
2015    30      0       0.05900383      19.55113
2015    30      1       0.05178536      17.836
2015    30      2       0.04844563      17.07614
2015    30      3       0.0509282       17.71684
2015    30      4       0.05032175      17.4511
2015    30      5       0.1312097       36.66809
2015    30      6       0.2264277       57.21849
2015    30      7       0.2423178       60.21551
2016    1       0       0.07086142      22.67517
2016    1       1       0.0413405       15.17546
2016    1       2       0.0703164       22.62121
2016    1       3       0.07971482      24.99498
2016    1       4       0.07442557      23.61031
2016    1       5       0.1777056       47.26038
2016    1       6       0.1889659       49.8262
2016    1       7       0.1354214       38.07838
2016    2       0       0.09220916      28.00512
2016    2       1       0.07598953      24.10609
2016    2       2       0.08766453      26.98537
2016    2       3       0.09399957      28.55788
2016    2       4       0.1005609       30.1355
2016    2       5       0.2146954       55.49652
2016    2       6       0.3013104       73.21288
2016    2       7       0.2487784       62.63018
2016    3       0       0.06484981      21.14471
2016    3       1       0.02924663      11.99041
2016    3       2       0.0400151       14.8765
2016    3       3       0.06000135      19.99901
2016    3       4       0.06949295      22.41587
2016    3       5       0.1312566       37.03811
2016    3       6       0.227311        57.69629
2016    3       7       0.3094682       74.36858
2016    4       0       0.3124237       74.89638
2016    4       1       0.2437786       61.48594
2016    4       2       0.2183832       56.20878
2016    4       3       0.2071442       53.7082
2016    4       4       0.2174063       55.7051
2016    4       5       0.2984401       71.70092
2016    4       6       0.3499815       81.30361
2016    4       7       0.3963416       90.00126
2016    5       0       0.4791145       103.4648
2016    5       1       0.426832        94.59994
2016    5       2       0.3876711       87.96574
2016    5       3       0.3221587       76.10846
2016    5       4       0.2730644       66.63239
2016    5       5       0.2963668       71.32332
2016    5       6       0.3524713       81.76099
2016    5       7       0.3564923       83.05742
2016    6       0       0.3464293       81.32654
2016    6       1       0.3353015       79.19757
2016    6       2       0.284849        69.53143
2016    6       3       0.2699277       66.48322
2016    6       4       0.2597991       64.60735
2016    6       5       0.2780789       68.33042
2016    6       6       0.2774646       68.25763
2016    6       7       0.3209684       76.72786
2016    7       0       0.3124328       75.09275
2016    7       1       0.2935003       71.35402
2016    7       2       0.2586948       64.39793
2016    7       3       0.217293        55.87466
2016    7       4       0.2025569       52.76522
2016    7       5       0.2607837       64.53511
2016    7       6       0.2817091       68.77655
2016    7       7       0.359363        83.24433
2016    8       0       0.3784804       85.93167
2016    8       1       0.3685849       83.98354
2016    8       2       0.3714535       84.41792
2016    8       3       0.3857649       86.7728
2016    8       4       0.3360628       77.97488
2016    8       5       0.3561514       82.12917
2016    8       6       0.3798102       86.66242
2016    8       7       0.299721        71.66346
2016    9       0       0.1319235       36.36261
2016    9       1       0.1051064       30.27024
2016    9       2       0.08903794      26.51137
2016    9       3       0.08569925      25.6519
2016    9       4       0.07229364      22.42365
2016    9       5       0.09614109      28.33176
2016    9       6       0.1689925       44.614
2016    9       7       0.1424554       38.67335
2016    10      0       0.07292082      22.38031
2016    10      1       0.07124003      21.86331
2016    10      2       0.06278764      19.90967
2016    10      3       0.05898491      19.01243
2016    10      4       0.05497761      18.08161
2016    10      5       0.0748348       23.2457
2016    10      6       0.08605926      26.2245
2016    10      7       0.06535172      21.34671
2016    11      0       0.06625675      21.52518
2016    11      1       0.066464        21.58635
2016    11      2       0.05821417      19.43043
2016    11      3       0.04498407      16.15552
2016    11      4       0.03818578      14.36245
2016    11      5       0.03866891      14.50181
2016    11      6       0.04405235      15.93166
2016    11      7       0.03888371      14.61799
2016    12      0       0.02939663      12.02571
2016    12      1       0.02903195      11.94902
2016    12      2       0.02784461      11.64518
2016    12      3       0.02929739      12.04834
2016    12      4       0.03176218      12.70675
2016    12      5       0.03833139      14.47417
2016    12      6       0.05147602      17.92711
2016    12      7       0.04346385      15.9476
2016    13      0       0.03067837      12.47838
2016    13      1       0.04762883      16.95739
2016    13      2       0.09730525      29.35163
2016    13      3       0.09283333      28.31284
2016    13      4       0.07038186      22.74831
2016    13      5       0.1390153       38.82671
2016    13      6       0.2192213       56.27879
2016    13      7       0.1060091       31.10661
2016    14      0       0.02481956      10.80251
2016    14      1       0.01990825      9.445645
2016    14      2       0.02105746      9.767578
2016    14      3       0.02416841      10.6028
2016    14      4       0.02465359      10.73849
2016    14      5       0.02743029      11.50183
2016    14      6       0.03949005      14.75732
2016    14      7       0.05469474      18.74899
2016    15      0       0.04147846      15.2988
2016    15      1       0.03808729      14.3846
2016    15      2       0.03431733      13.36204
2016    15      3       0.03737089      14.16412
2016    15      4       0.05200527      17.9862
2016    15      5       0.09261167      27.93507
2016    15      6       0.1744537       46.50898
2016    15      7       0.1986221       51.4941
2016    16      0       0.1699507       44.94373
2016    16      1       0.140872        38.24343
2016    16      2       0.1508573       40.39942
2016    16      3       0.1444375       39.49489
2016    16      4       0.1312          36.88225
2016    16      5       0.1333163       37.3926
2016    16      6       0.1831755       48.33686
2016    16      7       0.1833461       48.30622
2016    17      0       0.1637473       44.0705
2016    17      1       0.2024896       51.9736
2016    17      2       0.2510285       62.16671
2016    17      3       0.1965132       51.17419
2016    17      4       0.195227        50.65116
2016    17      5       0.2755288       66.93781
2016    17      6       0.3660852       84.13952
2016    17      7       0.4743337       102.0347
2016    18      0       0.455023        98.80887
2016    18      1       0.4379004       96.21474
2016    18      2       0.5111159       107.987
2016    18      3       0.354965        82.3088
2016    18      4       0.1935485       50.41793
2016    18      5       0.1791973       46.50691
2016    18      6       0.1959343       49.97185
2016    18      7       0.2343918       57.8572
2016    19      0       0.2501425       61.46362
2016    19      1       0.2443043       60.54369
2016    19      2       0.1848781       48.38677
2016    19      3       0.1162166       33.07958
2016    19      4       0.08473524      25.60703
2016    19      5       0.1003158       29.34033
2016    19      6       0.1153988       32.85539
2016    19      7       0.09242114      27.53608
2016    20      0       0.06905432      21.7606
2016    20      1       0.04367901      15.51237
2016    20      2       0.03506819      13.35709
2016    20      3       0.03000048      12.11352
2016    20      4       0.02700969      11.33587
2016    20      5       0.02366673      10.49583
2016    20      6       0.02850822      11.85294
2016    20      7       0.03104139      12.57023
2016    21      0       0.02842807      11.8047
2016    21      1       0.03153097      12.64616
2016    21      2       0.03683371      14.07315
2016    21      3       0.03042334      12.3263
2016    21      4       0.03975111      14.83434
2016    21      5       0.10504         31.06127
2016    21      6       0.1514265       41.73424
2016    21      7       0.1182235       34.0959
2016    22      0       0.04448959      16.1112
2016    22      1       0.02989448      12.12948
2016    22      2       0.03553907      13.62484
2016    22      3       0.05233109      17.99343
2016    22      4       0.0625306       20.53955
2016    22      5       0.1018169       30.19113
2016    22      6       0.1596599       43.28434
2016    22      7       0.1094035       31.69389
2016    23      0       0.05747681      18.84307
2016    23      1       0.0500333       17.03587
2016    23      2       0.04808641      16.55788
2016    23      3       0.04837515      16.84838
2016    23      4       0.04399239      15.84059
2016    23      5       0.06695403      21.6506
2016    23      6       0.07378944      23.3207
2016    23      7       0.06333335      20.7999
2016    24      0       0.03922123      14.72248
2016    24      1       0.03725553      14.19008
2016    24      2       0.03757417      14.22949
2016    24      3       0.03713488      14.11941
2016    24      4       0.0352053       13.61893
2016    24      5       0.04307267      15.70461
2016    24      6       0.06390864      20.91396
2016    24      7       0.07324291      23.23805
2016    25      0       0.05762939      19.35709
2016    25      1       0.06938204      22.25389
2016    25      2       0.08293527      25.66075
2016    25      3       0.1243949       35.44696
2016    25      4       0.1329408       37.45003
2016    25      5       0.1746013       46.67448
2016    25      6       0.240212        60.19985
2016    25      7       0.2640808       65.3256
2016    26      0       0.2434705       61.11929
2016    26      1       0.2175429       55.70234
2016    26      2       0.2277739       57.57791
2016    26      3       0.2091845       53.73352
2016    26      4       0.2012465       52.16014
2016    26      5       0.2710286       66.24082
2016    26      6       0.278742        68.04707
2016    26      7       0.2774634       67.79896
2016    27      0       0.2132847       54.9244
2016    27      1       0.1908994       49.88298
2016    27      2       0.2288996       57.30372
2016    27      3       0.2778752       66.83764
2016    27      4       0.2349017       58.95056
2016    27      5       0.2951279       70.53588
2016    27      6       0.3439524       79.37349
2016    27      7       0.331399        77.11266
2016    28      0       0.1703927       45.33445
2016    28      1       0.09811727      29.13959
2016    28      2       0.08954392      27.14509
2016    28      3       0.1135919       32.8194
2016    28      4       0.1400639       38.8123
2016    28      5       0.1623805       43.80191
2016    28      6       0.1869236       49.1765
2016    28      7       0.221256        56.25392
2016    29      0       0.149388        40.03586
2016    29      1       0.09435912      27.46028
2016    29      2       0.07469462      22.90741
2016    29      3       0.05136841      17.37245
2016    29      4       0.05024148      17.21195
2016    29      5       0.1728296       45.63748
2016    29      6       0.262649        63.73089
2016    29      7       0.2870295       68.43699
2016    30      0       0.180914        47.02113
2016    30      1       0.1484681       40.30005
2016    30      2       0.1878245       48.52568
2016    30      3       0.2325016       58.14602
2016    30      4       0.2351162       58.77282
2016    30      5       0.2633359       64.35086
2016    30      6       0.3895887       87.26211
2016    30      7       0.3497026       80.0741
2017    1       0       0.1162927       33.4169
2017    1       1       0.1297259       36.47165
2017    1       2       0.146037        40.18477
2017    1       3       0.2135217       54.47925
2017    1       4       0.3293224       77.1561
2017    1       5       0.3240991       76.34109
2017    1       6       0.3018          71.85202
2017    1       7       0.1602149       42.54766
2017    2       0       0.1012293       29.25778
2017    2       1       0.08488896      25.23499
2017    2       2       0.0816894       24.42861
2017    2       3       0.0811475       24.17148
2017    2       4       0.08670992      25.39331
2017    2       5       0.1012475       28.9321
2017    2       6       0.1693059       44.59293
2017    2       7       0.2333406       58.213
2017    3       0       0.2015756       51.765
2017    3       1       0.2158181       54.88051
2017    3       2       0.3307135       77.77008
2017    3       3       0.3950167       88.92526
2017    3       4       0.3081213       72.92732
2017    3       5       0.3081199       72.78171
2017    3       6       0.2928404       69.9694
2017    3       7       0.2883021       69.31253
2017    4       0       0.2535481       62.65627
2017    4       1       0.1952725       50.65031
2017    4       2       0.1351557       37.42088
2017    4       3       0.1237132       34.81077
2017    4       4       0.1119899       32.15905
2017    4       5       0.1777361       46.8767
2017    4       6       0.2327485       58.1588
2017    4       7       0.2738393       67.00756
2017    5       0       0.2449913       60.83758
2017    5       1       0.175889        46.40682
2017    5       2       0.1417059       39.13742
2017    5       3       0.119326        34.03527
2017    5       4       0.1384312       38.66018
2017    5       5       0.2693373       66.14512
2017    5       6       0.3954948       89.55684
2017    5       7       0.4870044       105.0113
2017    6       0       0.4344146       96.51155
2017    6       1       0.3764089       86.39933
2017    6       2       0.3507938       81.77809
2017    6       3       0.348957        81.36479
2017    6       4       0.3730241       84.98271
2017    6       5       0.4339977       95.26227
2017    6       6       0.4464821       97.62091
2017    6       7       0.4005767       90.87013
2017    7       0       0.3409951       80.26515
2017    7       1       0.3455877       81.01892
2017    7       2       0.327369        77.52367
2017    7       3       0.3025134       72.6123
2017    7       4       0.3137459       74.25849
2017    7       5       0.3389188       78.8576
2017    7       6       0.3325156       78.30216
2017    7       7       0.3294748       78.07634
2017    8       0       0.2771084       68.11562
2017    8       1       0.2003119       52.29646
2017    8       2       0.1845203       48.92141
2017    8       3       0.1715722       46.0375
2017    8       4       0.1552314       42.38325
2017    8       5       0.1983771       51.78742
2017    8       6       0.2238357       57.16938
2017    8       7       0.2408265       60.66582
2017    9       0       0.238463        60.18263
2017    9       1       0.2281717       58.18698
2017    9       2       0.2255513       57.54416
2017    9       3       0.2395634       60.30384
2017    9       4       0.2422883       60.71622
2017    9       5       0.3470798       80.55494
2017    9       6       0.3799825       86.8847
2017    9       7       0.457892        99.33808
2017    10      0       0.3803792       86.09316
2017    10      1       0.3522165       81.22157
2017    10      2       0.2879196       69.21952
2017    10      3       0.2437344       60.7296
2017    10      4       0.2335636       58.7652
2017    10      5       0.3268489       76.84405
2017    10      6       0.3909977       88.43233
2017    10      7       0.4420638       97.30273
2017    11      0       0.4548272       99.65988
2017    11      1       0.3785838       86.20478
2017    11      2       0.323299        75.90808
2017    11      3       0.2951331       70.72102
2017    11      4       0.2642427       64.7902
2017    11      5       0.3684322       84.24994
2017    11      6       0.3865947       87.429
2017    11      7       0.4028887       90.72447
2017    12      0       0.3857133       87.37732
2017    12      1       0.3904256       88.06877
2017    12      2       0.3735429       84.88755
2017    12      3       0.3864455       87.23617
2017    12      4       0.3803953       86.57598
2017    12      5       0.4820711       103.1595
2017    12      6       0.4595808       99.67098
2017    12      7       0.4489135       97.82636
2017    13      0       0.3817978       86.1025
2017    13      1       0.2701913       65.8609
2017    13      2       0.1929181       50.18054
2017    13      3       0.1719704       45.73994
2017    13      4       0.1487086       40.54703
2017    13      5       0.1706341       45.25379
2017    13      6       0.2701099       65.30536
2017    13      7       0.2708769       65.63143
2017    14      0       0.20454         52.25936
2017    14      1       0.1817314       47.25221
2017    14      2       0.1776116       46.44291
2017    14      3       0.16719         44.41833
2017    14      4       0.1520932       41.23865
2017    14      5       0.190896        49.83129
2017    14      6       0.2669167       65.69479
2017    14      7       0.2997431       72.11576
2017    15      0       0.2595837       64.31958
2017    15      1       0.2124241       54.6369
2017    15      2       0.2423895       60.7507
2017    15      3       0.3005878       72.11377
2017    15      4       0.3127846       74.41303
2017    15      5       0.3635085       83.36055
2017    15      6       0.3834908       87.06979
2017    15      7       0.377416        86.06866
2017    16      0       0.3586748       82.53039
2017    16      1       0.2474718       61.67476
2017    16      2       0.2481615       61.95496
2017    16      3       0.2555735       63.43685
2017    16      4       0.228233        57.79994
2017    16      5       0.2892665       70.1313
2017    16      6       0.3682834       84.97711
2017    16      7       0.4670624       101.4873
2017    17      0       0.4156966       92.22309
2017    17      1       0.3234047       75.79092
2017    17      2       0.2864538       68.86276
2017    17      3       0.249156        61.76197
2017    17      4       0.2189917       55.72773
2017    17      5       0.2433696       60.77128
2017    17      6       0.2880456       70.19239
2017    17      7       0.3471756       81.67509
2017    18      0       0.3441572       81.03662
2017    18      1       0.3332895       78.92735
2017    18      2       0.3097881       74.26865
2017    18      3       0.2778744       68.18162
2017    18      4       0.2249598       57.36782
2017    18      5       0.2418628       60.43361
2017    18      6       0.2485229       61.62781
2017    18      7       0.1690152       44.78581
2017    19      0       0.1068946       30.52908
2017    19      1       0.08964064      26.53402
2017    19      2       0.1146976       32.52506
2017    19      3       0.1529707       41.21018
2017    19      4       0.1783041       46.64888
2017    19      5       0.2593288       63.44751
2017    19      6       0.3284238       76.56118
2017    19      7       0.3178465       74.71698
2017    20      0       0.2466895       60.86914
2017    20      1       0.223765        56.28263
2017    20      2       0.2104837       53.77135
2017    20      3       0.1959353       50.98351
2017    20      4       0.1760561       46.7748
2017    20      5       0.250197        62.19366
2017    20      6       0.2820791       68.47367
2017    20      7       0.2425277       60.68652
2017    21      0       0.1708866       45.69718
2017    21      1       0.08478782      25.76293
2017    21      2       0.05242585      17.75193
2017    21      3       0.05680978      18.98033
2017    21      4       0.1043106       30.62724
2017    21      5       0.1381042       38.48525
2017    21      6       0.1929591       50.55637
2017    21      7       0.2843572       69.30747
2017    22      0       0.3168537       75.40559
2017    22      1       0.2988575       71.83632
2017    22      2       0.2964405       71.14168
2017    22      3       0.2463128       61.14174
2017    22      4       0.1558944       42.08048
2017    22      5       0.1491553       40.63466
2017    22      6       0.2196757       55.72498
2017    22      7       0.2432837       60.65932
2017    23      0       0.2023134       51.75312
2017    23      1       0.1841376       47.97946
2017    23      2       0.1561947       41.95698
2017    23      3       0.1305693       36.14177
2017    23      4       0.1375447       37.61484
2017    23      5       0.1701154       44.82049
2017    23      6       0.2498186       61.55125
2017    23      7       0.252976        62.30242
2017    24      0       0.2410618       59.83285
2017    24      1       0.2171375       54.8828
2017    24      2       0.2006575       51.18326
2017    24      3       0.1956701       50.09248
2017    24      4       0.258601        63.11841
2017    24      5       0.3814259       86.31799
2017    24      6       0.4530304       98.41954
2017    24      7       0.4522316       98.12171
2017    25      0       0.3124926       74.35307
2017    25      1       0.2184029       55.901
2017    25      2       0.2025505       52.33446
2017    25      3       0.2231709       56.38133
2017    25      4       0.2271468       57.2297
2017    25      5       0.2895518       69.46957
2017    25      6       0.3770864       85.42481
2017    25      7       0.331464        77.26957
2017    26      0       0.2683319       65.5736
2017    26      1       0.2683003       65.77233
2017    26      2       0.2648605       65.06822
2017    26      3       0.2489985       61.63138
2017    26      4       0.2410618       59.81143
2017    26      5       0.2713738       65.98173
2017    26      6       0.3704261       84.75863
2017    26      7       0.4318047       95.83387
2017    27      0       0.5067983       107.7389
2017    27      1       0.4757776       102.4267
2017    27      2       0.4888852       104.4306
2017    27      3       0.4365116       95.93794
2017    27      4       0.4859279       104.2647
2017    27      5       0.4412479       96.82253
2017    27      6       0.4283995       94.89029
2017    27      7       0.4683667       101.767
2017    28      0       0.4376603       96.53411
2017    28      1       0.4522781       99.4679
2017    28      2       0.4731756       102.5872
2017    28      3       0.417889        93.48898
2017    28      4       0.3819621       86.83835
2017    28      5       0.4615855       100.3528
2017    28      6       0.500253        106.6135
2017    28      7       0.4972832       106.0783
2017    29      0       0.431308        95.28216
2017    29      1       0.3727777       85.34891
2017    29      2       0.3919558       88.50686
2017    29      3       0.4412125       96.92939
2017    29      4       0.4484486       98.13566
2017    29      5       0.4410698       97.00826
2017    29      6       0.4470173       98.12541
2017    29      7       0.4617213       101.071
2017    30      0       0.4294859       95.74611
2017    30      1       0.4135155       92.53209
2017    30      2       0.4040726       90.78366
2017    30      3       0.3806367       86.67206
2017    30      4       0.3194501       75.82727
2017    30      5       0.3203867       76.11879
2017    30      6       0.3597888       83.4492
2017    30      7       0.3255345       76.81068
