####################################################################################################
# Month: 12Dec                                                                                     #
# Station: SAN                                                                                     #
# Frequency: 345 GHz                                                                               #
# Columns are: year    day     tau     Tb (K)                                                      #
####################################################################################################
2009    1       0.33715696      77.605635
2009    2       0.6032559       122.946575
2009    3       0.23518144      60.76903625
2009    4       0.2083283       55.04788
2009    5       0.37255856      81.260725
2009    6       0.1779918       46.06828
2009    7       1.25122214      184.6065125
2009    8       0.24827084      54.53129
2009    9       0.51143405      107.30073375
2009    10      0.82156491      145.7809775
2009    11      0.78172369      137.10701125
2009    12      0.6915794       131.57917375
2009    13      0.70842805      129.9679625
2009    14      0.25954747      63.81324875
2009    15      0.41521405      90.18819375
2009    16      1.00155396      161.18361625
2009    17      0.33662912      80.613825
2009    18      0.47562651      102.89745
2009    19      0.31164776      73.97167
2009    20      0.43110516      94.4561775
2009    21      0.62492122      122.15123375
2009    22      0.6592317       117.6283475
2009    23      0.19267901      50.9229125
2009    24      0.26643225      67.33523125
2009    25      0.33178858      78.79831125
2009    26      0.46840544      100.80398375
2009    27      0.49170407      104.33756125
2009    28      0.59416759      117.95367125
2009    29      0.79289305      143.94925
2009    30      1.00515305      162.82024625
2009    31      0.99230201      169.6130625
2010    1       0.76526829      143.9738875
2010    2       1.10294064      179.5839125
2010    3       0.79842862      146.2570375
2010    4       1.06573058      163.44607625
2010    5       1.09865448      175.878275
2010    6       1.05811659      149.89727
2010    7       0.20024438      53.89478875
2010    8       0.31781771      74.8715375
2010    9       1.11347599      179.517375
2010    10      1.01757014      172.7774
2010    11      1.04674489      179.2703625
2010    12      0.30865006      75.29239375
2010    13      0.20490865      55.18729375
2010    14      0.35232769      81.6093325
2010    15      1.07749999      177.480825
2010    16      1.46090984      201.9761125
2010    17      1.34033288      189.366375
2010    18      2.14723638      237.961925
2010    19      1.05074709      170.4288625
2010    20      1.3057362       191.7017
2010    21      1.98390775      229.4328375
2010    22      1.819089        222.5439
2010    23      0.6364916       121.74410375
2010    24      0.44008202      97.3180275
2010    25      0.32879888      78.547325
2010    26      0.61458904      109.805895
2010    27      0.58268823      116.485725
2010    28      0.70765835      134.0487
2010    29      1.61435732      206.2439375
2010    30      0.26697415      64.553675
2010    31      0.26274279      64.50014875
2011    1       0.39349156      84.3965
2011    2       0.66438124      128.6031125
2011    3       0.33943958      77.30936375
2011    4       0.3006471       71.77681
2011    5       0.27445259      67.01918
2011    6       0.15044565      42.28179125
2011    7       0.11418998      34.1532625
2011    8       0.1840771       49.510275
2011    9       0.2305644       59.5861825
2011    10      0.2593619       64.4828725
2011    11      0.22565874      57.21452375
2011    12      0.59060449      114.05725375
2011    13      0.82086306      145.728325
2011    14      0.35661852      80.91376375
2011    15      0.34860479      80.34389625
2011    16      0.42948736      91.8153325
2011    17      0.63541698      124.26886875
2011    18      0.64931216      124.46385125
2011    19      0.68821273      134.019275
2011    20      0.76586998      142.617175
2011    21      0.49704458      104.51701875
2011    22      0.32205815      75.79441125
2011    23      0.13519202      38.6025975
2011    24      0.27619804      68.08200375
2011    25      0.25110646      63.5870575
2011    26      0.23742476      61.0471525
2011    27      0.2099945       54.86547875
2011    28      0.26440562      64.83658
2011    29      0.58527405      114.6250425
2011    30      0.57703022      120.1706625
2011    31      0.40405904      93.11585125
2012    1       0.60647141      123.04943125
2012    2       0.97150984      162.48580375
2012    3       0.81413821      144.1372125
2012    4       0.9917564       166.8683
2012    5       0.58264802      122.083675
2012    6       0.87481409      157.9604375
2012    7       0.36916259      86.7820975
2012    8       0.33228781      78.1687275
2012    9       0.60212998      123.6878375
2012    10      0.72535664      140.227725
2012    11      0.38810238      89.79388625
2012    12      0.42974738      95.9044025
2012    13      0.91524656      156.000775
2012    14      0.47623962      98.9652675
2012    15      0.6077184       111.2601375
2012    16      0.67114699      124.45865875
2012    17      0.5747729       118.364865
2012    18      0.51572393      100.548465
2012    19      0.18312342      49.04567625
2012    20      0.23822411      60.989105
2012    21      0.18716576      50.10258875
2012    22      0.1764363       47.19897625
2012    23      0.55595964      112.68819625
2012    24      0.62088791      117.17403
2012    25      0.72230695      128.03158875
2012    26      0.68453996      119.46130625
2012    27      0.35685994      81.7299975
2012    28      0.30434856      71.53144125
2012    29      0.49943655      105.56280125
2012    30      0.60407105      118.95182
2012    31      0.35622441      78.04206875
2013    1       0.31381226      74.9832025
2013    2       0.36998595      86.28603375
2013    3       0.40492902      92.737825
2013    4       0.42786106      87.78343
2013    5       0.13273544      37.52434375
2013    6       0.2545987       63.45430125
2013    7       0.40316371      89.12960125
2013    8       0.39924381      84.4297325
2013    9       0.22442925      52.53075125
2013    10      0.14326732      39.97274875
2013    11      0.36235705      81.54715625
2013    12      0.9092937       158.8429375
2013    13      0.40047071      87.49337875
2013    14      0.24430659      62.86000375
2013    15      0.36958375      86.22607125
2013    16      0.54237914      116.7308125
2013    17      0.70882285      136.862975
2013    18      1.1792812       182.897275
2013    19      0.54792085      114.250525
2013    20      0.58443491      118.1309625
2013    21      0.58689252      119.29505625
2013    22      0.41858241      93.27075375
2013    23      0.66734563      132.072725
2013    24      0.56291932      117.8735125
2013    25      0.24818605      60.327625
2013    26      0.23852482      60.95265
2013    27      0.20511494      54.64023875
2013    28      0.48501684      103.08334375
2013    29      0.2250908       57.8453725
2013    30      0.38700926      89.44666125
2013    31      0.48895259      105.9679825
2014    1       0.22943802      59.06134875
2014    2       1.80126734      197.35455
2014    3       1.21376821      177.689825
2014    4       0.75237899      128.0025775
2014    5       0.42701351      93.21991875
2014    6       1.08156649      174.0289875
2014    7       0.27027972      67.67292875
2014    8       0.36202703      83.38803
2014    9       0.5310056       112.9011875
2014    10      0.86399842      156.5392
2014    11      0.71773998      137.7139625
2014    12      0.8601112       147.623475
2014    13      0.53849525      111.29080125
2014    14      0.52725471      106.217385
2014    15      1.02908695      170.7925625
2014    16      0.87911406      154.1550375
2014    17      0.77046551      141.8100875
2014    18      0.7414272       138.158875
2014    19      0.60610794      122.24809875
2014    20      1.23734802      186.1133125
2014    21      1.07492101      175.876675
2014    22      0.4134933       94.422635
2014    23      0.48186861      106.034915
2014    24      0.52689555      113.7950875
2014    25      0.4311088       86.11493375
2014    26      0.15526889      42.71635
2014    27      0.21314472      54.78819125
2014    28      0.6727373       127.3845875
2014    29      0.33506357      69.08331625
2014    30      0.17492619      47.11726375
2014    31      0.5828983       116.106725
2015    1       0.3480802       81.38806375
2015    2       0.48176986      103.87313875
2015    3       0.8703227       159.1685875
2015    4       0.60835071      122.39274625
2015    5       0.18809638      50.2060675
2015    6       0.31087987      74.5062775
2015    7       0.6040265       124.7912
2015    8       1.00512084      171.6481875
2015    9       0.64513039      123.4781275
2015    10      0.4206167       96.93192
2015    11      0.7976489       144.5807575
2015    12      0.32285335      75.23882375
2015    13      0.42007002      94.04176625
2015    14      0.40068442      84.84583875
2015    15      0.18263588      48.6781375
2015    16      0.20857839      53.38851
2015    17      0.61644334      118.85537625
2015    18      0.54468952      113.79564
2015    19      0.23631886      61.01180625
2015    20      0.61569721      118.43216375
2015    21      0.91373639      160.823075
2015    22      1.40669094      201.4531875
2015    23      0.80883618      150.70555
2015    24      0.41708021      89.46319625
2015    25      0.13087805      37.7327675
2015    26      0.15271182      41.43848875
2015    27      0.1781854       47.7419775
2015    28      0.31302328      74.05331125
2015    29      0.30082319      72.137315
2015    30      0.26964965      66.42167
2015    31      0.24681072      62.33607875
2016    1       0.5680974       116.34203875
2016    2       0.4437857       94.71597375
2016    3       0.35413679      81.2709375
2016    4       0.54714956      115.5298625
2016    5       0.90031556      159.5175375
2016    6       1.00552444      167.764925
2016    7       0.5256639       107.32745875
2016    8       1.12084815      180.847925
2016    9       0.60444386      123.926475
2016    10      0.86874468      147.93425625
2016    11      1.54183887      211.2781625
2016    12      1.24171048      189.5418
2016    13      0.73750669      136.583775
2016    14      0.83664398      151.775
2016    15      1.03160482      150.71675
2016    16      1.6972615       205.840475
2016    17      0.10951236      32.63582
2016    18      0.15659118      42.9457225
2016    19      0.15401228      43.07758875
2016    20      0.3143091       71.44027875
2016    21      1.61174488      212.1789
2016    22      1.76365875      219.957275
2016    23      0.85839091      149.9507875
2016    24      0.84847906      148.3683625
2016    25      0.30447544      69.85414125
2016    26      1.03550598      169.13045
2016    27      0.45708155      101.1192025
2016    28      0.32096159      77.6052325
2016    29      0.29882686      73.43793375
2016    30      1.18035439      184.0835875
2016    31      0.74451006      139.48687375
2017    1       0.94715325      163.8274875
2017    2       0.42373295      96.39422625
2017    3       0.52306136      111.00971875
2017    4       0.297138        71.2116675
2017    5       0.2416295       60.70898375
2017    6       0.19471465      51.96488625
2017    7       0.19109122      50.92568625
2017    8       0.24231231      62.67762125
2017    9       0.26905607      68.32170875
2017    10      0.19152615      51.46823375
2017    11      0.30680385      73.02784625
2017    12      0.21468659      55.70386125
2017    13      0.2674718       67.18936375
2017    14      0.25763116      64.51355125
2017    15      0.40341884      91.36564875
2017    16      0.81947966      143.35945875
2017    17      0.56330416      115.383735
2017    18      0.41185555      92.82200125
2017    19      0.66180066      131.1004375
2017    20      0.70002461      136.13275
2017    21      0.12764898      36.44765
2017    22      0.33922214      76.22194125
2017    23      0.88173051      158.2865625
2017    24      0.96284176      165.745225
2017    25      0.6472735       124.028615
2017    26      0.53664079      115.00998
2017    27      0.55569701      114.48142625
2017    28      0.35566189      83.79032125
2017    29      0.42943191      97.3204625
2017    30      0.42613789      97.23229625
2017    31      0.45938371      98.31357625
2018    1       0.68659599      133.5762
2018    2       0.5587726       116.9023
