####################################################################################################
# Month: 04Apr                                                                                     #
# Station: NZ                                                                                      #
# Frequency: 230 GHz                                                                               #
# Columns are: year    day     tau     Tb (K)                                                      #
####################################################################################################
2009    1       0.05761722      19.35872875
2009    2       0.13691473      38.02347125
2009    3       0.16498771      44.72541
2009    4       0.15072613      40.52148875
2009    5       0.52797714      112.75662
2009    6       0.6168027       126.0149
2009    7       0.48669214      102.614075
2009    8       0.28508761      65.16867
2009    9       0.24030685      59.75399875
2009    10      0.20285935      52.44782375
2009    11      0.30764805      73.54993375
2009    12      0.35239382      80.16541125
2009    13      0.2473736       60.568255
2009    14      0.14255272      38.84782875
2009    15      0.660969        131.27608625
2009    16      0.75363432      145.8995125
2009    17      0.58658386      119.939925
2009    18      0.40552986      92.92901625
2009    19      0.58193785      116.21077625
2009    20      0.1304295       36.48245125
2009    21      0.18123582      47.7966425
2009    22      0.22483241      57.1531
2009    23      0.16491599      44.5350425
2009    24      0.42013965      93.02007875
2009    25      0.65000178      131.08922875
2009    26      0.73522251      142.9208
2009    27      0.6692437       133.6416125
2009    28      0.63457668      126.3872125
2009    29      0.5525407       113.5033125
2009    30      0.35541044      78.38105875
2010    1       0.30693474      74.21326125
2010    2       0.14408947      39.88312375
2010    3       0.66089219      124.661605
2010    4       0.34556058      82.04670875
2010    5       0.49264885      101.51650625
2010    6       0.23694724      58.58995875
2010    7       0.19050464      49.63060375
2010    8       0.11850564      34.10187
2010    9       0.1094559       31.7735475
2010    10      0.09171872      27.586705
2010    11      0.34336994      74.18481
2010    12      0.55637736      114.67163875
2010    13      0.70924364      137.1193875
2010    14      0.4223342       95.27489375
2010    15      0.25732277      61.87698875
2010    16      0.39927829      88.24784625
2010    17      0.17330824      45.30303125
2010    18      0.38070079      87.2200125
2010    19      0.40624316      90.80790125
2010    20      0.31617805      76.34480125
2010    21      0.28712705      70.6267225
2010    22      0.45658208      102.01805875
2010    23      0.53346212      112.322125
2010    24      0.81234104      151.0401375
2010    25      0.85184411      156.8441
2010    26      1.06871399      178.0717125
2010    27      0.46071638      95.693555
2010    28      0.51049042      108.9634875
2010    29      0.57345078      119.9783875
2010    30      0.33323471      75.9853775
2011    1       0.19453036      50.477635
2011    2       0.21854366      55.85331625
2011    3       0.5810572       117.67883875
2011    4       0.42672785      91.06198
2011    5       0.21217811      52.38295
2011    6       0.32400456      75.0182125
2011    7       0.4862402       103.03521
2011    8       0.16764633      44.0567675
2011    9       0.07046448      22.309035
2011    10      0.22785048      57.87388875
2011    11      0.18996735      50.19014875
2011    12      0.2255616       57.8189475
2011    13      0.41811836      94.87256625
2011    14      0.90332942      160.9213625
2011    15      0.75571691      144.323375
2011    16      0.70267605      136.75965
2011    17      0.45582562      95.37706375
2011    18      0.27162285      64.34815625
2011    19      0.38333946      86.41755875
2011    20      0.14290554      39.29997125
2011    21      0.32227912      75.6017225
2011    22      0.73490684      142.166725
2011    23      0.55828894      115.92487875
2011    24      0.43006284      95.07225
2011    25      0.31070458      72.59492125
2011    26      0.05936905      19.67266375
2011    27      0.08405066      25.56091625
2011    28      0.17447673      45.50616625
2011    29      0.27674191      68.840725
2011    30      0.24355588      62.04495125
2012    1       0.26580816      66.08174375
2012    2       0.15551681      42.6564325
2012    3       0.14261375      39.6774175
2012    4       0.09634678      28.9523275
2012    5       0.22548271      57.85419625
2012    6       0.37055201      87.25391125
2012    7       0.23108201      59.25154
2012    8       0.40024558      90.36843875
2012    9       0.39711945      87.633175
2012    10      0.67083102      130.81857125
2012    11      0.26600359      65.3544025
2012    12      0.36782652      84.3618525
2012    13      0.14889984      40.94967125
2012    14      0.23239051      58.91444375
2012    15      0.41747431      92.5821025
2012    16      0.41991082      94.4893725
2012    17      0.1532376       40.954745
2012    18      0.21927744      56.10517625
2012    19      0.18633342      49.41998625
2012    20      0.1511016       41.75263375
2012    21      0.17282299      46.1420775
2012    22      0.23193109      58.32544125
2012    23      0.15371011      42.24777
2012    24      0.08485856      26.2611225
2012    25      0.07113702      22.65841875
2012    26      0.47275615      96.57994625
2012    27      0.54204649      109.38078125
2012    28      0.18135489      47.944925
2012    29      0.35543449      81.06897375
2012    30      0.22246198      54.23461375
2013    1       0.18666104      49.47066875
2013    2       0.46640619      99.93076625
2013    3       0.29141896      66.73929
2013    4       0.26719349      64.64026125
2013    5       0.2493476       57.137555
2013    6       0.22232302      55.37307625
2013    7       0.53406191      111.671775
2013    8       0.56962569      116.9953625
2013    9       0.1028912       29.7878375
2013    10      0.1305811       36.835715
2013    11      0.41386734      91.78783
2013    12      0.3164865       76.28418375
2013    13      0.28561404      69.14623375
2013    14      0.27083111      66.24094375
2013    15      0.37127898      85.80589
2013    16      0.76422799      144.8484
2013    17      0.45598576      100.5546625
2013    18      0.39309132      90.9708325
2013    19      0.565339        116.5041125
2013    20      0.62682742      125.8828625
2013    21      0.76412554      144.5981
2013    22      0.61588386      122.95095125
2013    23      0.56728879      116.27545875
2013    24      0.47918096      102.830855
2013    25      0.34032495      78.756515
2013    26      0.44610941      97.14297
2013    27      0.39266229      88.6816225
2013    28      0.44422991      97.3570525
2013    29      0.35672088      81.58383875
2013    30      0.14243299      37.8889775
2014    1       0.22527015      56.2222675
2014    2       0.40768666      92.12209125
2014    3       0.37727136      87.88405125
2014    4       0.6031081       123.70419125
2014    5       0.63583156      126.35253
2014    6       0.87768626      157.67085
2014    7       0.54461349      110.01469875
2014    8       0.23434238      59.407285
2014    9       0.45046821      96.53269375
2014    10      0.66157259      132.6337875
2014    11      1.05544067      177.3311
2014    12      0.53385634      114.3142125
2014    13      0.38108181      87.92871875
2014    14      0.89460846      160.3829875
2014    15      0.92282275      160.729975
2014    16      0.70911654      131.8583875
2014    17      0.93252474      161.17714
2014    18      0.81861344      151.574325
2014    19      0.54046044      112.97558375
2014    20      0.44838614      98.31004
2014    21      0.44238454      97.41077125
2014    22      0.33574471      76.7138325
2014    23      0.52034701      108.09649625
2014    24      0.60979015      123.74802
2014    25      0.16255068      42.86943625
2014    26      0.147236        40.16417625
2014    27      0.49666672      104.52805125
2014    28      0.39121388      84.9123725
2014    29      0.12245694      34.60929875
2014    30      0.11837741      34.0003825
2015    1       0.25459469      63.79581
2015    2       0.2023054       53.13033
2015    3       0.2360305       57.39138625
2015    4       0.21153005      54.99825
2015    5       0.32795186      75.52890125
2015    6       0.63076571      127.159715
2015    7       0.47847219      103.011655
2015    8       0.46417241      102.69101125
2015    9       0.72064219      139.8153
2015    10      0.54267647      104.441625
2015    11      0.28533869      68.8867625
2015    12      0.4372585       94.86751625
2015    13      0.25222043      59.6461925
2015    14      0.16761882      43.77717625
2015    15      0.18440202      48.56020125
2015    16      0.15091015      41.05320875
2015    17      0.41395418      88.679075
2015    18      0.1762349       46.00253875
2015    19      0.73542974      142.1343375
2015    20      0.88096221      158.1830625
2015    21      0.71859679      138.7913625
2015    22      0.36248499      86.09613
2015    23      0.35237022      83.74234625
2015    24      0.22641966      56.9818525
2015    25      0.79096008      149.781275
2015    26      0.79625264      150.5562875
2015    27      0.80385199      144.39194625
2015    28      0.32979601      76.44208875
2015    29      0.2579492       62.54321
2015    30      0.32544132      76.793965
2016    1       1.03264503      174.7401
2016    2       0.9089962       159.72265
2016    3       0.38306608      85.00093125
2016    4       0.31244128      73.7404925
2016    5       0.51158625      109.22795125
2016    6       0.30786206      73.780135
2016    7       0.38852621      85.75103625
2016    8       0.1291566       36.2648125
2016    9       0.18151875      48.09521625
2016    10      0.20061249      52.643705
2016    11      0.50798564      110.03419125
2016    12      0.21507282      54.43996625
2016    13      0.08520081      25.77492875
2016    14      0.2221069       56.97291875
2016    15      0.26308683      65.55092875
2016    16      0.27661476      67.44353625
2016    17      0.48246532      94.8454325
2016    18      0.18241378      48.11896375
2016    19      0.18816606      49.14537375
2016    20      0.30854431      74.1370175
2016    21      0.29444112      71.76202
2016    22      0.57147831      118.244535
2016    23      0.40834289      85.53819625
2016    24      0.35233906      79.9015725
2016    25      0.33040716      78.00198125
2016    26      0.29588493      70.74797375
2016    27      0.20384002      52.16151625
2016    28      0.18202125      48.4272375
2016    29      0.21052268      52.30828375
2016    30      0.31496211      73.11223625
2017    1       0.45057904      102.769915
2017    2       0.3742826       87.23663875
2017    3       0.30257382      73.90825625
2017    4       0.27569874      67.02058125
2017    5       0.78266884      145.764775
2017    6       0.32613512      70.059025
2017    7       0.16508061      45.040305
2017    8       0.12466733      35.79744875
2017    9       0.15555109      42.20085875
2017    10      0.32742572      77.7248075
2017    11      0.9928357       170.1631875
2017    12      0.8035925       149.946025
2017    13      1.02525353      173.0747
2017    14      0.77334722      145.9585
2017    15      0.2373039       58.5781
2017    16      0.35765712      82.935495
2017    17      0.30164441      72.68926625
2017    18      0.33036217      77.85327875
2017    19      0.3905896       87.53841125
2017    20      0.36669752      85.58462125
2017    21      0.32886674      77.73425625
2017    22      0.33988566      80.406965
2017    23      0.32466085      77.12036875
2017    24      0.50291326      108.150545
2017    25      0.33369444      79.03156375
2017    26      0.27141678      67.3585675
2017    27      0.39196105      87.17892375
2017    28      0.15687335      42.75777625
2017    29      0.29498168      68.0808675
2017    30      0.38294024      83.87559375
2018    1       0.23266316      57.2879075
2018    2       0.81259121      149.8739975
2018    3       0.35087929      82.70865875
2018    4       0.2926054       71.34876875
2018    5       0.33325106      79.5736375
2018    6       0.56866152      114.22839375
2018    7       0.2382825       58.08911
2018    8       0.53167177      112.23029625
2018    9       0.63517402      124.42452
2018    10      0.32761688      74.98767125
2018    11      0.26341414      60.63164375
2018    12      0.36133009      82.903385
2018    13      0.16179818      43.10198125
2018    14      0.16416089      43.1897275
2018    15      0.65738948      130.25336
2018    16      0.43660394      96.0775925
2018    17      0.34332985      77.399445
2018    18      0.26686416      64.23637375
2018    19      0.31064816      73.8217775
2018    20      0.37816576      87.73884625
2018    21      0.26611549      62.28753625
2018    22      0.17753814      46.9585825
2018    23      0.29390871      70.50105125
2018    24      0.27955061      66.39569875
2018    25      0.37428765      86.23943625
2018    26      0.27099601      66.76909
2018    27      0.65812565      127.2696775
2018    28      0.84556192      153.5273875
2018    29      0.66412251      131.1336125
2018    30      0.34651228      81.939145
