####################################################################################################
# Month: 04Apr                                                                                     #
# Station: NZ                                                                                      #
# Frequency: 230 GHz                                                                               #
# Columns are: year    day     segment         tau     Tb (K)                                      #
####################################################################################################
2009    1       0       0.05693354      19.13669
2009    1       1       0.05895146      19.64146
2009    1       2       0.06451005      21.10349
2009    1       3       0.06038891      20.09323
2009    1       4       0.0592102       19.81599
2009    1       5       0.05255763      18.08264
2009    1       6       0.04984166      17.3797
2009    1       7       0.0585443       19.61663
2009    2       0       0.07951834      24.78271
2009    2       1       0.1200064       34.19019
2009    2       2       0.1931192       49.51692
2009    2       3       0.1604742       43.34973
2009    2       4       0.1460966       40.31642
2009    2       5       0.1349387       37.88227
2009    2       6       0.1320015       37.37237
2009    2       7       0.1291629       36.77716
2009    3       0       0.11317         32.96048
2009    3       1       0.0990005       29.51747
2009    3       2       0.1138605       32.9509
2009    3       3       0.1479613       41.00912
2009    3       4       0.2085272       54.65548
2009    3       5       0.2407018       61.55855
2009    3       6       0.2136461       55.80577
2009    3       7       0.1830343       49.34551
2009    4       0       0.181848        49.40222
2009    4       1       0.1299317       37.55098
2009    4       2       0.06806176      22.32815
2009    4       3       0.0704617       23.01722
2009    4       4       0.04895428      17.365
2009    4       5       0.1146382       34.17283
2009    4       6       0.1108845       33.17391
2009    4       7       0.4810289       107.1616
2009    5       0       0.4616092       104.9676
2009    5       1       0.3187354       78.87781
2009    5       2       0.4044789       95.07905
2009    5       3       0.5610729       119.9143
2009    5       4       0.8846218       160.7115
2009    5       5       0.6648318       134.7298
2009    5       6       0.4850207       107.5189
2009    5       7       0.4434464       100.254
2009    6       0       0.4563245       101.8191
2009    6       1       0.6191116       126.9965
2009    6       2       0.848978        156.47
2009    6       3       0.7692325       147.9302
2009    6       4       0.5577806       118.7314
2009    6       5       0.6587767       133.6203
2009    6       6       0.4953453       108.691
2009    6       7       0.5288724       113.8607
2009    7       0       0.5466769       115.7275
2009    7       1       0.4592054       100.8212
2009    7       2       0.6551351       128.0427
2009    7       3       0.4983329       105.1941
2009    7       4       0.6157578       122.4238
2009    7       5       0.4602492       98.17555
2009    7       6       0.3857847       85.63217
2009    7       7       0.2723951       64.89558
2009    8       0       0.4678951       97.6105
2009    8       1       0.4531833       95.80557
2009    8       2       0.3807172       84.29362
2009    8       3       0.3502869       79.11856
2009    8       4       0.2498546       60.09396
2009    8       5       0.1328766       36.18147
2009    8       6       0.1471867       39.57469
2009    8       7       0.09870044      28.67099
2009    9       0       0.08294203      25.13636
2009    9       1       0.1942998       50.24918
2009    9       2       0.2660235       64.97954
2009    9       3       0.2566504       63.04403
2009    9       4       0.2340311       59.32736
2009    9       5       0.2788598       68.49423
2009    9       6       0.3120131       74.87657
2009    9       7       0.2976351       71.92472
2009    10      0       0.2512194       62.7877
2009    10      1       0.2289698       58.41555
2009    10      2       0.18989         49.98387
2009    10      3       0.1501854       41.21338
2009    10      4       0.1554595       42.3506
2009    10      5       0.182332        48.1455
2009    10      6       0.2259906       57.02247
2009    10      7       0.2388281       59.66352
2009    11      0       0.2142259       54.74395
2009    11      1       0.2129258       53.93778
2009    11      2       0.3570526       83.08149
2009    11      3       0.4741626       103.8555
2009    11      4       0.2940135       71.57089
2009    11      5       0.3234262       77.4308
2009    11      6       0.2845512       70.22392
2009    11      7       0.3008266       73.55514
2009    12      0       0.3841393       89.32815
2009    12      1       0.5405556       115.9106
2009    12      2       0.281328        70.13651
2009    12      3       0.1525893       42.28625
2009    12      4       0.1638464       44.75144
2009    12      5       0.2221471       57.25822
2009    12      6       0.3349799       79.55982
2009    12      7       0.739565        142.0923
2009    13      0       0.4855758       107.8149
2009    13      1       0.5700543       121.5391
2009    13      2       0.2322315       60.36657
2009    13      3       0.1332132       37.92472
2009    13      4       0.1351004       38.21647
2009    13      5       0.1288242       36.7147
2009    13      6       0.1546687       42.74928
2009    13      7       0.1393207       39.2203
2009    14      0       0.1113275       32.65893
2009    14      1       0.1075553       31.70155
2009    14      2       0.1057935       31.15086
2009    14      3       0.08126445      24.82157
2009    14      4       0.1145591       32.49826
2009    14      5       0.1551091       42.25656
2009    14      6       0.1693728       45.27751
2009    14      7       0.29544         70.41739
2009    15      0       0.4117578       92.04009
2009    15      1       0.4755367       103.0771
2009    15      2       0.6298158       126.9568
2009    15      3       0.7092203       138.6249
2009    15      4       0.710623        139.469
2009    15      5       0.7629829       147.6311
2009    15      6       0.8305115       156.0297
2009    15      7       0.757304        146.38
2009    16      0       0.7317225       143.5169
2009    16      1       0.6395071       131.7855
2009    16      2       0.6332744       131.2571
2009    16      3       0.7293103       143.8657
2009    16      4       0.7827699       150.3751
2009    16      5       0.7514939       145.9007
2009    16      6       0.911685        164.0
2009    16      7       0.8493115       156.4951
2009    17      0       0.9174888       163.045
2009    17      1       0.6682547       132.2208
2009    17      2       0.5034757       107.818
2009    17      3       0.5461802       114.2681
2009    17      4       0.5580462       116.9133
2009    17      5       0.5416107       115.2602
2009    17      6       0.5057396       109.6412
2009    17      7       0.451875        100.3528
2009    18      0       0.4237418       95.70529
2009    18      1       0.387242        89.46791
2009    18      2       0.3497549       82.99966
2009    18      3       0.3612759       85.25886
2009    18      4       0.3736733       87.87785
2009    18      5       0.368365        86.95806
2009    18      6       0.4447664       100.2578
2009    18      7       0.5354196       114.9067
2009    19      0       0.7304178       141.4937
2009    19      1       1.051878        177.1443
2009    19      2       0.8095385       151.4213
2009    19      3       0.6642245       133.4714
2009    19      4       0.5495999       117.5307
2009    19      5       0.3760105       88.29254
2009    19      6       0.29743         72.98857
2009    19      7       0.1764036       47.3437
2009    20      0       0.08369785      25.65389
2009    20      1       0.08765848      26.54113
2009    20      2       0.130828        36.77156
2009    20      3       0.1151794       33.13375
2009    20      4       0.1314537       36.82124
2009    20      5       0.1526244       41.51973
2009    20      6       0.166669        44.71582
2009    20      7       0.1753252       46.70249
2009    21      0       0.1738217       46.3016
2009    21      1       0.2157178       55.58735
2009    21      2       0.1685349       44.98184
2009    21      3       0.1618736       43.33426
2009    21      4       0.1828655       48.12451
2009    21      5       0.1789979       47.3986
2009    21      6       0.175611        46.52122
2009    21      7       0.1924642       50.12376
2009    22      0       0.19715         51.22519
2009    22      1       0.2092364       53.96866
2009    22      2       0.2275102       57.77675
2009    22      3       0.2617614       64.78848
2009    22      4       0.2433809       61.07731
2009    22      5       0.2244246       57.14988
2009    22      6       0.2249623       57.16879
2009    22      7       0.2102335       54.06974
2009    23      0       0.1957211       51.07396
2009    23      1       0.2011581       52.433
2009    23      2       0.1862021       49.3634
2009    23      3       0.1587122       43.29898
2009    23      4       0.1581975       43.18397
2009    23      5       0.1475988       40.84017
2009    23      6       0.1339725       37.69972
2009    23      7       0.1377656       38.38714
2009    24      0       0.1631346       43.63376
2009    24      1       0.2694257       65.56474
2009    24      2       0.4141277       93.22179
2009    24      3       0.5435389       114.8338
2009    24      4       0.5624247       117.9495
2009    24      5       0.5478278       115.9611
2009    24      6       0.4507201       100.2985
2009    24      7       0.4099177       92.69744
2009    25      0       0.4494182       99.60503
2009    25      1       0.5700202       119.7039
2009    25      2       0.8501976       157.4729
2009    25      3       0.6070891       125.9788
2009    25      4       0.8158667       154.3839
2009    25      5       0.6557558       133.2648
2009    25      6       0.6914046       138.5149
2009    25      7       0.560262        119.7896
2009    26      0       0.8702468       159.9516
2009    26      1       0.6484298       133.0185
2009    26      2       0.5253055       114.229
2009    26      3       0.7149019       140.7549
2009    26      4       0.7811428       149.1731
2009    26      5       0.8033468       151.8961
2009    26      6       0.7593493       145.8395
2009    26      7       0.7790572       148.5037
2009    27      0       0.7199815       141.2723
2009    27      1       0.7993449       150.6805
2009    27      2       0.7580736       145.5106
2009    27      3       0.6119379       126.2462
2009    27      4       0.6222126       127.511
2009    27      5       0.655419        132.0371
2009    27      6       0.6283978       128.1416
2009    27      7       0.5585823       117.7336
2009    28      0       0.5063349       109.7326
2009    28      1       0.4901382       106.8486
2009    28      2       0.5377995       113.5614
2009    28      3       0.6091722       123.2367
2009    28      4       0.6939563       134.379
2009    28      5       0.6655822       131.0986
2009    28      6       0.8427622       152.8222
2009    28      7       0.7308679       139.4186
2009    29      0       0.6415211       127.0897
2009    29      1       0.6577502       129.1013
2009    29      2       0.5766111       117.5347
2009    29      3       0.518996        108.5355
2009    29      4       0.519663        108.4693
2009    29      5       0.5133504       107.5868
2009    29      6       0.5250248       109.2685
2009    29      7       0.467409        100.4407
2009    30      0       0.5194868       108.5728
2009    30      1       0.5964788       120.0913
2009    30      2       0.5895316       119.6445
2009    30      3       0.4679281       101.4611
2009    30      4       0.2161913       55.12354
2009    30      5       0.1508339       40.79047
2009    30      6       0.1507874       40.58914
2009    30      7       0.1520456       40.77562
2010    1       0       0.4250523       96.78531
2010    1       1       0.4190162       95.73691
2010    1       2       0.3676014       86.38342
2010    1       3       0.276116        68.72253
2010    1       4       0.2596539       65.26114
2010    1       5       0.248172        62.81507
2010    1       6       0.2337873       59.78805
2010    1       7       0.2260788       58.21366
2010    2       0       0.1945755       51.58816
2010    2       1       0.2443476       62.11146
2010    2       2       0.1672568       45.29877
2010    2       3       0.1277376       36.26174
2010    2       4       0.1147313       33.02466
2010    2       5       0.1048408       30.84022
2010    2       6       0.1023459       30.50054
2010    2       7       0.09688024      29.43944
2010    3       0       0.1463837       41.54937
2010    3       1       0.2111768       56.28867
2010    3       2       0.3752462       90.1183
2010    3       3       0.6822114       137.5828
2010    3       4       0.8310927       154.5224
2010    3       5       1.167154        187.1277
2010    3       6       1.094303        181.3375
2010    3       7       0.7795697       148.7661
2010    4       0       0.4726422       105.486
2010    4       1       0.335261        80.91478
2010    4       2       0.2287802       59.29409
2010    4       3       0.2654936       66.91096
2010    4       4       0.3631283       86.01016
2010    4       5       0.3384638       81.03165
2010    4       6       0.3526572       83.45474
2010    4       7       0.4080583       93.27129
2010    5       0       0.6100156       125.4771
2010    5       1       0.8864284       160.3626
2010    5       2       0.8539807       156.5166
2010    5       3       0.5559619       117.2076
2010    5       4       0.3947319       90.68607
2010    5       5       0.3398161       79.80356
2010    5       6       0.1845212       48.67586
2010    5       7       0.115735        33.40266
2010    6       0       0.134702        37.75274
2010    6       1       0.3407029       79.97105
2010    6       2       0.347429        81.08391
2010    6       3       0.1990754       51.53981
2010    6       4       0.1402629       38.45825
2010    6       5       0.1708753       44.99807
2010    6       6       0.2331222       57.8568
2010    6       7       0.3294082       77.05904
2010    7       0       0.276833        67.12732
2010    7       1       0.2560364       63.34701
2010    7       2       0.2288968       58.02581
2010    7       3       0.1753063       46.71768
2010    7       4       0.1637667       44.25468
2010    7       5       0.1592461       43.31778
2010    7       6       0.1406969       39.17122
2010    7       7       0.1232549       35.08333
2010    8       0       0.1130184       32.70556
2010    8       1       0.1471441       40.78749
2010    8       2       0.1462079       40.59494
2010    8       3       0.1113507       32.42446
2010    8       4       0.1097185       32.06364
2010    8       5       0.1102631       32.21837
2010    8       6       0.1037726       30.67166
2010    8       7       0.1065698       31.34884
2010    9       0       0.1070448       31.46518
2010    9       1       0.1117533       32.60668
2010    9       2       0.1137448       32.94365
2010    9       3       0.1087754       31.45859
2010    9       4       0.1125562       32.34662
2010    9       5       0.1122036       32.29002
2010    9       6       0.1064333       30.95976
2010    9       7       0.1031358       30.11788
2010    10      0       0.1101688       31.94926
2010    10      1       0.1256745       35.82541
2010    10      2       0.09953812      29.53225
2010    10      3       0.08349199      25.58195
2010    10      4       0.07953202      24.61566
2010    10      5       0.078353        24.38625
2010    10      6       0.07894432      24.57856
2010    10      7       0.07804702      24.2243
2010    11      0       0.08640859      26.26835
2010    11      1       0.07833257      24.32329
2010    11      2       0.08571184      25.85737
2010    11      3       0.1281813       35.86609
2010    11      4       0.295344        72.34758
2010    11      5       0.6550715       131.8787
2010    11      6       0.7946652       149.6225
2010    11      7       0.6232445       127.3146
2010    12      0       0.4047634       92.19729
2010    12      1       0.4047625       91.09735
2010    12      2       0.4039823       91.09511
2010    12      3       0.3756917       86.74066
2010    12      4       0.5443329       114.8303
2010    12      5       0.8035246       150.3267
2010    12      6       0.7389665       143.3082
2010    12      7       0.774995        147.7775
2010    13      0       0.784369        148.542
2010    13      1       0.8327506       154.4963
2010    13      2       0.8492086       156.5094
2010    13      3       0.5637812       118.8595
2010    13      4       0.7268955       139.1503
2010    13      5       0.8401371       152.6503
2010    13      6       0.5058889       109.1112
2010    13      7       0.5709182       117.6361
2010    14      0       0.5488986       116.1836
2010    14      1       0.5398087       115.3812
2010    14      2       0.452454        101.8143
2010    14      3       0.5168205       113.4565
2010    14      4       0.4658713       105.4688
2010    14      5       0.4189197       96.71018
2010    14      6       0.2477919       62.96368
2010    14      7       0.1881089       50.22089
2010    15      0       0.3023092       73.82848
2010    15      1       0.4470286       99.77089
2010    15      2       0.3767734       86.94673
2010    15      3       0.3407644       80.16478
2010    15      4       0.3413022       78.88442
2010    15      5       0.1122182       31.96427
2010    15      6       0.06260611      20.18044
2010    15      7       0.07558006      23.2759
2010    16      0       0.1478804       39.91679
2010    16      1       0.2487025       61.88068
2010    16      2       0.3558796       83.24531
2010    16      3       0.357504        83.52001
2010    16      4       0.3381421       79.95508
2010    16      5       0.4632056       101.8485
2010    16      6       0.702046        136.0302
2010    16      7       0.5808661       119.5862
2010    17      0       0.3968484       90.80648
2010    17      1       0.3118022       75.56195
2010    17      2       0.1881741       50.04611
2010    17      3       0.108533        31.6868
2010    17      4       0.1077622       31.23346
2010    17      5       0.0839333       25.73893
2010    17      6       0.07856371      24.63704
2010    17      7       0.110849        32.71348
2010    18      0       0.3275352       78.70014
2010    18      1       0.4993433       108.8632
2010    18      2       0.4164819       94.45206
2010    18      3       0.4128318       93.46494
2010    18      4       0.5009185       106.6926
2010    18      5       0.3720087       86.64357
2010    18      6       0.3123635       75.95211
2010    18      7       0.2041234       52.99148
2010    19      0       0.2137997       54.60161
2010    19      1       0.2403593       60.28866
2010    19      2       0.2777187       68.16971
2010    19      3       0.3805123       87.93665
2010    19      4       0.6488574       131.3452
2010    19      5       0.5780663       121.2194
2010    19      6       0.5046121       109.7084
2010    19      7       0.4060195       93.19358
2010    20      0       0.3460214       82.29268
2010    20      1       0.2839461       70.58584
2010    20      2       0.2343968       60.23135
2010    20      3       0.2705434       67.57097
2010    20      4       0.3501852       82.97855
2010    20      5       0.3551357       83.58438
2010    20      6       0.3581342       84.19773
2010    20      7       0.3310616       79.31691
2010    21      0       0.3191555       77.09149
2010    21      1       0.3448623       81.85469
2010    21      2       0.3558472       83.90447
2010    21      3       0.2862487       70.61185
2010    21      4       0.2465266       62.6057
2010    21      5       0.2359461       60.53095
2010    21      6       0.245883        62.57823
2010    21      7       0.262547        65.8364
2010    22      0       0.3929421       90.75005
2010    22      1       0.4587358       102.5401
2010    22      2       0.501007        109.3049
2010    22      3       0.4825147       106.3365
2010    22      4       0.3842077       89.71187
2010    22      5       0.4009724       92.88855
2010    22      6       0.4559801       102.5041
2010    22      7       0.5762968       122.1084
2010    23      0       0.601926        125.7512
2010    23      1       0.6082789       126.2598
2010    23      2       0.3554241       83.92057
2010    23      3       0.3617108       84.61754
2010    23      4       0.4388682       97.31129
2010    23      5       0.5371546       113.3907
2010    23      6       0.6119946       124.3451
2010    23      7       0.7523398       142.9808
2010    24      0       0.9359664       164.0439
2010    24      1       0.9846098       169.5962
2010    24      2       0.7730534       146.7425
2010    24      3       0.925875        164.8252
2010    24      4       0.8166533       153.0149
2010    24      5       0.64879         130.8178
2010    24      6       0.6953834       138.2032
2010    24      7       0.718397        141.0774
2010    25      0       0.7944561       150.9624
2010    25      1       0.7177875       141.6776
2010    25      2       0.7528206       146.3073
2010    25      3       0.8424082       156.4667
2010    25      4       0.8073578       152.5279
2010    25      5       0.9325893       166.1938
2010    25      6       1.043226        177.0443
2010    25      7       0.9241074       163.5728
2010    26      0       0.9139116       162.7426
2010    26      1       1.067524        178.1981
2010    26      2       0.9754963       169.4048
2010    26      3       0.81791         152.1746
2010    26      4       1.157465        187.4873
2010    26      5       1.213352        192.4447
2010    26      6       1.173155        188.9906
2010    26      7       1.230898        193.131
2010    27      0       0.9760548       170.312
2010    27      1       0.8440248       155.899
2010    27      2       0.2249915       58.34391
2010    27      3       0.5370406       114.6894
2010    27      4       0.4555451       101.0175
2010    27      5       0.2766284       68.70462
2010    27      6       0.1574448       42.09432
2010    27      7       0.214001        54.48769
2010    28      0       0.2246554       57.04274
2010    28      1       0.3345448       79.56616
2010    28      2       0.5086684       109.9073
2010    28      3       0.5831114       120.7097
2010    28      4       0.59053         123.325
2010    28      5       0.6209631       127.7465
2010    28      6       0.6043697       126.2481
2010    28      7       0.6170806       127.1624
2010    29      0       0.6708855       134.1858
2010    29      1       0.6695366       134.4568
2010    29      2       0.5700013       120.8648
2010    29      3       0.4707029       105.0508
2010    29      4       0.5898583       122.558
2010    29      5       0.6700542       134.4068
2010    29      6       0.4313055       97.3417
2010    29      7       0.5152619       110.9624
2010    30      0       0.6185599       126.1772
2010    30      1       0.5316255       112.7699
2010    30      2       0.4367342       97.38063
2010    30      3       0.3770982       86.63772
2010    30      4       0.2289725       58.02209
2010    30      5       0.1176046       33.36325
2010    30      6       0.1645446       43.87518
2010    30      7       0.1907382       49.65705
2011    1       0       0.1182505       33.61101
2011    1       1       0.1858464       49.05687
2011    1       2       0.2317779       58.64416
2011    1       3       0.2127368       54.26835
2011    1       4       0.1894496       49.05003
2011    1       5       0.1910422       49.74514
2011    1       6       0.2209211       56.45323
2011    1       7       0.2062184       52.99229
2011    2       0       0.1951892       50.79211
2011    2       1       0.2182377       56.00293
2011    2       2       0.2085945       54.19499
2011    2       3       0.1891462       49.97493
2011    2       4       0.1723648       46.27078
2011    2       5       0.2007329       52.70849
2011    2       6       0.2355672       59.72144
2011    2       7       0.3285168       77.16086
2011    3       0       0.4279474       95.30004
2011    3       1       0.6583673       131.8802
2011    3       2       0.6588595       131.2734
2011    3       3       0.8938978       159.6914
2011    3       4       0.2613731       64.91887
2011    3       5       0.5601715       117.7345
2011    3       6       0.4704079       102.8395
2011    3       7       0.7174331       137.7928
2011    4       0       0.743736        140.1985
2011    4       1       0.4847034       103.4448
2011    4       2       0.4950536       105.2545
2011    4       3       0.4975359       104.8088
2011    4       4       0.5073024       106.0183
2011    4       5       0.3128976       72.78846
2011    4       6       0.2018158       51.17532
2011    4       7       0.1707781       44.80716
2011    5       0       0.3223405       75.57985
2011    5       1       0.4040826       90.03643
2011    5       2       0.3012766       71.66349
2011    5       3       0.2641785       65.29386
2011    5       4       0.07743235      23.93926
2011    5       5       0.07364672      22.80819
2011    5       6       0.1063254       30.30467
2011    5       7       0.1481422       39.43785
2011    6       0       0.3074213       71.85714
2011    6       1       0.3896547       88.32209
2011    6       2       0.4987192       106.291
2011    6       3       0.4276072       94.90745
2011    6       4       0.3924535       88.88555
2011    6       5       0.2229033       56.56785
2011    6       6       0.1692498       45.12007
2011    6       7       0.1840275       48.19455
2011    7       0       0.4202079       94.21857
2011    7       1       0.4900124       104.3995
2011    7       2       0.2768824       67.02729
2011    7       3       0.3000079       71.97394
2011    7       4       0.6005354       122.6753
2011    7       5       0.8080544       150.5476
2011    7       6       0.596015        122.5507
2011    7       7       0.3982062       90.88878
2011    8       0       0.275905        68.47669
2011    8       1       0.3483626       82.72867
2011    8       2       0.2566576       64.07332
2011    8       3       0.1381998       38.3509
2011    8       4       0.09583926      28.42247
2011    8       5       0.08245432      25.11002
2011    8       6       0.07388226      23.02596
2011    8       7       0.06986982      22.26611
2011    9       0       0.07185733      22.82475
2011    9       1       0.06794277      21.85457
2011    9       2       0.0680061       21.81726
2011    9       3       0.06909787      21.93193
2011    9       4       0.07170026      22.44177
2011    9       5       0.06799454      21.56015
2011    9       6       0.06780433      21.59597
2011    9       7       0.07931266      24.44588
2011    10      0       0.09766156      28.78434
2011    10      1       0.1304462       36.53344
2011    10      2       0.1783052       47.40242
2011    10      3       0.2746284       67.54464
2011    10      4       0.2644695       66.27954
2011    10      5       0.2559325       64.74742
2011    10      6       0.3197429       77.70341
2011    10      7       0.3016176       73.9959
2011    11      0       0.2645854       66.39297
2011    11      1       0.2204519       57.03816
2011    11      2       0.2018834       52.90866
2011    11      3       0.1919662       50.9178
2011    11      4       0.1744616       46.72655
2011    11      5       0.171361        46.06535
2011    11      6       0.1551198       42.53167
2011    11      7       0.1399095       38.94003
2011    12      0       0.1377759       38.19948
2011    12      1       0.1484953       40.90364
2011    12      2       0.1630428       44.42901
2011    12      3       0.222968        57.51125
2011    12      4       0.2707789       67.83599
2011    12      5       0.2594797       65.7027
2011    12      6       0.2722219       68.33098
2011    12      7       0.3297303       79.63853
2011    13      0       0.3601683       85.55841
2011    13      1       0.3599467       85.54852
2011    13      2       0.3717304       87.26266
2011    13      3       0.4194555       95.34991
2011    13      4       0.4897087       105.2159
2011    13      5       0.3930551       89.90753
2011    13      6       0.4483675       100.4337
2011    13      7       0.5025147       109.7039
2011    14      0       0.7357174       142.2193
2011    14      1       0.7984967       150.0962
2011    14      2       0.8708509       157.3801
2011    14      3       0.7729239       146.9357
2011    14      4       0.8806436       159.2592
2011    14      5       1.000718        172.3407
2011    14      6       0.9963279       171.1729
2011    14      7       1.170957        187.9668
2011    15      0       0.771723        147.2388
2011    15      1       0.7178725       140.7358
2011    15      2       0.8246447       153.653
2011    15      3       0.8734042       159.2723
2011    15      4       0.7201271       140.8413
2011    15      5       0.5823235       121.5272
2011    15      6       0.6677989       132.3308
2011    15      7       0.8878414       158.9878
2011    16      0       0.9214307       163.9053
2011    16      1       0.827661        153.5287
2011    16      2       0.6348341       128.9544
2011    16      3       0.5596043       117.7462
2011    16      4       0.5735984       119.5328
2011    16      5       0.7472613       143.1657
2011    16      6       0.6941041       135.7928
2011    16      7       0.6629145       131.4513
2011    17      0       0.7276536       139.4018
2011    17      1       0.6299709       124.6655
2011    17      2       0.6042614       121.1112
2011    17      3       0.2832749       68.47185
2011    17      4       0.3668136       83.57433
2011    17      5       0.5358278       108.5613
2011    17      6       0.3926084       86.7946
2011    17      7       0.1061944       30.43593
2011    18      0       0.1192764       33.7453
2011    18      1       0.1137539       32.54491
2011    18      2       0.1251003       34.85699
2011    18      3       0.1970369       50.42479
2011    18      4       0.2873115       69.11842
2011    18      5       0.3915184       89.03984
2011    18      6       0.4715011       102.9516
2011    18      7       0.4674843       102.1034
2011    19      0       0.5038017       107.5104
2011    19      1       0.4879548       104.2941
2011    19      2       0.5800822       118.7087
2011    19      3       0.2437518       62.165
2011    19      4       0.4210799       97.60513
2011    19      5       0.4415631       100.2775
2011    19      6       0.1819083       47.86897
2011    19      7       0.2065739       52.91067
2011    20      0       0.1335424       37.45763
2011    20      1       0.1472303       40.81458
2011    20      2       0.1447482       40.39319
2011    20      3       0.1102885       32.36763
2011    20      4       0.104515        30.58562
2011    20      5       0.1314378       36.62631
2011    20      6       0.172404        45.41526
2011    20      7       0.1990781       50.73955
2011    21      0       0.2405938       59.04377
2011    21      1       0.2541753       62.07525
2011    21      2       0.3066267       72.57753
2011    21      3       0.2998178       71.83682
2011    21      4       0.2842185       68.90652
2011    21      5       0.3041183       72.78294
2011    21      6       0.4125073       93.20685
2011    21      7       0.4761753       104.3841
2011    22      0       0.5790774       121.2768
2011    22      1       0.7363608       143.1098
2011    22      2       0.8419415       155.8792
2011    22      3       0.6826814       135.4054
2011    22      4       0.6597073       132.6573
2011    22      5       0.6811149       136.0245
2011    22      6       0.836946        154.9312
2011    22      7       0.8614254       158.0496
2011    23      0       0.829543        154.4634
2011    23      1       0.7731618       147.0562
2011    23      2       0.6555404       131.9918
2011    23      3       0.5083741       110.0236
2011    23      4       0.5697042       119.6882
2011    23      5       0.4819451       106.6687
2011    23      6       0.3539636       84.54745
2011    23      7       0.2940793       72.95968
2011    24      0       0.2716493       68.37424
2011    24      1       0.2797385       69.3466
2011    24      2       0.2507309       62.85087
2011    24      3       0.3641126       84.01489
2011    24      4       0.5770602       120.9341
2011    24      5       0.6550214       132.0908
2011    24      6       0.550722        116.1674
2011    24      7       0.4914678       106.7991
2011    25      0       0.47552         104.0804
2011    25      1       0.4234697       94.97036
2011    25      2       0.4302012       95.6174
2011    25      3       0.3706011       84.96518
2011    25      4       0.351897        81.49973
2011    25      5       0.1937698       50.54543
2011    25      6       0.1372785       38.64593
2011    25      7       0.1028993       30.43494
2011    26      0       0.04902518      17.16194
2011    26      1       0.0443397       15.96822
2011    26      2       0.04994359      17.46311
2011    26      3       0.04936168      17.30617
2011    26      4       0.05061138      17.53736
2011    26      5       0.06756867      21.6196
2011    26      6       0.08580082      25.92709
2011    26      7       0.07830137      24.39782
2011    27      0       0.08504105      26.02441
2011    27      1       0.1062637       31.27934
2011    27      2       0.08095975      24.97627
2011    27      3       0.07747315      23.79853
2011    27      4       0.07829344      24.0268
2011    27      5       0.08085513      24.63701
2011    27      6       0.07834488      24.02652
2011    27      7       0.08517418      25.71845
2011    28      0       0.09428471      27.95634
2011    28      1       0.08463393      25.83137
2011    28      2       0.0880072       26.48172
2011    28      3       0.1146737       32.58293
2011    28      4       0.150072        40.72284
2011    28      5       0.2044992       52.94441
2011    28      6       0.287097        70.37517
2011    28      7       0.3725461       87.15455
2011    29      0       0.3947023       91.30002
2011    29      1       0.2493669       63.16233
2011    29      2       0.2379748       61.11573
2011    29      3       0.2752873       68.83379
2011    29      4       0.2949323       72.76985
2011    29      5       0.2857146       71.04728
2011    29      6       0.2454464       62.83994
2011    29      7       0.2305107       59.65686
2011    30      0       0.2271956       58.88693
2011    30      1       0.2419818       61.97834
2011    30      2       0.2505307       63.66348
2011    30      3       0.2456759       62.62113
2011    30      4       0.247295        62.77508
2011    30      5       0.2430674       61.76034
2011    30      6       0.2486693       62.85238
2011    30      7       0.2440313       61.82193
2012    1       0       0.2204876       57.09263
2012    1       1       0.3416517       81.33497
2012    1       2       0.3575013       84.31992
2012    1       3       0.3233816       77.8418
2012    1       4       0.2943456       72.3339
2012    1       5       0.2315235       59.598
2012    1       6       0.194245        51.52105
2012    1       7       0.163329        44.61168
2012    2       0       0.166103        45.31276
2012    2       1       0.2103855       55.20381
2012    2       2       0.1844207       49.44643
2012    2       3       0.1614546       44.07204
2012    2       4       0.1394729       38.96922
2012    2       5       0.1288714       36.42203
2012    2       6       0.1267696       35.90007
2012    2       7       0.1266568       35.9251
2012    3       0       0.1449415       40.15495
2012    3       1       0.1903856       50.525
2012    3       2       0.1646984       44.72249
2012    3       3       0.1367031       38.21528
2012    3       4       0.1244378       35.3868
2012    3       5       0.1186894       34.19599
2012    3       6       0.1265274       36.11123
2012    3       7       0.1345268       38.1076
2012    4       0       0.1397048       39.39049
2012    4       1       0.1322905       37.80667
2012    4       2       0.1000288       30.30974
2012    4       3       0.0766887       24.56789
2012    4       4       0.06353812      20.98762
2012    4       5       0.06849008      22.02947
2012    4       6       0.08408421      25.73587
2012    4       7       0.105949        30.79087
2012    5       0       0.1296148       36.2639
2012    5       1       0.162004        43.93891
2012    5       2       0.1923454       51.02965
2012    5       3       0.1969291       52.28842
2012    5       4       0.2176323       56.87091
2012    5       5       0.2574606       65.30238
2012    5       6       0.3038355       74.65535
2012    5       7       0.34404         82.48405
2012    6       0       0.3615892       85.92582
2012    6       1       0.3732439       88.08458
2012    6       2       0.384074        90.01508
2012    6       3       0.3990061       92.6382
2012    6       4       0.4002879       92.82192
2012    6       5       0.3967232       92.03882
2012    6       6       0.3588194       84.84378
2012    6       7       0.2906724       71.66309
2012    7       0       0.2522339       63.82719
2012    7       1       0.2539165       64.2309
2012    7       2       0.2354177       60.32989
2012    7       3       0.2073807       54.22979
2012    7       4       0.1921626       50.88851
2012    7       5       0.2134797       55.46832
2012    7       6       0.2463066       62.35714
2012    7       7       0.2477584       62.68058
2012    8       0       0.2837114       70.01529
2012    8       1       0.4606208       103.5487
2012    8       2       0.6350935       130.5
2012    8       3       0.6399477       131.0791
2012    8       4       0.4211554       96.21051
2012    8       5       0.3340202       80.36116
2012    8       6       0.2134246       55.71569
2012    8       7       0.213991        55.51706
2012    9       0       0.2098037       54.90449
2012    9       1       0.1527497       42.58911
2012    9       2       0.1538529       41.97553
2012    9       3       0.3041538       72.12007
2012    9       4       0.4515972       101.0133
2012    9       5       0.5183986       113.2035
2012    9       6       0.6298335       129.2537
2012    9       7       0.7565662       146.0057
2012    10      0       0.7116619       138.1473
2012    10      1       0.7464344       142.1161
2012    10      2       0.7931282       147.487
2012    10      3       0.8336373       152.4309
2012    10      4       0.7950767       147.4867
2012    10      5       0.5958549       121.8975
2012    10      6       0.4764177       103.5292
2012    10      7       0.4144371       93.45387
2012    11      0       0.411615        93.26705
2012    11      1       0.3743562       86.80697
2012    11      2       0.340712        80.64423
2012    11      3       0.2757528       68.36618
2012    11      4       0.2319468       59.68828
2012    11      5       0.2006234       53.04909
2012    11      6       0.1613679       44.29325
2012    11      7       0.1316546       36.72017
2012    12      0       0.3151068       74.23907
2012    12      1       0.4132475       93.74715
2012    12      2       0.4784394       105.1976
2012    12      3       0.2274477       58.18084
2012    12      4       0.2634106       64.77888
2012    12      5       0.4274524       94.88287
2012    12      6       0.5419254       115.5358
2012    12      7       0.2755824       68.33261
2012    13      0       0.2543782       63.04668
2012    13      1       0.2007901       53.13994
2012    13      2       0.1285975       36.47255
2012    13      3       0.1267359       35.95424
2012    13      4       0.1277012       36.25884
2012    13      5       0.0985298       29.67071
2012    13      6       0.1215479       35.22068
2012    13      7       0.1329181       37.83373
2012    14      0       0.1553971       42.66132
2012    14      1       0.1261466       36.0296
2012    14      2       0.1760447       47.47973
2012    14      3       0.270847        67.75275
2012    14      4       0.3052177       74.23665
2012    14      5       0.2996206       72.30395
2012    14      6       0.270328        66.7617
2012    14      7       0.2555224       64.08985
2012    15      0       0.2446874       61.98637
2012    15      1       0.2671201       66.41692
2012    15      2       0.2952452       71.91923
2012    15      3       0.341986        79.8764
2012    15      4       0.6073286       123.253
2012    15      5       0.5610921       117.349
2012    15      6       0.5714569       118.9995
2012    15      7       0.4508782       100.8564
2012    16      0       0.3513316       83.49963
2012    16      1       0.2723476       68.04621
2012    16      2       0.3678824       86.4159
2012    16      3       0.3971799       91.20974
2012    16      4       0.4580053       101.2131
2012    16      5       0.5127754       109.0093
2012    16      6       0.5110771       109.8538
2012    16      7       0.4886873       106.6673
2012    17      0       0.2577113       64.58507
2012    17      1       0.1044083       30.68712
2012    17      2       0.1013738       29.46113
2012    17      3       0.1097094       31.24916
2012    17      4       0.1182017       32.98418
2012    17      5       0.1443188       38.88458
2012    17      6       0.1499202       40.06166
2012    17      7       0.2402573       59.72506
2012    18      0       0.2772303       67.73012
2012    18      1       0.223954        57.30536
2012    18      2       0.1799635       47.92187
2012    18      3       0.1711529       45.7818
2012    18      4       0.1779799       47.25824
2012    18      5       0.2024496       52.73615
2012    18      6       0.2430951       61.42812
2012    18      7       0.2783942       68.67975
2012    19      0       0.2448842       61.9515
2012    19      1       0.231798        59.25618
2012    19      2       0.2138109       55.39828
2012    19      3       0.1828047       48.73337
2012    19      4       0.16682         45.2568
2012    19      5       0.1516046       41.87665
2012    19      6       0.152423        42.09538
2012    19      7       0.146522        40.79173
2012    20      0       0.1545913       42.70329
2012    20      1       0.1546027       42.69161
2012    20      2       0.1442668       40.17668
2012    20      3       0.1275054       36.24654
2012    20      4       0.1317025       37.3211
2012    20      5       0.1489408       41.35776
2012    20      6       0.1685484       45.71699
2012    20      7       0.1786549       47.8071
2012    21      0       0.1687007       45.58817
2012    21      1       0.1703242       46.0512
2012    21      2       0.1575816       43.14899
2012    21      3       0.1454996       40.25895
2012    21      4       0.1387465       38.81712
2012    21      5       0.1392319       38.84528
2012    21      6       0.203132        52.49365
2012    21      7       0.2593674       63.93326
2012    22      0       0.2527468       62.86153
2012    22      1       0.2602826       64.14871
2012    22      2       0.2608436       64.00447
2012    22      3       0.2400541       59.89587
2012    22      4       0.2110402       53.9071
2012    22      5       0.208913        53.5779
2012    22      6       0.2070508       53.32431
2012    22      7       0.2145176       54.88364
2012    23      0       0.1998587       51.99126
2012    23      1       0.174753        46.71146
2012    23      2       0.1511078       41.50082
2012    23      3       0.1455448       40.39569
2012    23      4       0.1546562       42.66658
2012    23      5       0.1388565       39.21648
2012    23      6       0.1301579       37.20415
2012    23      7       0.134746        38.29572
2012    24      0       0.1114445       32.84151
2012    24      1       0.09856807      29.78882
2012    24      2       0.09466658      28.85792
2012    24      3       0.079663        25.06716
2012    24      4       0.07719315      24.38983
2012    24      5       0.0734833       23.36537
2012    24      6       0.07180334      22.8606
2012    24      7       0.07204654      22.91777
2012    25      0       0.07009531      22.28008
2012    25      1       0.0725888       22.79733
2012    25      2       0.06815946      22.02694
2012    25      3       0.07857717      24.79462
2012    25      4       0.08266413      25.63917
2012    25      5       0.06998958      22.43894
2012    25      6       0.05923771      19.59607
2012    25      7       0.06778404      21.6942
2012    26      0       0.08869794      26.34412
2012    26      1       0.1568269       41.82775
2012    26      2       0.2413403       59.50799
2012    26      3       0.3086777       73.18401
2012    26      4       0.6651025       131.5063
2012    26      5       0.7618401       145.0865
2012    26      6       0.7902939       149.3442
2012    26      7       0.7692699       145.8387
2012    27      0       0.9134408       160.3863
2012    27      1       0.4614953       102.0288
2012    27      2       0.7402839       142.4257
2012    27      3       0.6430285       128.3159
2012    27      4       0.6866772       134.6732
2012    27      5       0.5350237       112.4255
2012    27      6       0.2179325       56.07403
2012    27      7       0.13849         38.71682
2012    28      0       0.1037948       30.21099
2012    28      1       0.1155151       33.11621
2012    28      2       0.1300555       36.77128
2012    28      3       0.1317196       37.26344
2012    28      4       0.2103875       54.75462
2012    28      5       0.2162242       56.13774
2012    28      6       0.2937249       72.24385
2012    28      7       0.2494175       63.06127
2012    29      0       0.3557532       84.04561
2012    29      1       0.4477502       99.98162
2012    29      2       0.5510321       115.1479
2012    29      3       0.4891454       104.4228
2012    29      4       0.3026233       71.10726
2012    29      5       0.2996476       70.54135
2012    29      6       0.1561572       42.4924
2012    29      7       0.2413669       60.81285
2012    30      0       0.3167057       75.18955
2012    30      1       0.4280824       95.39842
2012    30      2       0.4540275       99.64383
2012    30      3       0.2328108       59.04333
2012    30      4       0.09197535      27.45281
2012    30      5       0.06406995      20.62833
2012    30      6       0.08124527      24.65995
2012    30      7       0.1107789       31.86069
2013    1       0       0.1543825       42.14839
2013    1       1       0.1924163       50.78048
2013    1       2       0.2209094       56.95382
2013    1       3       0.207841        54.26286
2013    1       4       0.1788022       47.8174
2013    1       5       0.1600598       43.5283
2013    1       6       0.177256        47.24649
2013    1       7       0.2016211       53.02761
2013    2       0       0.2106408       55.08771
2013    2       1       0.1700518       46.24494
2013    2       2       0.2574718       65.68568
2013    2       3       0.4777416       106.5742
2013    2       4       0.766616        148.195
2013    2       5       0.7844282       150.1807
2013    2       6       0.4817752       106.2293
2013    2       7       0.5825241       121.2486
2013    3       0       0.802383        148.7403
2013    3       1       0.2998223       72.09796
2013    3       2       0.186362        49.29711
2013    3       3       0.2276863       57.58932
2013    3       4       0.3414655       79.42624
2013    3       5       0.2002228       51.46145
2013    3       6       0.1310426       36.36857
2013    3       7       0.1423672       38.93337
2013    4       0       0.2080705       52.96879
2013    4       1       0.2724619       65.85657
2013    4       2       0.3129337       73.63087
2013    4       3       0.2254448       56.98998
2013    4       4       0.2157491       54.87139
2013    4       5       0.2087908       53.24463
2013    4       6       0.298881        71.30631
2013    4       7       0.3952161       88.25355
2013    5       0       0.5513839       112.036
2013    5       1       0.6053893       119.9237
2013    5       2       0.3257448       76.6101
2013    5       3       0.1562818       42.33716
2013    5       4       0.1081108       31.20609
2013    5       5       0.08139595      24.81307
2013    5       6       0.08283807      25.04481
2013    5       7       0.08363615      25.12951
2013    6       0       0.1115954       31.75218
2013    6       1       0.1572567       42.3796
2013    6       2       0.1536052       41.75249
2013    6       3       0.1455934       39.7983
2013    6       4       0.2060122       52.79939
2013    6       5       0.2649767       65.08694
2013    6       6       0.3329652       78.18997
2013    6       7       0.4065794       91.22574
2013    7       0       0.4869058       104.1406
2013    7       1       0.5111678       107.6381
2013    7       2       0.5689109       116.2797
2013    7       3       0.5925503       120.4767
2013    7       4       0.5897785       120.2909
2013    7       5       0.5329398       111.943
2013    7       6       0.5055172       107.9683
2013    7       7       0.484725        104.6369
2013    8       0       0.5514117       115.1564
2013    8       1       0.6214373       125.4007
2013    8       2       0.6364336       127.7165
2013    8       3       0.5906765       121.219
2013    8       4       0.6012361       122.5314
2013    8       5       0.6917728       134.4709
2013    8       6       0.5838222       120.3869
2013    8       7       0.2802153       69.0811
2013    9       0       0.09701317      28.80908
2013    9       1       0.09010078      26.953
2013    9       2       0.06762845      21.40057
2013    9       3       0.07796875      23.74981
2013    9       4       0.08972207      26.71303
2013    9       5       0.1281662       35.68038
2013    9       6       0.1447526       39.37607
2013    9       7       0.1277776       35.62076
2013    10      0       0.1048052       30.4841
2013    10      1       0.1270599       36.01506
2013    10      2       0.1377235       38.68614
2013    10      3       0.0877197       26.7272
2013    10      4       0.08857003      26.90424
2013    10      5       0.1287291       36.68501
2013    10      6       0.1833994       49.29229
2013    10      7       0.186642        49.89168
2013    11      0       0.288522        71.26384
2013    11      1       0.3358735       80.24872
2013    11      2       0.4041394       92.60152
2013    11      3       0.71604         140.4455
2013    11      4       0.6531903       131.4489
2013    11      5       0.4526602       101.8933
2013    11      6       0.1626232       43.80234
2013    11      7       0.2978901       72.59852
2013    12      0       0.3208914       77.43988
2013    12      1       0.3148437       76.29867
2013    12      2       0.3012414       73.48167
2013    12      3       0.2886026       70.83202
2013    12      4       0.3049072       73.8742
2013    12      5       0.3186926       76.49156
2013    12      6       0.3427529       81.15133
2013    12      7       0.3399602       80.70414
2013    13      0       0.3483195       82.10403
2013    13      1       0.4866572       105.8249
2013    13      2       0.3851043       88.77652
2013    13      3       0.2763963       68.28724
2013    13      4       0.2348428       60.10613
2013    13      5       0.2254115       58.18208
2013    13      6       0.1916659       51.10518
2013    13      7       0.1365148       38.78379
2013    14      0       0.1043168       31.03107
2013    14      1       0.1057804       31.43735
2013    14      2       0.2289471       59.38048
2013    14      3       0.1962303       52.28676
2013    14      4       0.2859512       71.02553
2013    14      5       0.4258812       96.97212
2013    14      6       0.4148916       94.87347
2013    14      7       0.4046503       92.92077
2013    15      0       0.3990839       91.99175
2013    15      1       0.3402719       80.99286
2013    15      2       0.3044588       73.79344
2013    15      3       0.324922        77.27891
2013    15      4       0.3252287       77.36063
2013    15      5       0.3454105       81.19138
2013    15      6       0.4349219       97.02735
2013    15      7       0.4959341       106.8108
2013    16      0       0.5809064       119.6407
2013    16      1       0.6673552       131.964
2013    16      2       0.7223958       139.2881
2013    16      3       0.8029847       149.6001
2013    16      4       0.8457769       155.3242
2013    16      5       0.8623398       157.5765
2013    16      6       0.8210519       153.2262
2013    16      7       0.8110132       152.1674
2013    17      0       0.7465876       144.3217
2013    17      1       0.6150969       126.8393
2013    17      2       0.4704436       104.369
2013    17      3       0.3524052       83.93736
2013    17      4       0.3633626       85.82699
2013    17      5       0.379036        88.75514
2013    17      6       0.3674783       86.54029
2013    17      7       0.3534759       83.84752
2013    18      0       0.3542679       84.20063
2013    18      1       0.4309656       98.11323
2013    18      2       0.428945        97.76087
2013    18      3       0.3563663       84.63148
2013    18      4       0.361393        86.0108
2013    18      5       0.3402668       81.69213
2013    18      6       0.3950626       90.91352
2013    18      7       0.4774634       104.444
2013    19      0       0.4915136       106.2669
2013    19      1       0.5467767       114.3864
2013    19      2       0.4796247       103.7486
2013    19      3       0.4763101       103.9248
2013    19      4       0.5629181       117.3429
2013    19      5       0.6920259       134.3552
2013    19      6       0.672277        130.7434
2013    19      7       0.6012659       121.2647
2013    20      0       0.5971255       120.8449
2013    20      1       0.5829218       119.2499
2013    20      2       0.6645202       130.472
2013    20      3       0.6822615       133.2142
2013    20      4       0.5671673       117.8424
2013    20      5       0.5842587       120.1678
2013    20      6       0.713238        138.5267
2013    20      7       0.6231264       126.745
2013    21      0       0.7051343       137.8132
2013    21      1       0.8442699       154.1497
2013    21      2       0.9296159       164.4941
2013    21      3       0.7827505       148.5628
2013    21      4       0.6245956       128.0729
2013    21      5       0.6004099       124.7605
2013    21      6       0.6011482       124.6011
2013    21      7       1.02508         174.3305
2013    22      0       0.8327158       153.2521
2013    22      1       0.7228717       140.0779
2013    22      2       0.8954134       159.7668
2013    22      3       0.7120749       138.7373
2013    22      4       0.4964373       107.6749
2013    22      5       0.483519        105.1739
2013    22      6       0.4210339       94.66677
2013    22      7       0.3630049       84.25794
2013    23      0       0.4311198       96.23274
2013    23      1       0.9170615       162.2166
2013    23      2       0.6820735       134.295
2013    23      3       0.5141177       110.0378
2013    23      4       0.4446323       98.42883
2013    23      5       0.4635933       101.4997
2013    23      6       0.5488337       114.9048
2013    23      7       0.5368785       112.5882
2013    24      0       0.6399471       128.5106
2013    24      1       0.5190964       111.4604
2013    24      2       0.2406103       60.83616
2013    24      3       0.3857146       88.59648
2013    24      4       0.5867385       120.7393
2013    24      5       0.6742491       133.1548
2013    24      6       0.4304019       96.12478
2013    24      7       0.3566898       83.22432
2013    25      0       0.34675         81.25169
2013    25      1       0.3692699       85.48838
2013    25      2       0.4585305       101.8026
2013    25      3       0.4563159       100.5449
2013    25      4       0.1782545       46.584
2013    25      5       0.1995524       51.40161
2013    25      6       0.3267814       76.21694
2013    25      7       0.387145        86.762
2013    26      0       0.4900381       105.7041
2013    26      1       0.5323584       113.4489
2013    26      2       0.5473378       115.1502
2013    26      3       0.2015793       52.54997
2013    26      4       0.2163414       54.41174
2013    26      5       0.4363821       97.44535
2013    26      6       0.48982         106.702
2013    26      7       0.6550182       131.7315
2013    27      0       0.6932164       136.8232
2013    27      1       0.5033001       108.8715
2013    27      2       0.2658116       65.48519
2013    27      3       0.2997611       72.49567
2013    27      4       0.3355366       80.12724
2013    27      5       0.4086047       93.47321
2013    27      6       0.3807573       88.28684
2013    27      7       0.2543105       63.89013
2013    28      0       0.1838977       48.59902
2013    28      1       0.2156013       56.04133
2013    28      2       0.3040894       74.17427
2013    28      3       0.4931224       108.783
2013    28      4       0.7535237       146.9145
2013    28      5       0.6304778       130.1683
2013    28      6       0.5201266       112.7897
2013    28      7       0.4530004       101.3863
2013    29      0       0.2859688       69.84821
2013    29      1       0.2372295       59.70719
2013    29      2       0.2721417       67.14416
2013    29      3       0.314829        75.52718
2013    29      4       0.4337097       96.81661
2013    29      5       0.5884047       120.8183
2013    29      6       0.503772        107.606
2013    29      7       0.2177116       55.20306
2013    30      0       0.2286848       57.30136
2013    30      1       0.3157815       74.19978
2013    30      2       0.2262938       57.14321
2013    30      3       0.07931182      24.30435
2013    30      4       0.06321117      20.34114
2013    30      5       0.06778121      21.49433
2013    30      6       0.0777601       23.80533
2013    30      7       0.08063951      24.52232
2014    1       0       0.2111411       53.77991
2014    1       1       0.2448051       60.53867
2014    1       2       0.3096051       72.67313
2014    1       3       0.2549837       62.22332
2014    1       4       0.1912362       49.21474
2014    1       5       0.1505725       40.51601
2014    1       6       0.1953314       50.2707
2014    1       7       0.2444861       60.56166
2014    2       0       0.2694804       65.8057
2014    2       1       0.3582385       83.74399
2014    2       2       0.4385894       98.48098
2014    2       3       0.494645        107.533
2014    2       4       0.4855813       106.0106
2014    2       5       0.4039502       91.93218
2014    2       6       0.3853828       88.34031
2014    2       7       0.4256257       95.12997
2014    3       0       0.4374357       97.63514
2014    3       1       0.5124926       111.4698
2014    3       2       0.4477418       101.4461
2014    3       3       0.3646519       86.73068
2014    3       4       0.3086097       75.77789
2014    3       5       0.2658856       66.87415
2014    3       6       0.3171269       77.08062
2014    3       7       0.3642267       86.05803
2014    4       0       0.3770961       88.42063
2014    4       1       0.5695627       120.6352
2014    4       2       0.5987862       124.9738
2014    4       3       0.5579306       117.7206
2014    4       4       0.6475066       130.1282
2014    4       5       0.658529        131.1976
2014    4       6       0.6656675       132.5685
2014    4       7       0.7497861       143.989
2014    5       0       0.8931348       161.6654
2014    5       1       1.055605        178.5813
2014    5       2       0.7849957       149.5006
2014    5       3       0.5188779       112.3986
2014    5       4       0.5096843       110.8795
2014    5       5       0.5116944       110.9227
2014    5       6       0.4208437       96.09324
2014    5       7       0.3918167       90.7789
2014    6       0       0.4946964       108.3398
2014    6       1       0.8242296       153.8717
2014    6       2       0.9587928       168.1361
2014    6       3       1.037537        174.8381
2014    6       4       0.9855363       169.9739
2014    6       5       0.8612915       157.4539
2014    6       6       0.982686        170.172
2014    6       7       0.8767205       158.5813
2014    7       0       0.9329819       164.5829
2014    7       1       0.8266999       153.3921
2014    7       2       0.7570692       145.0383
2014    7       3       0.6502455       131.4911
2014    7       4       0.4665435       103.647
2014    7       5       0.3548873       83.99705
2014    7       6       0.2474981       62.97658
2014    7       7       0.1209825       34.99256
2014    8       0       0.08020263      25.13535
2014    8       1       0.07419169      23.65511
2014    8       2       0.1368747       38.92847
2014    8       3       0.2759418       69.33468
2014    8       4       0.3450772       82.96718
2014    8       5       0.3472447       83.45531
2014    8       6       0.3196189       78.25804
2014    8       7       0.2955874       73.52414
2014    9       0       0.2953185       73.46371
2014    9       1       0.2935541       73.11533
2014    9       2       0.2387669       61.52335
2014    9       3       0.2129269       55.36994
2014    9       4       0.3793918       87.56712
2014    9       5       0.6186948       126.5905
2014    9       6       0.7137832       139.2749
2014    9       7       0.8513095       155.3567
2014    10      0       0.7383216       142.6934
2014    10      1       0.6585901       132.4103
2014    10      2       0.6407679       129.9518
2014    10      3       0.628947        128.3145
2014    10      4       0.5972282       123.8904
2014    10      5       0.6407023       129.8562
2014    10      6       0.6846692       135.9032
2014    10      7       0.7033544       138.0505
2014    11      0       0.8279557       153.9013
2014    11      1       1.181607        188.7762
2014    11      2       0.945153        167.0705
2014    11      3       0.9707021       170.2144
2014    11      4       1.15951         188.0339
2014    11      5       1.223279        193.2437
2014    11      6       1.195347        190.6134
2014    11      7       0.9399716       166.7954
2014    12      0       0.6041943       125.289
2014    12      1       0.6425163       130.9952
2014    12      2       0.5667446       120.0743
2014    12      3       0.5031332       110.1222
2014    12      4       0.4938603       108.2905
2014    12      5       0.4854865       106.5909
2014    12      6       0.5079222       109.9431
2014    12      7       0.4669933       103.2085
2014    13      0       0.4233546       95.89393
2014    13      1       0.3904055       90.29972
2014    13      2       0.3509795       83.50011
2014    13      3       0.3236739       78.37834
2014    13      4       0.2817776       70.24377
2014    13      5       0.2691281       67.74302
2014    13      6       0.3831379       89.48186
2014    13      7       0.6261974       127.889
2014    14      0       0.9666269       167.9533
2014    14      1       1.045894        176.527
2014    14      2       0.7960196       150.6423
2014    14      3       0.6905786       137.9971
2014    14      4       0.7299972       141.7657
2014    14      5       1.009055        172.5388
2014    14      6       0.9570516       167.8704
2014    14      7       0.9616448       167.7693
2014    15      0       0.9747711       168.9936
2014    15      1       0.953756        168.7989
2014    15      2       1.04067         176.3631
2014    15      3       1.035447        176.14
2014    15      4       0.5906094       123.5497
2014    15      5       0.5702405       118.9781
2014    15      6       0.763495        144.6926
2014    15      7       1.453593        208.3238
2014    16      0       1.2256          192.0216
2014    16      1       1.059063        177.3262
2014    16      2       0.9004582       160.5583
2014    16      3       0.7594322       144.0376
2014    16      4       0.5793008       119.5546
2014    16      5       0.4585988       100.2898
2014    16      6       0.361568        83.59114
2014    16      7       0.3289113       77.48786
2014    17      0       0.3710203       85.23502
2014    17      1       0.7019587       135.8472
2014    17      2       1.000147        171.234
2014    17      3       0.9927072       171.1007
2014    17      4       0.9032057       162.0103
2014    17      5       1.027501        175.5466
2014    17      6       1.262934        196.5207
2014    17      7       1.200724        191.9226
2014    18      0       0.9399376       166.9627
2014    18      1       0.8763958       159.2651
2014    18      2       0.9308117       164.2963
2014    18      3       0.9369152       165.1311
2014    18      4       0.8240764       153.4491
2014    18      5       0.7633641       144.8516
2014    18      6       0.6017232       123.0862
2014    18      7       0.6756835       135.5525
2014    19      0       0.6695588       134.2276
2014    19      1       0.7254877       140.8283
2014    19      2       0.7052044       138.6292
2014    19      3       0.6135982       125.803
2014    19      4       0.3464744       82.41061
2014    19      5       0.2646303       66.21146
2014    19      6       0.4514268       100.0597
2014    19      7       0.5473029       115.6348
2014    20      0       0.5350571       113.3868
2014    20      1       0.5077376       108.5296
2014    20      2       0.6180955       126.042
2014    20      3       0.4374675       97.63747
2014    20      4       0.313967        75.20605
2014    20      5       0.3108487       74.36882
2014    20      6       0.5386929       113.283
2014    20      7       0.3252228       78.02658
2014    21      0       0.2977824       72.03581
2014    21      1       0.4289764       95.93773
2014    21      2       0.4493904       98.83376
2014    21      3       0.3948464       89.5009
2014    21      4       0.3894433       89.09617
2014    21      5       0.4811228       104.4845
2014    21      6       0.5734222       118.4064
2014    21      7       0.5240924       110.9909
2014    22      0       0.4386954       97.52617
2014    22      1       0.3925507       89.79678
2014    22      2       0.3075675       74.20027
2014    22      3       0.137765        38.23872
2014    22      4       0.1340604       36.80804
2014    22      5       0.2098581       53.40042
2014    22      6       0.4314354       96.14866
2014    22      7       0.6340252       127.5916
2014    23      0       0.6607107       130.763
2014    23      1       0.6339156       127.3131
2014    23      2       0.6240991       126.3769
2014    23      3       0.6548793       130.3077
2014    23      4       0.6723261       133.2585
2014    23      5       0.500459        108.987
2014    23      6       0.279798        69.41356
2014    23      7       0.1365883       38.35221
2014    24      0       0.2933382       72.11546
2014    24      1       0.6240718       127.5478
2014    24      2       0.6783786       134.6348
2014    24      3       0.5492607       115.3207
2014    24      4       0.7595892       144.2217
2014    24      5       0.6279721       128.6052
2014    24      6       0.7096402       138.621
2014    24      7       0.6360704       128.9175
2014    25      0       0.4221071       96.59114
2014    25      1       0.2273857       58.58092
2014    25      2       0.09012404      27.23935
2014    25      3       0.06417764      20.81844
2014    25      4       0.1103775       31.96526
2014    25      5       0.1275915       35.75731
2014    25      6       0.1261076       35.23307
2014    25      7       0.1325344       36.77
2014    26      0       0.1528301       41.54915
2014    26      1       0.1595479       43.28681
2014    26      2       0.1669633       44.89565
2014    26      3       0.161182        43.37147
2014    26      4       0.1532799       41.38094
2014    26      5       0.1437949       39.33465
2014    26      6       0.1298069       36.12693
2014    26      7       0.110483        31.36781
2014    27      0       0.2312143       56.71894
2014    27      1       0.5001965       106.4373
2014    27      2       0.7189194       138.4696
2014    27      3       0.6048084       123.4503
2014    27      4       0.4567933       100.1035
2014    27      5       0.3859505       87.48637
2014    27      6       0.4774012       102.4508
2014    27      7       0.5980502       121.1076
2014    28      0       0.6578446       129.1449
2014    28      1       0.5370835       112.0089
2014    28      2       0.5458454       113.3947
2014    28      3       0.4894854       105.4849
2014    28      4       0.4823049       104.3108
2014    28      5       0.2000284       52.11057
2014    28      6       0.1114219       32.12517
2014    28      7       0.1056969       30.71904
2014    29      0       0.1274538       35.92474
2014    29      1       0.1299308       36.48736
2014    29      2       0.1328577       37.22755
2014    29      3       0.2072538       54.35052
2014    29      4       0.1437006       40.18708
2014    29      5       0.0581949       19.21243
2014    29      6       0.06460949      20.64525
2014    29      7       0.1156544       32.83946
2014    30      0       0.107298        31.10887
2014    30      1       0.1222572       34.4955
2014    30      2       0.1368725       37.92369
2014    30      3       0.1274815       36.00048
2014    30      4       0.1235088       35.41897
2014    30      5       0.1174321       34.10117
2014    30      6       0.1077851       31.85981
2014    30      7       0.1043841       31.09457
2015    1       0       0.2527168       63.27585
2015    1       1       0.2550696       63.63244
2015    1       2       0.2717086       67.53162
2015    1       3       0.2579192       64.70039
2015    1       4       0.2753072       68.06942
2015    1       5       0.2740095       67.77404
2015    1       6       0.2455575       61.98347
2015    1       7       0.2044691       53.39925
2015    2       0       0.1754344       47.15426
2015    2       1       0.1750834       47.16237
2015    2       2       0.1792187       47.97395
2015    2       3       0.2181215       56.56919
2015    2       4       0.2358562       60.50951
2015    2       5       0.242124        61.74655
2015    2       6       0.220923        57.32714
2015    2       7       0.171682        46.59967
2015    3       0       0.1368534       38.68893
2015    3       1       0.1208231       34.87415
2015    3       2       0.104162        30.962
2015    3       3       0.09850003      29.82766
2015    3       4       0.1122256       33.20312
2015    3       5       0.2298938       59.77943
2015    3       6       0.651923        132.5364
2015    3       7       0.4338631       99.2594
2015    4       0       0.1855652       49.95356
2015    4       1       0.210049        55.3939
2015    4       2       0.3325132       80.16525
2015    4       3       0.3039016       74.5315
2015    4       4       0.1615764       44.2251
2015    4       5       0.1747514       47.10845
2015    4       6       0.1581457       43.39706
2015    4       7       0.1657379       45.21118
2015    5       0       0.1608591       44.28092
2015    5       1       0.1581399       43.47043
2015    5       2       0.2337973       59.92689
2015    5       3       0.2526543       63.27132
2015    5       4       0.2711237       66.87525
2015    5       5       0.3536283       82.1957
2015    5       6       0.6144843       124.4619
2015    5       7       0.578928        119.7488
2015    6       0       0.7047171       138.0184
2015    6       1       0.4222538       94.68033
2015    6       2       0.8887627       161.9978
2015    6       3       0.9336227       168.421
2015    6       4       0.6091768       129.0125
2015    6       5       0.6848933       138.6754
2015    6       6       0.4835095       108.6012
2015    6       7       0.3191898       77.87109
2015    7       0       0.267466        67.31874
2015    7       1       0.3168977       77.32164
2015    7       2       0.3293908       79.77269
2015    7       3       0.298919        73.66717
2015    7       4       0.4524006       101.6583
2015    7       5       0.6993342       138.7772
2015    7       6       0.8299628       155.52
2015    7       7       0.6334064       130.0575
2015    8       0       0.5064911       110.341
2015    8       1       0.575751        120.3084
2015    8       2       0.5806129       121.0775
2015    8       3       0.5084828       110.6092
2015    8       4       0.4393033       99.46611
2015    8       5       0.4329664       98.28379
2015    8       6       0.3618663       85.89973
2015    8       7       0.3079055       75.54236
2015    9       0       0.4670499       103.9766
2015    9       1       0.7878196       149.9246
2015    9       2       0.7650719       147.8661
2015    9       3       0.7229286       142.2893
2015    9       4       1.034326        176.8653
2015    9       5       0.7370892       142.8083
2015    9       6       0.6423262       129.9732
2015    9       7       0.6085261       124.819
2015    10      0       0.9252089       163.5587
2015    10      1       1.246887        192.8392
2015    10      2       0.8846098       160.0166
2015    10      3       0.3230303       77.80126
2015    10      4       0.2011142       52.4515
2015    10      5       0.2011514       52.42322
2015    10      6       0.2611107       64.65589
2015    10      7       0.2982995       71.78663
2015    11      0       0.340831        80.16932
2015    11      1       0.293573        71.41532
2015    11      2       0.2331527       58.79522
2015    11      3       0.2306798       58.55689
2015    11      4       0.21339         55.47126
2015    11      5       0.1420484       39.68477
2015    11      6       0.3459345       81.92342
2015    11      7       0.4831001       105.0779
2015    12      0       0.5805087       118.6713
2015    12      1       0.4815558       104.4246
2015    12      2       0.3778847       86.6225
2015    12      3       0.5425126       113.1607
2015    12      4       0.4764539       100.9758
2015    12      5       0.4071954       89.98695
2015    12      6       0.3693043       82.21857
2015    12      7       0.2626526       62.87971
2015    13      0       0.2379249       58.17022
2015    13      1       0.3762306       83.17716
2015    13      2       0.4147228       90.5546
2015    13      3       0.385706        85.88655
2015    13      4       0.1585068       41.75824
2015    13      5       0.1158423       32.37928
2015    13      6       0.09616852      27.87769
2015    13      7       0.2326615       57.3658
2015    14      0       0.2995768       70.91693
2015    14      1       0.2254173       56.55601
2015    14      2       0.2325708       58.30037
2015    14      3       0.07481034      23.39054
2015    14      4       0.08020629      24.18451
2015    14      5       0.123615        34.15864
2015    14      6       0.167314        44.66957
2015    14      7       0.13744         38.04084
2015    15      0       0.1378068       37.9407
2015    15      1       0.1772043       46.72946
2015    15      2       0.2400734       59.98169
2015    15      3       0.1962106       51.2398
2015    15      4       0.1838251       48.67951
2015    15      5       0.207342        53.8689
2015    15      6       0.1796362       47.97082
2015    15      7       0.1531178       42.07073
2015    16      0       0.1586265       43.33359
2015    16      1       0.1649454       44.74754
2015    16      2       0.1613345       43.87393
2015    16      3       0.1388985       38.59592
2015    16      4       0.1203056       34.0981
2015    16      5       0.1373349       37.7206
2015    16      6       0.1396119       38.08207
2015    16      7       0.1862239       47.97392
2015    17      0       0.4835906       103.5026
2015    17      1       0.6665218       131.1055
2015    17      2       0.638106        127.1442
2015    17      3       0.6867253       135.1375
2015    17      4       0.3854169       88.5376
2015    17      5       0.1976951       51.74265
2015    17      6       0.1346456       37.95315
2015    17      7       0.1189321       34.3094
2015    18      0       0.1095449       32.13105
2015    18      1       0.1209923       34.80378
2015    18      2       0.1170131       33.72919
2015    18      3       0.1215797       34.89613
2015    18      4       0.1210991       34.7016
2015    18      5       0.1408118       39.17903
2015    18      6       0.219953        56.71183
2015    18      7       0.4588853       101.8677
2015    19      0       0.7671813       146.2931
2015    19      1       0.8717257       158.65
2015    19      2       0.789066        149.1335
2015    19      3       0.6618274       132.9721
2015    19      4       0.6287031       128.5647
2015    19      5       0.6781134       135.3941
2015    19      6       0.6967982       137.1445
2015    19      7       0.7900228       148.9227
2015    20      0       1.101557        181.5931
2015    20      1       1.11791         183.6323
2015    20      2       0.7943571       150.0873
2015    20      3       0.8001159       150.6398
2015    20      4       0.7591768       145.3065
2015    20      5       0.6777003       134.5797
2015    20      6       0.9231321       162.6222
2015    20      7       0.8737485       157.0036
2015    21      0       0.7440613       141.4711
2015    21      1       0.7807107       146.8029
2015    21      2       0.9213222       163.2332
2015    21      3       0.7530756       144.3586
2015    21      4       0.789155        149.1047
2015    21      5       0.6988241       137.8734
2015    21      6       0.5961909       123.9105
2015    21      7       0.4654345       103.5765
2015    22      0       0.3910123       91.10825
2015    22      1       0.3809556       89.49366
2015    22      2       0.3577182       85.29871
2015    22      3       0.3407519       82.04451
2015    22      4       0.3265877       79.41941
2015    22      5       0.3445146       82.85183
2015    22      6       0.3781857       89.1508
2015    22      7       0.3801539       89.40187
2015    23      0       0.3772776       88.77997
2015    23      1       0.4840359       107.451
2015    23      2       0.3998531       92.9812
2015    23      3       0.3512544       83.97735
2015    23      4       0.3566771       84.90012
2015    23      5       0.3242237       78.77726
2015    23      6       0.2826989       70.60904
2015    23      7       0.2429411       62.46283
2015    24      0       0.2042852       54.28293
2015    24      1       0.1946424       52.22914
2015    24      2       0.1470203       41.42204
2015    24      3       0.1270857       36.68583
2015    24      4       0.1312658       37.66438
2015    24      5       0.1578134       43.88872
2015    24      6       0.2775427       69.46088
2015    24      7       0.5717018       120.2209
2015    25      0       0.8397483       156.3301
2015    25      1       0.6822427       136.8045
2015    25      2       0.6871129       137.911
2015    25      3       0.7329117       142.645
2015    25      4       0.8518532       157.0168
2015    25      5       0.9042849       162.885
2015    25      6       0.8533375       156.9589
2015    25      7       0.7761894       147.6989
2015    26      0       0.7475827       145.8424
2015    26      1       0.8788913       161.3477
2015    26      2       0.780174        149.9857
2015    26      3       0.708235        140.6572
2015    26      4       1.021912        175.0368
2015    26      5       0.7891952       149.5712
2015    26      6       0.7673978       147.2601
2015    26      7       0.6766331       134.7492
2015    27      0       1.145117        186.0189
2015    27      1       0.8929312       160.5492
2015    27      2       1.133455        183.6872
2015    27      3       0.9407655       164.3562
2015    27      4       0.7493378       141.4345
2015    27      5       0.7333999       138.6074
2015    27      6       0.5745111       116.4029
2015    27      7       0.2612984       64.07927
2015    28      0       0.1991265       51.5057
2015    28      1       0.3307861       77.58176
2015    28      2       0.3618338       83.12026
2015    28      3       0.4599012       99.27376
2015    28      4       0.3404624       79.04796
2015    28      5       0.2071556       53.09092
2015    28      6       0.268424        65.41775
2015    28      7       0.4706785       102.4986
2015    29      0       0.4932568       106.6232
2015    29      1       0.3525024       81.79652
2015    29      2       0.2652386       65.19561
2015    29      3       0.182484        47.76105
2015    29      4       0.2218412       55.91405
2015    29      5       0.1737501       45.61656
2015    29      6       0.1908586       49.44067
2015    29      7       0.1836619       47.99802
2015    30      0       0.2870278       69.54515
2015    30      1       0.3396893       79.73322
2015    30      2       0.3237022       76.82672
2015    30      3       0.4300048       96.26855
2015    30      4       0.3565955       83.18391
2015    30      5       0.3370063       79.34484
2015    30      6       0.3355052       79.01372
2015    30      7       0.1939995       50.43561
2016    1       0       0.8769995       159.2843
2016    1       1       0.8797903       159.6553
2016    1       2       1.024749        174.9139
2016    1       3       1.159774        186.9284
2016    1       4       1.050259        177.6292
2016    1       5       1.330099        201.0838
2016    1       6       1.023805        174.9312
2016    1       7       0.9156844       163.4947
2016    2       0       1.199533        191.1319
2016    2       1       1.390765        205.4206
2016    2       2       1.017203        174.8981
2016    2       3       0.8880417       161.6648
2016    2       4       0.8799102       160.6178
2016    2       5       0.8102619       152.0781
2016    2       6       0.5345531       115.1256
2016    2       7       0.5517017       116.8443
2016    3       0       0.8133881       152.809
2016    3       1       0.483864        107.5961
2016    3       2       0.08736194      26.59149
2016    3       3       0.1998369       51.82273
2016    3       4       0.3295772       77.64201
2016    3       5       0.3149228       75.24743
2016    3       6       0.3674789       85.36009
2016    3       7       0.4680988       102.9386
2016    4       0       0.3804544       87.70342
2016    4       1       0.5438021       114.8217
2016    4       2       0.2629741       65.08736
2016    4       3       0.2613663       64.5714
2016    4       4       0.2498562       62.16765
2016    4       5       0.2177042       55.35027
2016    4       6       0.2554473       62.86049
2016    4       7       0.3279256       77.36165
2016    5       0       0.3657368       84.27343
2016    5       1       0.462249        101.1453
2016    5       2       0.6113473       124.7113
2016    5       3       0.6246955       126.2479
2016    5       4       0.5581041       117.0313
2016    5       5       0.5351859       114.0368
2016    5       6       0.5005228       108.7022
2016    5       7       0.4348486       97.67538
2016    6       0       0.3604331       84.03943
2016    6       1       0.3530342       82.09767
2016    6       2       0.3648754       84.90172
2016    6       3       0.3305753       78.87994
2016    6       4       0.2591896       64.61187
2016    6       5       0.2570067       63.79612
2016    6       6       0.2875217       69.67435
2016    6       7       0.2502605       62.23998
2016    7       0       0.1921511       50.70618
2016    7       1       0.2448737       62.61483
2016    7       2       0.7052101       139.5095
2016    7       3       0.6295771       129.1802
2016    7       4       0.5002184       108.882
2016    7       5       0.5293013       112.1202
2016    7       6       0.2074877       53.90067
2016    7       7       0.0993903       29.09471
2016    8       0       0.1043881       30.2757
2016    8       1       0.1203405       34.58732
2016    8       2       0.1169941       33.84748
2016    8       3       0.1073439       31.41991
2016    8       4       0.1223244       34.83888
2016    8       5       0.1348022       37.66933
2016    8       6       0.15589         42.13432
2016    8       7       0.1711696       45.34556
2016    9       0       0.1764542       46.90055
2016    9       1       0.1970514       51.61614
2016    9       2       0.2065028       53.58335
2016    9       3       0.1735269       46.33317
2016    9       4       0.1815483       48.10032
2016    9       5       0.1802353       47.82128
2016    9       6       0.1733097       46.27644
2016    9       7       0.1635214       44.13048
2016    10      0       0.1595974       43.44133
2016    10      1       0.1712108       46.39784
2016    10      2       0.1768056       47.75528
2016    10      3       0.1715663       46.55609
2016    10      4       0.1875027       49.96473
2016    10      5       0.2225029       57.67935
2016    10      6       0.1840492       49.26527
2016    10      7       0.331665        80.08975
2016    11      0       0.4238892       97.06537
2016    11      1       0.4848739       107.6546
2016    11      2       0.5013959       110.1535
2016    11      3       0.4783817       106.2536
2016    11      4       0.6626648       133.459
2016    11      5       0.6189702       126.1856
2016    11      6       0.4674862       103.0244
2016    11      7       0.4262232       96.47746
2016    12      0       0.3025595       72.97828
2016    12      1       0.2760746       68.21282
2016    12      2       0.2897089       70.14425
2016    12      3       0.2795244       68.48518
2016    12      4       0.2418543       60.79358
2016    12      5       0.1519601       41.29263
2016    12      6       0.07926251      24.34905
2016    12      7       0.09963828      29.26394
2016    13      0       0.09043263      27.11662
2016    13      1       0.1025253       29.90629
2016    13      2       0.1018587       29.62932
2016    13      3       0.08083636      24.58536
2016    13      4       0.07010186      22.03173
2016    13      5       0.06527832      21.05488
2016    13      6       0.06233832      20.29443
2016    13      7       0.108235        31.5808
2016    14      0       0.1671861       45.1463
2016    14      1       0.1894709       50.09867
2016    14      2       0.2151757       55.84329
2016    14      3       0.24            61.20047
2016    14      4       0.2353618       60.07762
2016    14      5       0.1921701       50.70992
2016    14      6       0.191694        50.54494
2016    14      7       0.3457966       82.16214
2016    15      0       0.3563335       84.46324
2016    15      1       0.3033873       74.43002
2016    15      2       0.2698042       67.81456
2016    15      3       0.2549903       64.83257
2016    15      4       0.210333        55.18149
2016    15      5       0.193763        50.7937
2016    15      6       0.2456102       60.72825
2016    15      7       0.2704731       66.1636
2016    16      0       0.2842927       69.37814
2016    16      1       0.2687442       66.54705
2016    16      2       0.2196611       56.24481
2016    16      3       0.2334919       58.89526
2016    16      4       0.2733446       66.94373
2016    16      5       0.2483067       62.0686
2016    16      6       0.2652654       65.32574
2016    16      7       0.4198115       94.14496
2016    17      0       0.6757921       134.0903
2016    17      1       0.9034186       161.6797
2016    17      2       1.105767        181.0479
2016    17      3       0.5826268       119.7703
2016    17      4       0.1778578       47.22524
2016    17      5       0.09919523      29.4342
2016    17      6       0.1656018       44.67608
2016    17      7       0.1494632       40.83974
2016    18      0       0.1498983       41.00902
2016    18      1       0.1560277       42.47014
2016    18      2       0.1885462       49.51194
2016    18      3       0.1888198       49.43716
2016    18      4       0.1963477       50.99635
2016    18      5       0.2006929       52.1532
2016    18      6       0.1926567       50.29758
2016    18      7       0.1863209       49.07632
2016    19      0       0.2110629       54.37491
2016    19      1       0.2100512       54.04186
2016    19      2       0.1822396       48.01049
2016    19      3       0.1781438       46.78045
2016    19      4       0.1707519       45.23331
2016    19      5       0.1848219       48.10281
2016    19      6       0.1875399       48.88733
2016    19      7       0.1807173       47.73183
2016    20      0       0.1602821       43.58946
2016    20      1       0.2422939       61.68368
2016    20      2       0.3440671       81.73773
2016    20      3       0.3812578       88.28695
2016    20      4       0.402526        91.7969
2016    20      5       0.3578475       83.77263
2016    20      6       0.3021013       73.40819
2016    20      7       0.2779788       68.8206
2016    21      0       0.2844344       70.13901
2016    21      1       0.3026632       73.53931
2016    21      2       0.3098496       74.80502
2016    21      3       0.2773965       68.45257
2016    21      4       0.2576574       64.31919
2016    21      5       0.2819963       69.09687
2016    21      6       0.3023228       73.31569
2016    21      7       0.3392088       80.4285
2016    22      0       0.4361643       97.8613
2016    22      1       0.6846893       135.8976
2016    22      2       0.57617         119.5716
2016    22      3       0.4181018       94.04192
2016    22      4       0.3977081       90.91726
2016    22      5       0.6187911       126.4336
2016    22      6       0.7031859       138.2505
2016    22      7       0.737016        142.9825
2016    23      0       0.7770419       147.7454
2016    23      1       0.9590663       166.5088
2016    23      2       0.4369603       97.09728
2016    23      3       0.3086718       74.04987
2016    23      4       0.3183115       75.18559
2016    23      5       0.08997939      27.12768
2016    23      6       0.1174529       33.1171
2016    23      7       0.259259        63.47385
2016    24      0       0.3793171       87.18352
2016    24      1       0.512505        110.143
2016    24      2       0.6733337       134.1567
2016    24      3       0.4223731       95.29657
2016    24      4       0.2711243       66.51663
2016    24      5       0.1488941       40.59968
2016    24      6       0.1667008       44.25074
2016    24      7       0.2444644       61.06574
2016    25      0       0.3595215       83.60458
2016    25      1       0.3995579       90.82573
2016    25      2       0.376015        86.70737
2016    25      3       0.3435931       80.8876
2016    25      4       0.3459245       81.04648
2016    25      5       0.2747901       67.07231
2016    25      6       0.2588185       63.99579
2016    25      7       0.2850367       69.87599
2016    26      0       0.3059625       73.86223
2016    26      1       0.3434218       80.97953
2016    26      2       0.490682        106.5827
2016    26      3       0.401658        91.56762
2016    26      4       0.2353286       59.53159
2016    26      5       0.1697484       45.44856
2016    26      6       0.1699096       44.91095
2016    26      7       0.2503685       63.10061
2016    27      0       0.4136308       95.49424
2016    27      1       0.3581078       85.52319
2016    27      2       0.2417448       61.77288
2016    27      3       0.1757272       46.85749
2016    27      4       0.1136476       32.56021
2016    27      5       0.0846543       25.8029
2016    27      6       0.1000672       29.48377
2016    27      7       0.1431405       39.79745
2016    28      0       0.1636808       44.46276
2016    28      1       0.1673383       45.3641
2016    28      2       0.1499779       41.60821
2016    28      3       0.1765173       47.48694
2016    28      4       0.2228391       57.23212
2016    28      5       0.2238839       57.24925
2016    28      6       0.2012108       52.46936
2016    28      7       0.1507219       41.54516
2016    29      0       0.1378688       38.22014
2016    29      1       0.2372164       58.95424
2016    29      2       0.4304467       97.055
2016    29      3       0.4383458       98.64272
2016    29      4       0.168363        45.09485
2016    29      5       0.1098198       31.02126
2016    29      6       0.0771796       23.79261
2016    29      7       0.08494132      25.68545
2016    30      0       0.1061723       30.70422
2016    30      1       0.1299412       36.1171
2016    30      2       0.1963994       51.03475
2016    30      3       0.3300395       78.28404
2016    30      4       0.4330637       96.94973
2016    30      5       0.5017324       108.1826
2016    30      6       0.4277928       95.15335
2016    30      7       0.3945556       88.4721
2017    1       0       0.5103602       110.9043
2017    1       1       0.3668668       87.5684
2017    1       2       0.4756858       108.0064
2017    1       3       0.4217534       100.1637
2017    1       4       0.3633767       87.88816
2017    1       5       0.4079244       95.82586
2017    1       6       0.518563        114.4233
2017    1       7       0.540102        117.3792
2017    2       0       0.5890439       124.0699
2017    2       1       0.3958284       91.04364
2017    2       2       0.4072469       94.26275
2017    2       3       0.4201064       96.99339
2017    2       4       0.3597455       85.84067
2017    2       5       0.2751873       68.38996
2017    2       6       0.2524306       64.34725
2017    2       7       0.2946718       72.94555
2017    3       0       0.2288314       59.22314
2017    3       1       0.3389317       81.37235
2017    3       2       0.3605302       85.19285
2017    3       3       0.3475614       82.70049
2017    3       4       0.312719        76.10168
2017    3       5       0.2898909       71.29322
2017    3       6       0.2638995       66.16271
2017    3       7       0.2782265       69.21961
2017    4       0       0.4011842       92.36778
2017    4       1       0.2704718       67.51935
2017    4       2       0.2441094       62.03907
2017    4       3       0.1871027       49.47604
2017    4       4       0.1662901       44.47724
2017    4       5       0.1954923       50.87942
2017    4       6       0.280033        68.43475
2017    4       7       0.4609064       100.971
2017    5       0       0.5800781       119.3978
2017    5       1       0.7519381       142.0692
2017    5       2       0.7727972       145.2846
2017    5       3       0.791414        146.9495
2017    5       4       0.8465188       153.9534
2017    5       5       0.911349        160.2597
2017    5       6       0.7794301       146.054
2017    5       7       0.8278254       152.15
2017    6       0       0.820046        151.2323
2017    6       1       0.7134062       137.7885
2017    6       2       0.4902723       105.5738
2017    6       3       0.2245393       56.94054
2017    6       4       0.09122995      27.60744
2017    6       5       0.05831327      19.50763
2017    6       6       0.0818861       25.43078
2017    6       7       0.1293878       36.39121
2017    7       0       0.201087        52.94597
2017    7       1       0.1461749       40.759
2017    7       2       0.2272715       59.51667
2017    7       3       0.2231385       58.75133
2017    7       4       0.1545436       42.80661
2017    7       5       0.1238649       35.40725
2017    7       6       0.1239425       35.41783
2017    7       7       0.120622        34.71778
2017    8       0       0.1265295       36.18383
2017    8       1       0.1414882       39.83202
2017    8       2       0.1324758       37.715
2017    8       3       0.1255311       36.08701
2017    8       4       0.123497        35.52955
2017    8       5       0.1209071       34.87872
2017    8       6       0.1157612       33.63828
2017    8       7       0.1111487       32.51518
2017    9       0       0.1118163       32.6001
2017    9       1       0.1206638       34.51157
2017    9       2       0.1391543       38.63449
2017    9       3       0.1513667       41.45754
2017    9       4       0.1427361       39.50437
2017    9       5       0.1292535       36.37218
2017    9       6       0.1512779       41.74856
2017    9       7       0.2981401       72.77806
2017    10      0       0.4494072       99.91708
2017    10      1       0.439719        98.34571
2017    10      2       0.3280278       78.62986
2017    10      3       0.2637339       65.72209
2017    10      4       0.2228505       57.37683
2017    10      5       0.2418181       61.53494
2017    10      6       0.292227        71.70942
2017    10      7       0.3816223       88.56253
2017    11      0       0.9894576       170.1117
2017    11      1       1.070148        178.3542
2017    11      2       0.877271        158.8232
2017    11      3       0.9504564       166.3256
2017    11      4       1.080708        179.4328
2017    11      5       1.227109        193.4705
2017    11      6       1.080229        180.5585
2017    11      7       0.6673066       134.229
2017    12      0       0.4676882       104.1607
2017    12      1       0.5761044       121.6898
2017    12      2       0.8121858       153.5703
2017    12      3       0.9086262       163.945
2017    12      4       0.880565        161.4016
2017    12      5       0.77219         148.86
2017    12      6       0.8623514       159.5086
2017    12      7       1.149029        186.4322
2017    13      0       0.7347029       143.1218
2017    13      1       0.8542934       157.2767
2017    13      2       1.194378        191.1269
2017    13      3       0.8471429       156.065
2017    13      4       1.094354        180.9361
2017    13      5       0.993415        170.6304
2017    13      6       1.237298        192.2449
2017    13      7       1.246444        193.1958
2017    14      0       0.9298468       163.4308
2017    14      1       0.8733721       157.3342
2017    14      2       0.7202335       139.7734
2017    14      3       0.7963352       150.5259
2017    14      4       0.7895948       149.3324
2017    14      5       0.756695        144.9612
2017    14      6       0.7238428       140.0392
2017    14      7       0.5968576       122.2709
2017    15      0       0.4938317       106.2765
2017    15      1       0.2557019       63.07011
2017    15      2       0.1667496       44.37404
2017    15      3       0.1497947       40.77506
2017    15      4       0.1563756       42.37485
2017    15      5       0.1938492       50.67134
2017    15      6       0.2366481       59.7082
2017    15      7       0.2454804       61.3747
2017    16      0       0.4267967       95.53088
2017    16      1       0.3556547       82.39995
2017    16      2       0.3794605       86.69301
2017    16      3       0.3674557       84.57424
2017    16      4       0.356016        82.6198
2017    16      5       0.3582904       83.18494
2017    16      6       0.3305347       78.31429
2017    16      7       0.2870483       70.16685
2017    17      0       0.3514459       82.63251
2017    17      1       0.295923        72.00606
2017    17      2       0.2206812       56.57588
2017    17      3       0.2637504       65.34219
2017    17      4       0.2827839       69.15331
2017    17      5       0.3356557       79.13673
2017    17      6       0.3526413       82.20434
2017    17      7       0.3102739       74.46311
2017    18      0       0.4580809       101.2988
2017    18      1       0.3950679       90.2529
2017    18      2       0.3891206       89.21976
2017    18      3       0.3175444       75.98374
2017    18      4       0.2884004       70.08913
2017    18      5       0.2868175       69.82624
2017    18      6       0.2368907       59.72076
2017    18      7       0.270975        66.4349
2017    19      0       0.3270136       77.59791
2017    19      1       0.6480757       129.798
2017    19      2       0.5987612       122.5896
2017    19      3       0.2904812       69.89811
2017    19      4       0.2768995       67.45314
2017    19      5       0.2911734       70.52267
2017    19      6       0.3283923       77.84726
2017    19      7       0.3639199       84.6006
2017    20      0       0.4148598       94.15801
2017    20      1       0.4248275       96.14516
2017    20      2       0.3809017       88.67323
2017    20      3       0.4030196       92.63147
2017    20      4       0.4130234       94.14685
2017    20      5       0.3369581       80.39656
2017    20      6       0.2795778       69.29161
2017    20      7       0.2804123       69.23408
2017    21      0       0.2659075       66.16598
2017    21      1       0.2413336       60.94308
2017    21      2       0.2284328       58.08633
2017    21      3       0.2960052       71.94442
2017    21      4       0.3677207       85.49607
2017    21      5       0.4150182       93.76933
2017    21      6       0.4046741       92.02442
2017    21      7       0.4118418       93.44442
2017    22      0       0.401941        91.79583
2017    22      1       0.3627309       84.69401
2017    22      2       0.3483237       81.91682
2017    22      3       0.356523        83.43751
2017    22      4       0.3498797       82.331
2017    22      5       0.3245003       77.73756
2017    22      6       0.3013424       73.32794
2017    22      7       0.2738443       68.01505
2017    23      0       0.2437545       61.95138
2017    23      1       0.2612575       65.5136
2017    23      2       0.3051758       74.37603
2017    23      3       0.3192247       76.80738
2017    23      4       0.2843454       69.56173
2017    23      5       0.3774704       85.99168
2017    23      6       0.3962761       90.01502
2017    23      7       0.4097824       92.74613
2017    24      0       0.4564784       100.6682
2017    24      1       0.6338291       128.3505
2017    24      2       0.5752301       119.9963
2017    24      3       0.5154622       110.8672
2017    24      4       0.4943629       107.481
2017    24      5       0.4581406       101.0415
2017    24      6       0.4614362       100.9229
2017    24      7       0.4283666       95.87676
2017    25      0       0.3383089       80.35705
2017    25      1       0.2503741       62.66286
2017    25      2       0.2885138       70.2063
2017    25      3       0.3098345       74.31676
2017    25      4       0.3425176       80.62362
2017    25      5       0.3946287       90.37673
2017    25      6       0.3936617       90.6282
2017    25      7       0.3517162       83.08099
2017    26      0       0.3332091       79.78454
2017    26      1       0.3402424       81.57408
2017    26      2       0.3134256       76.4291
2017    26      3       0.2742137       68.69578
2017    26      4       0.2394247       61.19979
2017    26      5       0.1894794       50.41026
2017    26      6       0.2472629       61.47892
2017    26      7       0.2340764       59.29607
2017    27      0       0.2040015       53.01466
2017    27      1       0.1741864       46.50705
2017    27      2       0.1628801       44.63202
2017    27      3       0.2769843       66.98286
2017    27      4       0.7069428       139.309
2017    27      5       0.6958489       139.7226
2017    27      6       0.5543765       120.1506
2017    27      7       0.3604679       87.1126
2017    28      0       0.2359828       61.54436
2017    28      1       0.1789128       47.72929
2017    28      2       0.2181544       56.07556
2017    28      3       0.1796835       47.8152
2017    28      4       0.1223956       35.25896
2017    28      5       0.09755777      29.16563
2017    28      6       0.1130244       32.70378
2017    28      7       0.1092755       31.76943
2017    29      0       0.1252601       35.45625
2017    29      1       0.141241        38.98829
2017    29      2       0.1629107       44.02288
2017    29      3       0.1907205       50.21116
2017    29      4       0.2186672       56.18027
2017    29      5       0.3138029       75.39579
2017    29      6       0.5285787       111.859
2017    29      7       0.6786723       132.5333
2017    30      0       0.6565483       128.4624
2017    30      1       0.6700971       130.5148
2017    30      2       0.4436697       97.15279
2017    30      3       0.159381        42.66351
2017    30      4       0.2184441       55.03273
2017    30      5       0.233264        58.47207
2017    30      6       0.3008163       71.94638
2017    30      7       0.3813014       86.76007
2018    1       0       0.1095545       32.0544
2018    1       1       0.1547385       42.58655
2018    1       2       0.1633387       44.43106
2018    1       3       0.143096        39.74272
2018    1       4       0.1728247       46.73834
2018    1       5       0.221759        57.34765
2018    1       6       0.2847015       69.57114
2018    1       7       0.6112924       125.8314
2018    2       0       1.059656        178.339
2018    2       1       0.8863135       161.8895
2018    2       2       0.9977009       173.0696
2018    2       3       0.9868992       171.1533
2018    2       4       0.664971        132.1602
2018    2       5       0.8031893       151.0681
2018    2       6       0.7152291       140.0251
2018    2       7       0.3867707       91.28718
2018    3       0       0.2829633       70.0817
2018    3       1       0.3633829       84.46762
2018    3       2       0.4444657       98.60126
2018    3       3       0.2951944       73.022
2018    3       4       0.3893272       90.75831
2018    3       5       0.4336813       98.44078
2018    3       6       0.3276186       78.74693
2018    3       7       0.2704009       67.55067
2018    4       0       0.272413        67.87352
2018    4       1       0.2271463       57.84717
2018    4       2       0.2635801       65.6767
2018    4       3       0.3755795       87.63858
2018    4       4       0.2442683       61.92174
2018    4       5       0.2653183       66.19755
2018    4       6       0.3275623       78.51009
2018    4       7       0.3649754       85.1248
2018    5       0       0.3499953       82.60452
2018    5       1       0.41183         94.13368
2018    5       2       0.3792984       88.43702
2018    5       3       0.320877        77.37885
2018    5       4       0.2826279       69.93516
2018    5       5       0.3121594       75.80289
2018    5       6       0.3143847       76.02046
2018    5       7       0.2948358       72.27652
2018    6       0       0.2694498       67.47916
2018    6       1       0.3144063       76.51078
2018    6       2       0.6112116       126.654
2018    6       3       0.755078        144.5077
2018    6       4       1.130812        183.7889
2018    6       5       0.6656522       132.4105
2018    6       6       0.4598475       101.4163
2018    6       7       0.3428348       81.05981
2018    7       0       0.1046636       30.78409
2018    7       1       0.1794883       47.84777
2018    7       2       0.2036634       52.76787
2018    7       3       0.1948113       50.38468
2018    7       4       0.223396        55.7157
2018    7       5       0.1802186       45.98032
2018    7       6       0.3055676       72.18015
2018    7       7       0.5144512       109.0523
2018    8       0       0.7295353       140.4458
2018    8       1       0.6013138       123.7505
2018    8       2       0.552636        117.2856
2018    8       3       0.4358859       98.57844
2018    8       4       0.4490508       100.0519
2018    8       5       0.5080079       108.9322
2018    8       6       0.4146272       92.91943
2018    8       7       0.5623173       115.8785
2018    9       0       0.6547057       128.6654
2018    9       1       0.6724123       130.5129
2018    9       2       0.7265127       137.9946
2018    9       3       0.6953377       133.1864
2018    9       4       0.6242852       123.4544
2018    9       5       0.6570715       127.4912
2018    9       6       0.6446634       125.3251
2018    9       7       0.4064037       88.76616
2018    10      0       0.3976311       87.50925
2018    10      1       0.328143        75.56802
2018    10      2       0.2899404       68.18731
2018    10      3       0.3626063       81.3203
2018    10      4       0.3613012       80.9616
2018    10      5       0.3341551       75.97321
2018    10      6       0.2509928       60.30672
2018    10      7       0.2961651       70.07496
2018    11      0       0.3121624       73.73252
2018    11      1       0.2476635       61.56998
2018    11      2       0.1300735       36.49699
2018    11      3       0.05226738      17.71168
2018    11      4       0.07673234      23.55716
2018    11      5       0.1601141       42.39646
2018    11      6       0.445814        96.90466
2018    11      7       0.6824859       132.6837
2018    12      0       0.4559089       100.5764
2018    12      1       0.4249846       94.69848
2018    12      2       0.3683799       84.32007
2018    12      3       0.3184897       74.89959
2018    12      4       0.3198648       75.29051
2018    12      5       0.3925744       88.64569
2018    12      6       0.3557604       82.07326
2018    12      7       0.254678        62.72308
2018    13      0       0.2340637       58.57794
2018    13      1       0.2753115       66.85458
2018    13      2       0.1811163       48.03976
2018    13      3       0.1718217       46.02851
2018    13      4       0.1399573       38.78507
2018    13      5       0.1131163       32.53575
2018    13      6       0.09390845      28.03298
2018    13      7       0.08509017      25.96126
2018    14      0       0.082393        25.41175
2018    14      1       0.07746361      24.16816
2018    14      2       0.08283028      25.35725
2018    14      3       0.09247312      27.55912
2018    14      4       0.1105228       31.87711
2018    14      5       0.1640031       44.40464
2018    14      6       0.2827944       70.15904
2018    14      7       0.4208068       96.58075
2018    15      0       0.3998017       92.79908
2018    15      1       0.6586141       133.3914
2018    15      2       0.7950145       150.3801
2018    15      3       0.8214405       153.1434
2018    15      4       0.7704272       147.1369
2018    15      5       0.7726069       145.4043
2018    15      6       0.5181549       109.8031
2018    15      7       0.523056        109.9686
2018    16      0       0.5703335       116.8157
2018    16      1       0.2915493       71.43309
2018    16      2       0.2047202       52.9686
2018    16      3       0.4211159       95.05783
2018    16      4       0.5048263       110.5892
2018    16      5       0.5747585       121.6527
2018    16      6       0.6578639       132.8929
2018    16      7       0.2676639       67.21072
2018    17      0       0.2099374       54.84857
2018    17      1       0.3963939       89.49563
2018    17      2       0.5150547       107.9031
2018    17      3       0.3029502       71.45705
2018    17      4       0.5361074       110.6355
2018    17      5       0.4448196       95.85005
2018    17      6       0.1699079       44.36586
2018    17      7       0.1714677       44.6398
2018    18      0       0.2333106       57.10064
2018    18      1       0.2704323       65.30806
2018    18      2       0.3227785       75.51495
2018    18      3       0.3762801       85.40378
2018    18      4       0.3150529       74.80256
2018    18      5       0.2528311       61.91873
2018    18      6       0.1706497       44.43401
2018    18      7       0.1935781       49.40826
2018    19      0       0.1784598       46.65796
2018    19      1       0.1615887       42.96144
2018    19      2       0.2314487       58.6617
2018    19      3       0.3543465       82.51022
2018    19      4       0.3576969       84.41368
2018    19      5       0.462469        103.1509
2018    19      6       0.3732276       86.88469
2018    19      7       0.3659481       85.33363
2018    20      0       0.3229284       77.54833
2018    20      1       0.3779381       88.01911
2018    20      2       0.3583653       84.2767
2018    20      3       0.3869112       89.44193
2018    20      4       0.4132822       93.85702
2018    20      5       0.3741251       87.0635
2018    20      6       0.381733        88.53266
2018    20      7       0.4100428       93.17152
2018    21      0       0.5108264       109.7186
2018    21      1       0.4861994       105.4687
2018    21      2       0.4109726       92.09472
2018    21      3       0.3508337       81.06778
2018    21      4       0.11689         33.22466
2018    21      5       0.08131253      24.92212
2018    21      6       0.06383967      20.58513
2018    21      7       0.1080496       31.21858
2018    22      0       0.1448951       39.97997
2018    22      1       0.1682131       45.21784
2018    22      2       0.1736548       46.56987
2018    22      3       0.1358818       37.97574
2018    22      4       0.1223394       34.75853
2018    22      5       0.1264414       35.57371
2018    22      6       0.2246404       57.6163
2018    22      7       0.3242391       77.9767
2018    23      0       0.2716633       67.6042
2018    23      1       0.2381198       60.52779
2018    23      2       0.2744101       67.74728
2018    23      3       0.3623086       84.37634
2018    23      4       0.2714577       67.17791
2018    23      5       0.2137281       54.22563
2018    23      6       0.2551957       61.98896
2018    23      7       0.4643864       100.3603
2018    24      0       0.4068835       92.29878
2018    24      1       0.5227946       111.7639
2018    24      2       0.3630699       84.98961
2018    24      3       0.16452         44.73853
2018    24      4       0.1039678       30.32061
2018    24      5       0.1163994       32.99894
2018    24      6       0.2212087       55.39
2018    24      7       0.337561        78.66522
2018    25      0       0.2632048       65.01977
2018    25      1       0.3044928       73.32686
2018    25      2       0.3403023       80.36404
2018    25      3       0.3407797       80.01351
2018    25      4       0.5687306       119.1925
2018    25      5       0.4970447       108.9198
2018    25      6       0.3576428       84.92403
2018    25      7       0.3221035       78.15498
2018    26      0       0.3193435       77.6287
2018    26      1       0.3603009       85.44735
2018    26      2       0.3695501       87.22801
2018    26      3       0.328816        79.62901
2018    26      4       0.3134739       76.48363
2018    26      5       0.2190274       56.76954
2018    26      6       0.1506114       40.75408
2018    26      7       0.1068449       30.2124
2018    27      0       0.2200981       55.00112
2018    27      1       0.465113        100.9047
2018    27      2       0.6412057       128.3537
2018    27      3       0.7027183       136.6093
2018    27      4       0.9154485       161.5714
2018    27      5       0.8437548       153.6188
2018    27      6       0.7350094       140.7531
2018    27      7       0.7416574       141.3453
2018    28      0       0.850223        153.7303
2018    28      1       0.863377        155.2416
2018    28      2       0.754363        142.9704
2018    28      3       0.7409901       141.575
2018    28      4       0.8168062       150.5242
2018    28      5       0.86818         155.8728
2018    28      6       0.9143168       161.6289
2018    28      7       0.9562393       166.6759
2018    29      0       0.8821866       159.4876
2018    29      1       0.877508        159.7851
2018    29      2       0.8926835       161.1174
2018    29      3       0.6408131       130.0479
2018    29      4       0.5682987       119.701
2018    29      5       0.4826809       106.2501
2018    29      6       0.4852444       106.5406
2018    29      7       0.4835649       106.1392
2018    30      0       0.4519774       100.9313
2018    30      1       0.421459        95.6201
2018    30      2       0.3900394       90.04181
2018    30      3       0.3725618       87.26533
2018    30      4       0.3401078       81.65306
2018    30      5       0.2668444       67.44242
2018    30      6       0.2377795       60.73668
2018    30      7       0.2913289       71.82246
