####################################################################################################
# Month: 09Sep                                                                                     #
# Station: SKS                                                                                     #
# Frequency: 345 GHz                                                                               #
# Columns are: year    day     segment         tau     Tb (K)                                      #
####################################################################################################
2009    1       0       2.295082        251.9571
2009    1       1       2.58228         258.7145
2009    1       2       2.671198        260.8654
2009    1       3       2.635238        260.8001
2009    1       4       2.607558        260.2943
2009    1       5       2.591639        259.7404
2009    1       6       2.312495        253.238
2009    1       7       1.722815        231.935
2009    2       0       1.372105        211.3912
2009    2       1       1.250728        201.8209
2009    2       2       1.038545        182.5257
2009    2       3       1.03093         181.5477
2009    2       4       1.15409         193.2223
2009    2       5       1.148859        193.0989
2009    2       6       1.125063        191.4991
2009    2       7       1.384882        212.8656
2009    3       0       1.277528        204.9778
2009    3       1       1.357791        210.9998
2009    3       2       1.315565        208.0378
2009    3       3       1.242552        202.2419
2009    3       4       1.398461        213.3324
2009    3       5       1.419345        214.5742
2009    3       6       1.348485        209.7556
2009    3       7       1.257657        202.6229
2009    4       0       1.194828        196.9167
2009    4       1       1.276644        203.0414
2009    4       2       1.379602        210.4949
2009    4       3       1.702017        229.8176
2009    4       4       2.204106        250.0906
2009    4       5       2.181238        249.6815
2009    4       6       1.494828        218.8765
2009    4       7       0.9424895       172.7133
2009    5       0       0.762127        151.0432
2009    5       1       0.7680401       151.5957
2009    5       2       0.900014        167.6953
2009    5       3       1.172072        194.9299
2009    5       4       1.636143        227.4545
2009    5       5       1.687523        230.8484
2009    5       6       1.222253        200.5474
2009    5       7       1.146693        193.7045
2009    6       0       1.422919        214.038
2009    6       1       1.726243        231.9581
2009    6       2       2.002683        244.5954
2009    6       3       2.229978        252.5604
2009    6       4       2.293132        254.5194
2009    6       5       2.310816        254.9431
2009    6       6       1.927335        241.2356
2009    6       7       1.75243         233.3019
2009    7       0       2.05033         245.4889
2009    7       1       2.444816        256.9789
2009    7       2       2.519975        258.9043
2009    7       3       2.608854        260.6567
2009    7       4       2.648415        260.698
2009    7       5       2.574808        257.092
2009    7       6       2.742772        260.2187
2009    7       7       2.502053        255.4939
2009    8       0       2.647813        257.7438
2009    8       1       2.796963        260.0941
2009    8       2       2.783283        260.0324
2009    8       3       2.439998        252.6416
2009    8       4       2.411404        252.0301
2009    8       5       1.973264        238.5686
2009    8       6       1.692297        226.2783
2009    8       7       1.637586        223.8084
2009    9       0       1.628438        223.2504
2009    9       1       1.485551        215.2583
2009    9       2       1.486474        215.8752
2009    9       3       1.711226        228.4837
2009    9       4       1.907249        237.0143
2009    9       5       2.158095        247.8467
2009    9       6       2.018733        241.0502
2009    9       7       2.096051        243.6247
2009    10      0       2.379362        251.7053
2009    10      1       2.559372        255.6513
2009    10      2       2.597693        256.2449
2009    10      3       2.703478        258.1816
2009    10      4       3.224942        266.3288
2009    10      5       4.111985        272.7453
2009    10      6       4.661553        276.3183
2009    10      7       4.639895        276.9155
2009    11      0       4.210458        275.9633
2009    11      1       4.144956        275.7432
2009    11      2       3.60513         272.3054
2009    11      3       3.570693        271.1153
2009    11      4       3.323555        266.702
2009    11      5       3.257896        264.4567
2009    11      6       3.359201        265.136
2009    11      7       3.354097        266.7095
2009    12      0       3.72574         271.8236
2009    12      1       3.463853        270.5869
2009    12      2       3.097741        267.0545
2009    12      3       3.070716        266.9954
2009    12      4       2.9212          265.1703
2009    12      5       2.518678        258.087
2009    12      6       2.368429        254.3206
2009    12      7       2.475811        256.6393
2009    13      0       2.060353        244.1825
2009    13      1       1.865121        236.2186
2009    13      2       2.126465        246.0436
2009    13      3       2.271149        250.3949
2009    13      4       2.846339        262.5598
2009    13      5       3.12119         265.8779
2009    13      6       2.246349        248.3304
2009    13      7       3.054702        266.6532
2009    14      0       3.225499        268.098
2009    14      1       3.157407        267.0338
2009    14      2       3.529933        270.6586
2009    14      3       3.592244        272.0719
2009    14      4       3.856342        274.8004
2009    14      5       5.231572        279.9076
2009    14      6       4.232911        277.1353
2009    14      7       4.092743        276.8571
2009    15      0       3.918443        276.6549
2009    15      1       2.855207        266.8879
2009    15      2       1.787537        235.8592
2009    15      3       1.558836        223.6514
2009    15      4       1.511534        220.5014
2009    15      5       1.809389        236.3684
2009    15      6       1.934246        242.1361
2009    15      7       2.220332        252.2618
2009    16      0       2.272244        253.2562
2009    16      1       2.088749        247.0991
2009    16      2       1.958219        242.3906
2009    16      3       1.936349        241.6326
2009    16      4       2.110958        247.9641
2009    16      5       2.175939        250.0359
2009    16      6       1.945627        241.0181
2009    16      7       1.962312        240.7903
2009    17      0       1.835317        235.5734
2009    17      1       2.350968        254.2325
2009    17      2       2.449368        257.5542
2009    17      3       3.18815         270.0687
2009    17      4       3.916495        276.0855
2009    17      5       3.407143        273.4909
2009    17      6       2.927468        268.2376
2009    17      7       2.681829        263.4977
2009    18      0       2.469101        258.3314
2009    18      1       2.50618         258.8475
2009    18      2       2.422022        256.6135
2009    18      3       2.464053        257.6595
2009    18      4       2.426374        256.1525
2009    18      5       2.462788        256.6359
2009    18      6       2.019642        243.4278
2009    18      7       2.263854        251.4251
2009    19      0       2.714372        261.8329
2009    19      1       2.553004        258.4023
2009    19      2       2.404186        254.7164
2009    19      3       2.508758        257.2476
2009    19      4       2.532586        257.865
2009    19      5       2.306798        251.8728
2009    19      6       2.480327        255.7807
2009    19      7       2.752009        261.2379
2009    20      0       2.826557        262.0567
2009    20      1       2.720355        259.3478
2009    20      2       2.928887        261.8717
2009    20      3       3.231742        265.0719
2009    20      4       3.086382        262.8327
2009    20      5       2.500323        253.1318
2009    20      6       2.196836        245.9757
2009    20      7       2.029844        240.7381
2009    21      0       1.622545        221.8597
2009    21      1       1.261804        198.2473
2009    21      2       0.9882026       174.4043
2009    21      3       0.7606073       148.2944
2009    21      4       0.6831014       136.8822
2009    21      5       0.7332814       142.4336
2009    21      6       0.8174101       153.5653
2009    21      7       0.9768378       171.0102
2009    22      0       1.087823        181.0902
2009    22      1       1.089819        181.5184
2009    22      2       1.206076        191.6608
2009    22      3       1.303773        199.2068
2009    22      4       1.346932        202.4036
2009    22      5       1.420992        207.5827
2009    22      6       1.255569        196.5457
2009    22      7       1.066141        181.1434
2009    23      0       0.6134164       126.439
2009    23      1       0.947819        170.3864
2009    23      2       0.8909036       164.3354
2009    23      3       0.7961874       152.9106
2009    23      4       0.722008        143.2891
2009    23      5       0.7337281       143.9484
2009    23      6       0.8052796       151.4554
2009    23      7       1.16948         187.6734
2009    24      0       1.472741        211.6108
2009    24      1       1.628406        220.1058
2009    24      2       1.588725        218.0174
2009    24      3       1.692862        224.9416
2009    24      4       1.827286        231.6004
2009    24      5       2.872389        263.3581
2009    24      6       3.375484        272.5651
2009    24      7       3.268433        271.4543
2009    25      0       3.277119        270.7991
2009    25      1       2.987668        266.077
2009    25      2       3.017517        265.8945
2009    25      3       3.395919        270.3909
2009    25      4       4.227882        276.7092
2009    25      5       4.14014         276.465
2009    25      6       3.896894        275.1301
2009    25      7       3.401184        271.0422
2009    26      0       3.211531        268.2844
2009    26      1       3.057555        265.5429
2009    26      2       2.965291        263.7969
2009    26      3       3.004394        264.4017
2009    26      4       2.974265        263.7082
2009    26      5       2.763478        259.7221
2009    26      6       2.590224        256.3287
2009    26      7       2.59986         256.525
2009    27      0       2.854407        260.6729
2009    27      1       2.729563        258.0372
2009    27      2       2.897774        260.9913
2009    27      3       3.055848        263.5031
2009    27      4       2.791173        259.7968
2009    27      5       2.599271        256.2475
2009    27      6       2.530973        254.89
2009    27      7       2.428689        252.3784
2009    28      0       2.298039        248.5615
2009    28      1       2.12131         243.0832
2009    28      2       2.187499        245.7724
2009    28      3       2.344862        250.5716
2009    28      4       2.39211         252.5941
2009    28      5       2.198559        247.474
2009    28      6       2.058335        242.811
2009    28      7       1.9546          238.8455
2009    29      0       1.965899        238.8756
2009    29      1       1.865236        234.8124
2009    29      2       1.720006        228.0673
2009    29      3       1.691575        226.6485
2009    29      4       1.797277        231.3774
2009    29      5       2.02243         240.1848
2009    29      6       2.164696        244.7919
2009    29      7       1.999626        239.0892
2009    30      0       1.666254        224.505
2009    30      1       1.528541        216.557
2009    30      2       1.950022        237.7094
2009    30      3       1.499052        215.6682
2009    30      4       1.029955        179.5251
2009    30      5       0.7166073       143.9955
2009    30      6       0.7433904       147.4144
2009    30      7       0.7347623       146.5079
2010    1       0       0.9530632       174.4406
2010    1       1       1.258682        202.7241
2010    1       2       1.517453        220.4863
2010    1       3       1.777609        234.3252
2010    1       4       1.60843         225.0711
2010    1       5       0.9235045       170.67
2010    1       6       0.3309181       82.8322
2010    1       7       0.389663        93.54305
2010    2       0       0.5447228       119.5989
2010    2       1       0.5498446       120.5373
2010    2       2       0.5644593       122.6702
2010    2       3       0.7047432       142.3445
2010    2       4       1.323426        208.7536
2010    2       5       1.571238        225.8101
2010    2       6       1.290256        203.7406
2010    2       7       1.12178         189.5049
2010    3       0       1.367929        209.4828
2010    3       1       1.373822        209.4763
2010    3       2       1.293614        202.9464
2010    3       3       1.254976        200.7609
2010    3       4       1.387944        210.8198
2010    3       5       1.369451        209.1656
2010    3       6       1.161845        192.1321
2010    3       7       1.682551        229.6988
2010    4       0       2.637413        264.0607
2010    4       1       2.719152        265.0458
2010    4       2       2.775429        265.8225
2010    4       3       2.609391        262.4266
2010    4       4       2.480339        259.3226
2010    4       5       3.099298        270.352
2010    4       6       3.423535        273.6545
2010    4       7       3.331435        272.1205
2010    5       0       3.631656        273.9103
2010    5       1       2.935702        266.0834
2010    5       2       2.588227        259.8738
2010    5       3       2.45674         256.9966
2010    5       4       2.092474        246.7449
2010    5       5       1.943083        241.6454
2010    5       6       1.654093        228.771
2010    5       7       1.507828        219.2891
2010    6       0       1.530013        218.1752
2010    6       1       1.599755        220.0216
2010    6       2       1.794262        229.6246
2010    6       3       1.554503        217.2701
2010    6       4       1.448975        210.868
2010    6       5       1.30521         202.0577
2010    6       6       0.8963979       165.9872
2010    6       7       0.767743        151.9217
2010    7       0       0.890005        166.7553
2010    7       1       1.212747        197.6317
2010    7       2       1.623703        225.0754
2010    7       3       1.715104        230.3657
2010    7       4       1.590441        224.4645
2010    7       5       1.456096        216.5575
2010    7       6       1.059388        184.6727
2010    7       7       0.9008809       168.1891
2010    8       0       0.8258865       159.8056
2010    8       1       0.684248        141.876
2010    8       2       0.6320682       134.7003
2010    8       3       0.5720839       125.861
2010    8       4       0.5576455       123.9318
2010    8       5       0.5839868       128.0235
2010    8       6       0.7814494       154.1536
2010    8       7       0.8330199       159.5381
2010    9       0       0.7621768       149.9908
2010    9       1       0.6241397       132.1868
2010    9       2       0.5420558       120.2022
2010    9       3       0.5511381       121.9774
2010    9       4       0.7591333       151.9836
2010    9       5       0.9169286       170.6566
2010    9       6       0.7474937       149.0939
2010    9       7       0.7057686       141.3525
2010    10      0       0.8345043       156.6583
2010    10      1       0.8522126       158.0518
2010    10      2       0.8918523       161.7622
2010    10      3       0.8732149       161.0334
2010    10      4       1.127962        189.2497
2010    10      5       1.281389        202.845
2010    10      6       1.098226        186.8756
2010    10      7       1.087215        185.9555
2010    11      0       1.138579        190.6887
2010    11      1       1.18134         194.4897
2010    11      2       1.245691        200.2652
2010    11      3       1.424696        214.1891
2010    11      4       1.942241        240.762
2010    11      5       1.406334        212.8738
2010    11      6       0.83917         160.8598
2010    11      7       1.045831        182.7309
2010    12      0       1.297058        203.6788
2010    12      1       1.829165        234.2297
2010    12      2       1.962194        239.1094
2010    12      3       1.94786         238.9242
2010    12      4       2.208554        248.3047
2010    12      5       2.051563        243.606
2010    12      6       1.616929        224.8654
2010    12      7       1.729349        230.9231
2010    13      0       1.775521        233.0722
2010    13      1       1.815972        234.7414
2010    13      2       1.885518        237.6993
2010    13      3       1.962795        241.5725
2010    13      4       1.973145        243.4292
2010    13      5       1.753077        234.9824
2010    13      6       1.65499         230.0863
2010    13      7       1.762744        235.486
2010    14      0       1.934914        240.0182
2010    14      1       1.933708        239.6872
2010    14      2       1.934589        239.3895
2010    14      3       1.934019        239.4683
2010    14      4       2.212973        251.3147
2010    14      5       2.137506        246.8539
2010    14      6       1.792021        233.8392
2010    14      7       1.474943        216.7207
2010    15      0       1.220771        198.1754
2010    15      1       1.067952        184.6068
2010    15      2       0.944817        172.7319
2010    15      3       0.970831        175.4836
2010    15      4       1.196957        196.2979
2010    15      5       1.252321        200.4168
2010    15      6       1.159889        192.4432
2010    15      7       1.057404        183.3018
2010    16      0       1.036945        181.7928
2010    16      1       1.038892        182.0749
2010    16      2       1.195551        195.842
2010    16      3       1.428342        212.8018
2010    16      4       1.854803        235.0482
2010    16      5       2.123147        244.3937
2010    16      6       1.932265        236.4757
2010    16      7       1.730043        228.0285
2010    17      0       1.645267        224.1098
2010    17      1       1.493838        215.597
2010    17      2       1.322848        205.4877
2010    17      3       1.375941        209.8079
2010    17      4       1.342625        208.0846
2010    17      5       0.9307723       171.7937
2010    17      6       0.5932323       128.179
2010    17      7       0.5297123       117.9763
2010    18      0       0.5565835       121.7584
2010    18      1       0.483802        108.5163
2010    18      2       0.6363487       133.1302
2010    18      3       0.6548709       136.07
2010    18      4       0.705153        143.482
2010    18      5       0.7835112       154.3617
2010    18      6       0.845975        163.0038
2010    18      7       0.9399217       174.4244
2010    19      0       0.8143935       159.5761
2010    19      1       0.778363        155.0901
2010    19      2       0.7109267       146.2618
2010    19      3       0.679601        141.9025
2010    19      4       0.7810922       155.2524
2010    19      5       0.8537966       163.8847
2010    19      6       0.9053187       169.2742
2010    19      7       0.8909627       167.8137
2010    20      0       0.8221728       159.7552
2010    20      1       0.7583896       151.4911
2010    20      2       0.7951458       156.1307
2010    20      3       1.073202        185.5887
2010    20      4       1.393936        211.2144
2010    20      5       1.722748        230.8161
2010    20      6       1.749988        232.4339
2010    20      7       1.804702        235.2554
2010    21      0       1.86052         237.634
2010    21      1       1.851581        237.1983
2010    21      2       1.784176        233.8624
2010    21      3       1.748662        232.1759
2010    21      4       1.77992         233.9067
2010    21      5       1.774879        234.3308
2010    21      6       1.783498        234.3801
2010    21      7       1.705165        230.6629
2010    22      0       1.659215        227.8966
2010    22      1       1.589947        223.8005
2010    22      2       1.620381        225.3449
2010    22      3       1.601887        223.8566
2010    22      4       1.747068        230.8443
2010    22      5       2.127683        245.5864
2010    22      6       2.067064        242.7848
2010    22      7       1.913978        235.7276
2010    23      0       1.769087        228.6729
2010    23      1       1.67093         223.5446
2010    23      2       1.533362        216.1663
2010    23      3       1.339545        204.536
2010    23      4       1.550164        218.6071
2010    23      5       2.267617        249.683
2010    23      6       2.281339        250.3547
2010    23      7       2.176971        247.4167
2010    24      0       2.223085        248.1325
2010    24      1       2.687966        258.8566
2010    24      2       3.085596        265.1859
2010    24      3       3.778821        271.0962
2010    24      4       3.99115         272.5392
2010    24      5       3.548343        269.767
2010    24      6       3.315004        267.0767
2010    24      7       3.799895        270.7383
2010    25      0       3.681245        270.2631
2010    25      1       3.319059        267.629
2010    25      2       3.133628        266.0657
2010    25      3       3.678982        271.8935
2010    25      4       3.516662        271.8095
2010    25      5       3.670303        273.3706
2010    25      6       3.666556        273.9323
2010    25      7       3.48627         273.0877
2010    26      0       2.813126        265.08
2010    26      1       2.120005        248.567
2010    26      2       1.820286        236.5547
2010    26      3       1.340528        208.0657
2010    26      4       1.938343        239.8904
2010    26      5       2.040238        243.3715
2010    26      6       1.840506        235.3602
2010    26      7       1.776561        233.426
2010    27      0       1.465794        216.6879
2010    27      1       1.347564        208.0446
2010    27      2       1.586369        222.5955
2010    27      3       1.680635        227.6464
2010    27      4       2.279718        251.2028
2010    27      5       2.562155        257.9502
2010    27      6       2.156809        246.7781
2010    27      7       2.665364        261.0679
2010    28      0       3.22066         270.5074
2010    28      1       3.210741        270.4481
2010    28      2       3.352874        271.9933
2010    28      3       3.528004        273.8867
2010    28      4       3.543202        274.5419
2010    28      5       3.643881        275.7323
2010    28      6       3.389224        272.9679
2010    28      7       3.408912        273.5266
2010    29      0       3.511671        274.5369
2010    29      1       2.940295        267.2069
2010    29      2       3.015035        267.985
2010    29      3       3.480511        272.6477
2010    29      4       3.969565        276.2119
2010    29      5       4.355335        278.1895
2010    29      6       4.377915        280.0185
2010    29      7       2.869518        265.0197
2010    30      0       3.384007        270.4026
2010    30      1       3.31359         269.2217
2010    30      2       4.292647        277.1694
2010    30      3       3.492121        270.4149
2010    30      4       2.919954        264.3364
2010    30      5       2.510402        257.5155
2010    30      6       2.219799        250.5592
2010    30      7       1.900594        239.8551
2011    1       0       1.589108        223.0508
2011    1       1       1.640136        225.7129
2011    1       2       1.809057        233.2863
2011    1       3       1.928109        238.6464
2011    1       4       2.074711        245.5812
2011    1       5       1.783106        234.7105
2011    1       6       1.07365         186.6078
2011    1       7       1.219543        200.0704
2011    2       0       1.347662        209.8871
2011    2       1       1.316414        207.2988
2011    2       2       1.206209        197.9539
2011    2       3       1.402213        212.3554
2011    2       4       1.810211        235.3572
2011    2       5       2.026174        244.8441
2011    2       6       2.025037        244.8975
2011    2       7       1.948436        241.4416
2011    3       0       2.024398        243.99
2011    3       1       2.071622        245.5339
2011    3       2       2.011372        242.8201
2011    3       3       2.347661        254.0382
2011    3       4       2.476443        257.6981
2011    3       5       2.432841        256.4648
2011    3       6       2.392553        254.8557
2011    3       7       2.309831        252.0645
2011    4       0       1.859368        236.1958
2011    4       1       1.737171        231.3197
2011    4       2       1.676526        229.0517
2011    4       3       1.433226        215.2778
2011    4       4       1.457778        217.3259
2011    4       5       1.352296        210.8797
2011    4       6       1.173375        196.8209
2011    4       7       1.013805        181.3818
2011    5       0       0.7466692       150.1953
2011    5       1       0.5837479       126.7429
2011    5       2       0.478108        109.3107
2011    5       3       0.4315698       101.0202
2011    5       4       0.4813974       109.5879
2011    5       5       0.5725125       124.3619
2011    5       6       0.6239454       132.5177
2011    5       7       0.6747367       140.1627
2011    6       0       0.7420478       149.0119
2011    6       1       0.8056773       156.7264
2011    6       2       0.7898086       154.4228
2011    6       3       0.8096006       156.6557
2011    6       4       0.9848646       176.7009
2011    6       5       1.498856        219.9891
2011    6       6       1.882393        240.2668
2011    6       7       1.873871        239.4154
2011    7       0       2.108353        248.1871
2011    7       1       2.332355        254.4645
2011    7       2       2.318205        254.1397
2011    7       3       2.222719        251.6858
2011    7       4       2.455701        257.4818
2011    7       5       2.759306        262.8887
2011    7       6       2.898176        264.5599
2011    7       7       2.774848        261.7325
2011    8       0       3.006035        264.7066
2011    8       1       2.861597        262.4573
2011    8       2       1.824776        233.7333
2011    8       3       1.436965        213.6888
2011    8       4       1.338924        207.9494
2011    8       5       1.160083        194.344
2011    8       6       1.166325        195.3442
2011    8       7       1.159415        194.9429
2011    9       0       1.229913        200.5132
2011    9       1       1.406541        213.0083
2011    9       2       1.327765        207.6577
2011    9       3       1.274084        203.7542
2011    9       4       1.508303        220.3318
2011    9       5       1.684868        230.6084
2011    9       6       1.635497        228.1378
2011    9       7       1.602745        226.4527
2011    10      0       1.617521        227.3476
2011    10      1       1.649281        229.1512
2011    10      2       1.594063        226.143
2011    10      3       1.654435        229.6578
2011    10      4       1.948001        243.3839
2011    10      5       1.879744        240.8482
2011    10      6       1.473789        219.8784
2011    10      7       1.315875        208.8913
2011    11      0       1.272412        205.4849
2011    11      1       1.273789        205.6388
2011    11      2       1.260222        204.6201
2011    11      3       1.179872        198.007
2011    11      4       1.156358        195.8932
2011    11      5       1.132287        193.8855
2011    11      6       1.122736        192.9666
2011    11      7       1.05922         186.8016
2011    12      0       1.10063         190.6543
2011    12      1       1.18939         198.3816
2011    12      2       1.228488        201.3069
2011    12      3       1.17153         196.6233
2011    12      4       1.139321        193.9715
2011    12      5       1.13752         193.6739
2011    12      6       0.9029134       169.6634
2011    12      7       0.7179757       146.5358
2011    13      0       0.7733613       153.5999
2011    13      1       0.8120738       157.9832
2011    13      2       0.7055348       144.2203
2011    13      3       0.6303897       133.6176
2011    13      4       0.6162762       131.8089
2011    13      5       0.5964727       129.0986
2011    13      6       0.5799099       126.2813
2011    13      7       0.5285134       118.0018
2011    14      0       0.5459985       121.0404
2011    14      1       0.5903672       128.1727
2011    14      2       0.665214        139.3686
2011    14      3       0.7990587       157.4214
2011    14      4       1.091049        188.9664
2011    14      5       1.256287        203.1167
2011    14      6       1.092971        189.1163
2011    14      7       0.9389791       173.578
2011    15      0       0.9328798       172.6862
2011    15      1       0.936725        172.8871
2011    15      2       0.8624909       164.5399
2011    15      3       0.7761594       154.0723
2011    15      4       0.9139913       170.5416
2011    15      5       1.028879        182.747
2011    15      6       0.9554607       175.1778
2011    15      7       0.8847831       167.2735
2011    16      0       0.8339794       161.1831
2011    16      1       0.7518346       150.8117
2011    16      2       0.6089727       130.7044
2011    16      3       0.6037145       130.0251
2011    16      4       1.005644        180.2766
2011    16      5       1.066083        186.3033
2011    16      6       0.8135906       158.8011
2011    16      7       0.5509425       121.8476
2011    17      0       0.522871        117.2771
2011    17      1       0.5731292       125.2983
2011    17      2       0.572961        125.1878
2011    17      3       0.5853369       127.1784
2011    17      4       0.7934278       156.1761
2011    17      5       1.035152        183.0005
2011    17      6       0.8689909       165.0755
2011    17      7       0.8472442       162.3495
2011    18      0       0.946055        173.4621
2011    18      1       1.221201        198.8892
2011    18      2       1.505861        218.7081
2011    18      3       1.538728        220.7608
2011    18      4       1.738779        231.6747
2011    18      5       1.762048        233.0764
2011    18      6       1.344688        208.8253
2011    18      7       1.114224        190.3782
2011    19      0       0.9120436       169.8904
2011    19      1       0.7575129       151.1142
2011    19      2       0.824147        159.5511
2011    19      3       0.8714482       165.0874
2011    19      4       1.134097        192.0247
2011    19      5       1.203112        198.2651
2011    19      6       1.101756        189.0074
2011    19      7       0.905019        167.6294
2011    20      0       1.1685          192.386
2011    20      1       1.125629        189.3781
2011    20      2       1.4802          216.4424
2011    20      3       1.616319        224.4726
2011    20      4       1.800003        232.8104
2011    20      5       2.210154        247.3548
2011    20      6       1.995161        241.7595
2011    20      7       2.216637        250.6122
2011    21      0       2.105113        247.0748
2011    21      1       1.612195        225.1194
2011    21      2       0.9504467       171.9885
2011    21      3       0.7876341       152.7862
2011    21      4       1.92065         235.9131
2011    21      5       2.057093        240.7931
2011    21      6       2.160393        242.6111
2011    21      7       2.556359        253.0114
2011    22      0       2.286226        247.8824
2011    22      1       1.946223        236.845
2011    22      2       2.303973        248.3549
2011    22      3       2.836889        259.9342
2011    22      4       2.984371        262.9226
2011    22      5       2.648459        257.6533
2011    22      6       2.400066        253.0733
2011    22      7       1.755693        230.5537
2011    23      0       1.617431        223.4844
2011    23      1       2.077402        243.7065
2011    23      2       2.277103        250.1213
2011    23      3       2.599137        258.498
2011    23      4       2.880965        264.2852
2011    23      5       2.765714        262.4732
2011    23      6       2.0301          243.2839
2011    23      7       1.723346        229.947
2011    24      0       1.370204        208.4907
2011    24      1       0.9881064       175.338
2011    24      2       0.8297277       157.3893
2011    24      3       0.7548181       147.7562
2011    24      4       0.7338104       144.685
2011    24      5       0.709986        141.4337
2011    24      6       0.6423637       132.228
2011    24      7       0.6024722       126.55
2011    25      0       0.6078593       127.4978
2011    25      1       0.6328154       131.1358
2011    25      2       0.5686668       121.3383
2011    25      3       0.5424121       116.9529
2011    25      4       0.6517535       133.8114
2011    25      5       0.9207092       168.582
2011    25      6       1.244032        199.396
2011    25      7       1.211964        197.0405
2011    26      0       1.045208        181.8528
2011    26      1       1.002678        176.9255
2011    26      2       0.9090298       166.2977
2011    26      3       0.8743922       162.2867
2011    26      4       1.134296        188.7831
2011    26      5       1.442795        212.4844
2011    26      6       1.355906        206.6936
2011    26      7       1.419943        210.9615
2011    27      0       1.362073        206.2938
2011    27      1       1.260447        198.3802
2011    27      2       1.175277        190.8029
2011    27      3       1.156383        188.3404
2011    27      4       1.184787        190.1455
2011    27      5       1.136782        186.1412
2011    27      6       1.008967        174.676
2011    27      7       0.8846975       162.0687
2011    28      0       0.9501767       169.3559
2011    28      1       1.315507        202.7086
2011    28      2       1.488759        215.1042
2011    28      3       1.49756         215.8206
2011    28      4       1.590638        221.7388
2011    28      5       1.623845        223.9771
2011    28      6       1.691576        227.499
2011    28      7       1.721556        229.1051
2011    29      0       1.892045        237.1164
2011    29      1       1.946003        239.4889
2011    29      2       1.721003        229.2375
2011    29      3       1.497402        216.5744
2011    29      4       1.3987          210.037
2011    29      5       1.228415        197.2001
2011    29      6       1.003449        176.7274
2011    29      7       0.897881        165.5809
2011    30      0       0.9334589       169.696
2011    30      1       0.8165575       156.7938
2011    30      2       0.6273844       131.7583
2011    30      3       0.561905        121.3362
2011    30      4       0.7931455       152.6987
2011    30      5       1.106111        185.5974
2011    30      6       1.446855        211.49
2011    30      7       1.420823        209.5641
2012    1       0       0.8415479       163.3951
2012    1       1       0.7684483       154.0787
2012    1       2       0.7369245       149.7509
2012    1       3       0.7090427       145.9545
2012    1       4       0.645774        137.0875
2012    1       5       0.5645604       124.7485
2012    1       6       0.5051361       115.0909
2012    1       7       0.4680307       108.9699
2012    2       0       0.4717404       109.7648
2012    2       1       0.4650122       108.7766
2012    2       2       0.3691145       91.55442
2012    2       3       0.3051726       79.07239
2012    2       4       0.2857464       75.12749
2012    2       5       0.253128        68.26323
2012    2       6       0.1902018       54.1437
2012    2       7       0.1589672       46.69581
2012    3       0       0.1883867       53.61015
2012    3       1       0.1988741       55.9666
2012    3       2       0.1805007       51.66187
2012    3       3       0.1785808       51.16409
2012    3       4       0.1849373       52.603
2012    3       5       0.1839797       52.42746
2012    3       6       0.1520234       44.79918
2012    3       7       0.1423926       42.36497
2012    4       0       0.170547        48.98973
2012    4       1       0.2084145       57.61098
2012    4       2       0.2529228       67.56343
2012    4       3       0.3140944       80.42742
2012    4       4       0.433418        103.4775
2012    4       5       0.6359868       136.7845
2012    4       6       0.9160152       172.7324
2012    4       7       1.050683        186.4158
2012    5       0       1.284013        206.4087
2012    5       1       1.491761        220.5637
2012    5       2       1.443005        217.1946
2012    5       3       1.677161        231.1432
2012    5       4       1.630334        228.9491
2012    5       5       1.58461         226.8613
2012    5       6       1.619678        228.7703
2012    5       7       1.403283        215.0842
2012    6       0       1.251773        203.7778
2012    6       1       0.933612        174.0368
2012    6       2       0.6342724       135.9344
2012    6       3       0.5397353       121.1173
2012    6       4       0.8229078       160.9104
2012    6       5       1.088474        189.5742
2012    6       6       0.7465994       151.448
2012    6       7       1.011299        182.3702
2012    7       0       1.432111        217.0189
2012    7       1       1.851126        239.3069
2012    7       2       2.166024        250.0821
2012    7       3       2.019099        244.7754
2012    7       4       1.700651        231.056
2012    7       5       1.154787        193.9198
2012    7       6       1.171263        195.3361
2012    7       7       1.340291        208.4466
2012    8       0       1.363384        209.9802
2012    8       1       1.327627        206.3119
2012    8       2       1.530561        219.8311
2012    8       3       1.376551        210.5463
2012    8       4       1.15271         193.9771
2012    8       5       1.063195        186.0377
2012    8       6       0.8444187       162.5314
2012    8       7       0.7097056       145.2523
2012    9       0       0.6782603       140.5808
2012    9       1       0.6747755       139.5076
2012    9       2       0.7261907       146.6031
2012    9       3       0.8007978       156.3224
2012    9       4       0.9839342       177.2365
2012    9       5       1.330368        208.1494
2012    9       6       1.407588        213.6197
2012    9       7       1.15624         193.8558
2012    10      0       0.7629582       151.9436
2012    10      1       0.5741129       125.1366
2012    10      2       0.5814008       126.0904
2012    10      3       0.6286152       133.1085
2012    10      4       0.6760558       139.7568
2012    10      5       0.6244865       132.0883
2012    10      6       0.5642631       123.0111
2012    10      7       0.5611699       122.6961
2012    11      0       0.6218446       131.486
2012    11      1       0.7286374       146.1231
2012    11      2       0.9376941       171.4442
2012    11      3       1.06006         184.0677
2012    11      4       1.032029        181.1665
2012    11      5       0.9441222       172.7275
2012    11      6       0.9713665       175.7138
2012    11      7       1.101171        188.3305
2012    12      0       1.113436        189.6814
2012    12      1       1.330745        206.7956
2012    12      2       1.595216        222.9213
2012    12      3       1.766785        231.3199
2012    12      4       2.019679        241.5997
2012    12      5       2.036686        242.3248
2012    12      6       2.097714        244.6983
2012    12      7       2.052931        243.4119
2012    13      0       1.890222        236.8074
2012    13      1       1.678471        227.0341
2012    13      2       1.498478        217.1247
2012    13      3       1.090335        186.6863
2012    13      4       1.743306        231.288
2012    13      5       1.812349        234.7433
2012    13      6       1.176688        194.5589
2012    13      7       1.592118        224.5387
2012    14      0       2.543518        260.6781
2012    14      1       2.655725        262.0521
2012    14      2       2.561715        259.6428
2012    14      3       2.586035        260.1566
2012    14      4       2.695612        262.8626
2012    14      5       2.759995        264.4097
2012    14      6       2.611739        261.1446
2012    14      7       2.425921        256.6692
2012    15      0       2.492754        258.5406
2012    15      1       2.565241        260.3213
2012    15      2       2.458799        257.6303
2012    15      3       2.132355        248.4448
2012    15      4       1.764783        233.4232
2012    15      5       1.642738        227.2896
2012    15      6       1.35683         209.728
2012    15      7       1.474298        217.4457
2012    16      0       1.842229        236.4966
2012    16      1       2.24839         250.5041
2012    16      2       2.382633        253.8252
2012    16      3       2.308051        252.0072
2012    16      4       2.395252        254.5172
2012    16      5       2.577979        259.2515
2012    16      6       2.232983        250.702
2012    16      7       1.860564        236.9906
2012    17      0       1.706786        229.9306
2012    17      1       1.563201        222.2878
2012    17      2       1.737504        231.2494
2012    17      3       1.720198        230.1159
2012    17      4       1.973723        241.2295
2012    17      5       2.019241        242.8767
2012    17      6       1.668786        227.632
2012    17      7       1.42872         213.6294
2012    18      0       1.422829        213.3729
2012    18      1       1.361091        209.1851
2012    18      2       1.371177        209.5527
2012    18      3       1.423885        213.259
2012    18      4       1.845714        239.3118
2012    18      5       2.425464        255.2969
2012    18      6       2.20347         249.059
2012    18      7       1.835609        235.2444
2012    19      0       1.986679        240.7014
2012    19      1       2.112271        244.9954
2012    19      2       2.081914        244.0979
2012    19      3       2.244957        249.5156
2012    19      4       2.480953        255.7749
2012    19      5       2.709035        260.7641
2012    19      6       2.246224        250.372
2012    19      7       1.955688        240.4659
2012    20      0       1.903445        238.553
2012    20      1       1.936254        239.6807
2012    20      2       1.908522        238.4609
2012    20      3       1.892001        237.7971
2012    20      4       2.210525        249.179
2012    20      5       2.21386         249.373
2012    20      6       1.902079        237.3397
2012    20      7       1.724277        229.8483
2012    21      0       1.410821        213.4392
2012    21      1       1.143589        193.5228
2012    21      2       1.189584        197.397
2012    21      3       0.8609649       164.5221
2012    21      4       1.144549        193.5159
2012    21      5       1.122653        191.5037
2012    21      6       0.6463478       135.956
2012    21      7       0.6982704       143.411
2012    22      0       0.885843        167.6035
2012    22      1       1.051723        185.0314
2012    22      2       1.12039         191.0841
2012    22      3       1.096959        188.7226
2012    22      4       1.008233        180.2583
2012    22      5       0.7450588       150.1638
2012    22      6       0.5769476       126.2981
2012    22      7       0.5155362       116.5839
2012    23      0       0.5147357       116.3352
2012    23      1       0.5377038       119.8721
2012    23      2       0.5386778       119.9076
2012    23      3       0.5510296       121.8704
2012    23      4       0.5729312       125.2835
2012    23      5       0.5658548       124.2065
2012    23      6       0.4946325       112.579
2012    23      7       0.4014807       95.86068
2012    24      0       0.3806606       91.71668
2012    24      1       0.3791643       91.2861
2012    24      2       0.3743263       90.43329
2012    24      3       0.3761651       90.83511
2012    24      4       0.4257119       99.98228
2012    24      5       0.5646693       123.7091
2012    24      6       0.6926573       142.5363
2012    24      7       0.6668246       138.4635
2012    25      0       0.9215565       170.059
2012    25      1       1.493745        218.2831
2012    25      2       1.699374        230.3004
2012    25      3       1.475537        217.5213
2012    25      4       1.661299        228.1731
2012    25      5       1.667727        228.5439
2012    25      6       1.194058        196.9109
2012    25      7       0.9065787       168.0567
2012    26      0       1.221031        197.8314
2012    26      1       1.539377        220.5113
2012    26      2       1.837161        236.1688
2012    26      3       1.805604        234.6638
2012    26      4       1.692858        229.1816
2012    26      5       1.672301        228.4542
2012    26      6       1.665008        228.0243
2012    26      7       1.64957         227.0408
2012    27      0       1.548905        221.2586
2012    27      1       1.494191        217.609
2012    27      2       1.42309         212.8993
2012    27      3       1.34449         207.5097
2012    27      4       1.444704        214.3198
2012    27      5       1.48944         217.0371
2012    27      6       1.306466        204.0363
2012    27      7       1.137698        190.0484
2012    28      0       1.215181        196.3935
2012    28      1       1.266238        199.969
2012    28      2       1.211104        195.1386
2012    28      3       1.209087        195.0747
2012    28      4       1.296487        202.1738
2012    28      5       1.396403        209.6314
2012    28      6       1.613058        223.1385
2012    28      7       1.925059        238.7811
2012    29      0       1.97957         241.4364
2012    29      1       1.746119        231.0444
2012    29      2       1.65023         226.2033
2012    29      3       1.678122        227.8837
2012    29      4       1.642093        226.1244
2012    29      5       1.541999        220.4583
2012    29      6       1.356135        208.3599
2012    29      7       1.280758        202.6787
2012    30      0       1.33109         206.0727
2012    30      1       1.419612        211.9977
2012    30      2       1.57226         221.5034
2012    30      3       1.557728        220.8041
2012    30      4       1.390673        210.4132
2012    30      5       1.194761        195.92
2012    30      6       1.064162        185.1075
2012    30      7       1.130546        191.0263
2013    1       0       2.414584        257.0337
2013    1       1       2.426327        256.8992
2013    1       2       2.333341        254.5444
2013    1       3       1.849244        238.1752
2013    1       4       1.579237        224.3155
2013    1       5       1.631233        226.8614
2013    1       6       1.896573        239.4074
2013    1       7       2.283828        253.5296
2013    2       0       2.217497        252.0095
2013    2       1       2.179336        250.6874
2013    2       2       2.236268        252.0654
2013    2       3       1.920071        241.1695
2013    2       4       2.161535        250.008
2013    2       5       2.654669        262.6147
2013    2       6       2.469915        258.9426
2013    2       7       2.014301        245.2513
2013    3       0       2.060977        247.1964
2013    3       1       2.190218        251.4787
2013    3       2       2.478964        259.2614
2013    3       3       2.445202        258.4501
2013    3       4       2.431556        258.1136
2013    3       5       2.433136        258.0855
2013    3       6       1.931441        241.7879
2013    3       7       1.448681        216.364
2013    4       0       1.386965        211.9345
2013    4       1       1.677916        228.8859
2013    4       2       1.928638        240.0264
2013    4       3       1.683434        229.1529
2013    4       4       1.649479        228.0319
2013    4       5       1.417455        214.5217
2013    4       6       0.4311784       101.841
2013    4       7       0.2655349       69.45031
2013    5       0       0.2558517       67.19729
2013    5       1       0.3693946       89.46307
2013    5       2       0.4772898       108.1208
2013    5       3       0.493827        111.0174
2013    5       4       0.4938639       110.8478
2013    5       5       0.6190031       129.4951
2013    5       6       1.078723        182.6295
2013    5       7       1.379526        208.0847
2013    6       0       1.437218        212.5037
2013    6       1       1.563925        220.5385
2013    6       2       2.074393        244.388
2013    6       3       2.382356        254.2888
2013    6       4       2.544128        257.9801
2013    6       5       2.890994        264.115
2013    6       6       2.000722        242.9951
2013    6       7       3.100019        266.1621
2013    7       0       3.123404        266.7655
2013    7       1       2.91235         263.4225
2013    7       2       3.123466        265.9521
2013    7       3       3.430625        269.425
2013    7       4       3.907305        272.7413
2013    7       5       4.080046        273.8025
2013    7       6       3.648523        271.4623
2013    7       7       3.41664         269.3592
2013    8       0       3.210875        266.9126
2013    8       1       2.764277        260.6148
2013    8       2       1.95438         239.4696
2013    8       3       1.235826        199.4279
2013    8       4       0.9165328       169.4612
2013    8       5       0.6238794       132.3263
2013    8       6       0.9216163       170.2552
2013    8       7       0.724919        146.6107
2013    9       0       0.4488985       104.6959
2013    9       1       0.6430669       135.6514
2013    9       2       0.6423707       135.6851
2013    9       3       0.3741513       91.19886
2013    9       4       0.3047728       77.49754
2013    9       5       0.3089738       78.16322
2013    9       6       0.3360541       83.05959
2013    9       7       0.4117817       96.51755
2013    10      0       0.5859804       124.6749
2013    10      1       0.9300159       169.2191
2013    10      2       1.491378        217.4479
2013    10      3       2.513829        259.7067
2013    10      4       2.856988        267.3304
2013    10      5       2.778361        266.1861
2013    10      6       2.54949         261.386
2013    10      7       2.475439        259.7325
2013    11      0       2.471428        260.088
2013    11      1       2.264738        254.5793
2013    11      2       1.672583        230.4071
2013    11      3       1.320471        208.5776
2013    11      4       1.397007        214.3074
2013    11      5       1.619494        228.4418
2013    11      6       1.522077        222.3328
2013    11      7       1.64276         228.9612
2013    12      0       1.898982        241.3321
2013    12      1       2.023509        246.3588
2013    12      2       2.056654        247.4802
2013    12      3       2.040231        246.903
2013    12      4       2.024699        246.4971
2013    12      5       1.881027        240.4574
2013    12      6       1.622366        227.4503
2013    12      7       1.444364        216.8064
2013    13      0       1.514936        221.3059
2013    13      1       1.712278        232.0625
2013    13      2       1.652051        228.7718
2013    13      3       1.532951        222.2549
2013    13      4       1.71959         232.9564
2013    13      5       1.704401        232.2314
2013    13      6       1.482743        219.8515
2013    13      7       1.980869        244.6707
2013    14      0       2.290521        253.5362
2013    14      1       1.259818        200.7809
2013    14      2       1.031742        181.5105
2013    14      3       0.7337921       147.2627
2013    14      4       0.6974492       142.7831
2013    14      5       0.6954512       143.1629
2013    14      6       0.6159637       131.2093
2013    14      7       0.7407218       148.7587
2013    15      0       0.8444951       161.9491
2013    15      1       0.8102731       157.7543
2013    15      2       0.7465458       148.9642
2013    15      3       0.8009024       156.1254
2013    15      4       1.185904        195.9799
2013    15      5       0.8009383       156.7346
2013    15      6       0.7656343       152.7557
2013    15      7       0.9379828       172.9015
2013    16      0       0.9500502       173.1565
2013    16      1       1.359733        207.9861
2013    16      2       1.607277        224.8979
2013    16      3       2.513171        258.8005
2013    16      4       3.617869        274.0756
2013    16      5       3.707848        274.5999
2013    16      6       3.753932        274.6965
2013    16      7       3.108945        268.8118
2013    17      0       2.231737        252.2672
2013    17      1       2.219053        251.3696
2013    17      2       2.457983        258.4301
2013    17      3       1.181112        191.2628
2013    17      4       1.137609        189.3428
2013    17      5       1.863783        235.8571
2013    17      6       2.068631        246.1457
2013    17      7       1.198888        197.2816
2013    18      0       1.538673        220.9103
2013    18      1       1.37959         210.5259
2013    18      2       1.134466        190.752
2013    18      3       1.278232        203.5456
2013    18      4       2.023993        243.4939
2013    18      5       2.46641         256.5137
2013    18      6       1.835255        236.1193
2013    18      7       1.643142        226.3618
2013    19      0       2.081875        246.7128
2013    19      1       1.604357        223.8354
2013    19      2       1.75593         231.7325
2013    19      3       1.649709        227.6672
2013    19      4       1.600098        225.8405
2013    19      5       1.467964        218.1389
2013    19      6       1.357895        210.4163
2013    19      7       1.169692        194.7665
2013    20      0       1.317436        204.2276
2013    20      1       1.441914        212.2651
2013    20      2       1.758238        229.7722
2013    20      3       1.439429        212.5854
2013    20      4       2.20698         250.5631
2013    20      5       2.980227        266.6349
2013    20      6       2.791859        262.8965
2013    20      7       2.529193        257.7322
2013    21      0       2.570497        258.6806
2013    21      1       2.595103        258.7697
2013    21      2       2.761454        261.5442
2013    21      3       2.942267        264.2664
2013    21      4       3.264579        268.2276
2013    21      5       2.919506        264.0214
2013    21      6       2.207402        248.8488
2013    21      7       2.041441        243.3772
2013    22      0       2.200481        248.2324
2013    22      1       2.331222        251.4029
2013    22      2       2.421009        253.4197
2013    22      3       2.338245        250.8163
2013    22      4       2.326115        249.4536
2013    22      5       2.254339        247.0935
2013    22      6       2.1661          244.0914
2013    22      7       2.095088        241.556
2013    23      0       1.882942        233.3482
2013    23      1       1.456399        210.3107
2013    23      2       1.812533        229.8179
2013    23      3       1.216777        192.4639
2013    23      4       1.244216        195.3066
2013    23      5       1.547869        217.4293
2013    23      6       0.8016684       153.4947
2013    23      7       0.8029153       154.4193
2013    24      0       1.0357          179.6386
2013    24      1       1.315387        202.8596
2013    24      2       1.615753        221.9016
2013    24      3       1.937692        236.8785
2013    24      4       2.094386        243.2263
2013    24      5       1.973109        239.7645
2013    24      6       1.332192        206.1371
2013    24      7       0.9479075       172.2951
2013    25      0       0.9054323       167.9342
2013    25      1       0.8833973       165.6189
2013    25      2       0.8306789       159.4986
2013    25      3       0.7850529       153.9861
2013    25      4       1.074245        185.9016
2013    25      5       1.073941        186.3105
2013    25      6       0.8103074       157.7386
2013    25      7       0.752462        150.4437
2013    26      0       0.8134577       157.5532
2013    26      1       0.840591        160.7331
2013    26      2       0.8062986       156.2726
2013    26      3       0.767709        151.5068
2013    26      4       1.264802        201.3202
2013    26      5       1.591289        222.7133
2013    26      6       0.9664659       173.6049
2013    26      7       0.8404035       159.2454
2013    27      0       0.8685499       162.814
2013    27      1       0.786589        153.3301
2013    27      2       0.8099141       155.4934
2013    27      3       0.8828489       164.3295
2013    27      4       1.468194        215.6264
2013    27      5       1.223851        198.3339
2013    27      6       0.8235464       158.3879
2013    27      7       0.967439        174.6032
2013    28      0       1.364285        208.935
2013    28      1       1.636116        225.8106
2013    28      2       1.544747        220.9419
2013    28      3       1.461872        216.0577
2013    28      4       1.754199        232.1109
2013    28      5       1.664162        227.891
2013    28      6       1.29948         205.0998
2013    28      7       1.349075        208.7418
2013    29      0       1.46474         216.2176
2013    29      1       1.544689        220.8513
2013    29      2       1.557217        221.6767
2013    29      3       1.601512        224.4848
2013    29      4       1.810421        235.1832
2013    29      5       1.822338        236.0698
2013    29      6       1.5152          219.83
2013    29      7       1.411459        212.8074
2013    30      0       1.484022        217.2833
2013    30      1       1.513057        218.9403
2013    30      2       1.371739        209.5866
2013    30      3       1.219597        198.2265
2013    30      4       1.206138        197.1387
2013    30      5       1.293018        203.3603
2013    30      6       1.603115        223.2369
2013    30      7       2.557218        257.9604
2014    1       0       1.23716         201.094
2014    1       1       1.386214        212.0628
2014    1       2       1.640817        227.1678
2014    1       3       1.838449        236.6178
2014    1       4       2.391809        255.8647
2014    1       5       2.43548         257.1424
2014    1       6       1.661268        228.5971
2014    1       7       1.239114        200.3807
2014    2       0       1.460396        215.9595
2014    2       1       1.757036        232.5506
2014    2       2       1.799248        235.272
2014    2       3       2.056254        245.946
2014    2       4       3.056003        268.5748
2014    2       5       2.976508        267.5134
2014    2       6       3.104648        269.6659
2014    2       7       3.752464        275.8605
2014    3       0       3.772588        275.6434
2014    3       1       3.315159        271.9522
2014    3       2       2.697044        263.6458
2014    3       3       1.998747        245.0486
2014    3       4       1.624324        227.8147
2014    3       5       1.101217        190.0245
2014    3       6       1.275558        205.2413
2014    3       7       1.693997        231.4783
2014    4       0       1.496198        222.7104
2014    4       1       1.304915        209.5335
2014    4       2       1.328125        210.7818
2014    4       3       1.618674        229.4115
2014    4       4       2.123023        250.7366
2014    4       5       1.891859        240.1315
2014    4       6       1.41107         214.3957
2014    4       7       1.137946        192.8456
2014    5       0       1.207495        198.5293
2014    5       1       1.308588        206.2882
2014    5       2       1.334564        208.0289
2014    5       3       1.465505        216.7362
2014    5       4       2.054022        244.9838
2014    5       5       2.220849        250.5484
2014    5       6       1.744674        232.3229
2014    5       7       1.386394        211.1899
2014    6       0       1.448694        215.0859
2014    6       1       1.77721         233.4093
2014    6       2       1.903232        239.0839
2014    6       3       1.826274        235.6279
2014    6       4       2.105354        246.561
2014    6       5       2.192457        249.6288
2014    6       6       1.898819        239.2723
2014    6       7       1.845283        237.1725
2014    7       0       1.931216        240.6813
2014    7       1       1.675058        228.2967
2014    7       2       1.649691        226.3782
2014    7       3       1.836482        235.4745
2014    7       4       2.297721        252.0811
2014    7       5       2.094144        246.0487
2014    7       6       1.709558        230.1683
2014    7       7       1.771782        233.2124
2014    8       0       1.90734         239.3536
2014    8       1       2.129977        247.6981
2014    8       2       2.372872        254.8389
2014    8       3       2.584405        259.6732
2014    8       4       2.596811        259.9198
2014    8       5       2.288891        252.7507
2014    8       6       2.021083        244.2271
2014    8       7       1.954907        241.3562
2014    9       0       2.138311        247.6708
2014    9       1       2.439367        256.2112
2014    9       2       2.902918        265.0375
2014    9       3       2.901113        265.1399
2014    9       4       3.174647        268.3363
2014    9       5       3.268257        269.0865
2014    9       6       3.010545        265.7885
2014    9       7       2.783679        262.1353
2014    10      0       2.746907        261.2767
2014    10      1       2.643076        259.2306
2014    10      2       2.739618        261.3621
2014    10      3       2.622105        259.3432
2014    10      4       2.545788        257.7785
2014    10      5       2.511614        257.2408
2014    10      6       2.022826        243.3382
2014    10      7       1.723075        230.3471
2014    11      0       1.61404         224.7335
2014    11      1       1.750344        231.6063
2014    11      2       1.900966        238.3433
2014    11      3       2.143222        247.3019
2014    11      4       2.45269         256.0585
2014    11      5       2.554508        258.7085
2014    11      6       2.428893        255.9708
2014    11      7       2.101096        246.5569
2014    12      0       1.89782         238.7298
2014    12      1       1.862254        236.8115
2014    12      2       2.071883        244.8558
2014    12      3       2.520057        257.7832
2014    12      4       3.378594        270.5367
2014    12      5       3.478881        271.542
2014    12      6       2.68702         261.5354
2014    12      7       2.132131        247.3775
2014    13      0       1.98211         241.467
2014    13      1       2.082803        244.8684
2014    13      2       2.025445        242.8372
2014    13      3       1.963167        240.5618
2014    13      4       2.172079        248.3577
2014    13      5       2.122853        247.4027
2014    13      6       1.859261        237.8302
2014    13      7       1.744306        232.4613
2014    14      0       1.734836        231.6718
2014    14      1       1.945635        240.7806
2014    14      2       2.169718        248.5934
2014    14      3       2.235899        250.6413
2014    14      4       2.369261        254.3152
2014    14      5       2.384353        254.7401
2014    14      6       1.924379        239.8598
2014    14      7       1.734683        231.567
2014    15      0       1.640632        226.1188
2014    15      1       1.263538        200.9191
2014    15      2       1.177121        194.1512
2014    15      3       1.229633        198.9452
2014    15      4       1.67728         228.6315
2014    15      5       1.776698        233.9679
2014    15      6       1.422364        214.1855
2014    15      7       1.125105        191.0106
2014    16      0       1.0914          187.5283
2014    16      1       1.285175        203.3541
2014    16      2       1.626334        224.966
2014    16      3       1.978165        240.8963
2014    16      4       2.394089        254.323
2014    16      5       2.393291        254.3963
2014    16      6       2.013788        242.2636
2014    16      7       1.55136         220.1207
2014    17      0       1.53157         219.088
2014    17      1       2.099067        244.7977
2014    17      2       2.327277        251.1542
2014    17      3       2.325513        251.0654
2014    17      4       2.434101        254.6186
2014    17      5       2.459306        255.7003
2014    17      6       2.307467        251.3537
2014    17      7       2.361714        252.5943
2014    18      0       2.484458        255.6428
2014    18      1       2.661306        259.0082
2014    18      2       2.728398        259.7945
2014    18      3       2.50581         255.4295
2014    18      4       2.501755        255.5754
2014    18      5       2.424309        253.7101
2014    18      6       2.07086         243.3636
2014    18      7       2.086813        243.8043
2014    19      0       2.032915        241.9399
2014    19      1       2.071297        243.1244
2014    19      2       1.929233        238.3548
2014    19      3       1.695026        228.1382
2014    19      4       1.406994        211.4337
2014    19      5       1.29559         203.6585
2014    19      6       1.091129        186.8715
2014    19      7       0.8262032       158.3046
2014    20      0       0.9366158       169.9112
2014    20      1       1.192137        194.9049
2014    20      2       2.045267        243.8123
2014    20      3       2.384032        254.9916
2014    20      4       2.131018        249.1537
2014    20      5       2.249006        253.2505
2014    20      6       2.127804        248.8365
2014    20      7       2.196576        250.0844
2014    21      0       2.233369        251.0898
2014    21      1       2.85243         265.4587
2014    21      2       2.525013        259.6522
2014    21      3       2.447946        258.499
2014    21      4       2.625682        263.3729
2014    21      5       2.476704        259.8322
2014    21      6       1.945177        242.0167
2014    21      7       2.05749         247.0698
2014    22      0       2.366738        256.5969
2014    22      1       2.425004        257.9046
2014    22      2       2.500352        258.3789
2014    22      3       2.662874        261.6942
2014    22      4       3.165949        270.2166
2014    22      5       2.946727        268.4015
2014    22      6       2.82775         266.387
2014    22      7       2.754329        265.0287
2014    23      0       2.765327        264.4099
2014    23      1       2.421214        256.3321
2014    23      2       2.302572        253.376
2014    23      3       2.196477        251.0102
2014    23      4       2.142173        249.2372
2014    23      5       2.207078        251.564
2014    23      6       2.123652        249.2581
2014    23      7       2.001408        244.9688
2014    24      0       1.908851        240.5629
2014    24      1       2.23595         251.8248
2014    24      2       2.654561        262.7975
2014    24      3       2.284758        254.7133
2014    24      4       2.497284        260.841
2014    24      5       2.563918        261.8063
2014    24      6       2.701485        263.4898
2014    24      7       2.365777        255.1597
2014    25      0       1.889891        238.894
2014    25      1       1.996621        241.4563
2014    25      2       1.845277        236.5793
2014    25      3       2.556076        259.211
2014    25      4       2.769564        262.9095
2014    25      5       3.573789        273.0412
2014    25      6       3.322963        270.7017
2014    25      7       3.106808        268.1409
2014    26      0       2.806026        262.8318
2014    26      1       3.066292        266.5677
2014    26      2       3.202578        269.1893
2014    26      3       3.669149        274.078
2014    26      4       3.702571        274.3209
2014    26      5       3.467784        272.2225
2014    26      6       3.010464        265.9628
2014    26      7       2.898208        262.1883
2014    27      0       2.448662        253.574
2014    27      1       1.793033        231.4854
2014    27      2       1.840779        232.4335
2014    27      3       2.695136        255.9153
2014    27      4       2.793814        256.2931
2014    27      5       1.803837        227.092
2014    27      6       2.223366        243.7909
2014    27      7       1.949928        234.8048
2014    28      0       3.0073          261.3301
2014    28      1       2.569027        253.6792
2014    28      2       1.856477        231.9385
2014    28      3       2.094317        240.9654
2014    28      4       2.27206         246.4467
2014    28      5       2.23011         245.5825
2014    28      6       1.931668        235.2902
2014    28      7       2.147749        243.5035
2014    29      0       2.328111        249.027
2014    29      1       1.776762        229.6267
2014    29      2       1.962252        237.8399
2014    29      3       1.977129        239.014
2014    29      4       1.427202        211.5542
2014    29      5       1.733155        228.8595
2014    29      6       1.813671        232.6895
2014    29      7       2.039041        241.7421
2014    30      0       1.765577        230.9823
2014    30      1       0.9257445       169.9001
2014    30      2       0.4423533       101.9485
2014    30      3       0.3279894       80.32456
2014    30      4       0.3571667       84.84936
2014    30      5       0.4320609       98.04626
2014    30      6       0.5572278       118.3516
2014    30      7       0.6217328       128.8459
2015    1       0       0.8522192       164.2314
2015    1       1       0.828202        161.2867
2015    1       2       0.7371865       149.5486
2015    1       3       0.7251943       147.7392
2015    1       4       1.03067         183.1852
2015    1       5       1.250221        202.9421
2015    1       6       1.058385        186.2785
2015    1       7       0.7942466       157.1473
2015    2       0       0.7374191       148.9814
2015    2       1       0.8739108       165.0525
2015    2       2       0.8809135       165.6316
2015    2       3       0.9982236       177.039
2015    2       4       1.484384        217.5742
2015    2       5       1.357913        209.5018
2015    2       6       0.9891349       177.8473
2015    2       7       0.84511         162.0882
2015    3       0       0.8585525       164.4051
2015    3       1       1.210577        199.253
2015    3       2       1.75718         233.8286
2015    3       3       2.064675        246.61
2015    3       4       2.152707        250.2794
2015    3       5       2.246238        253.1159
2015    3       6       1.762957        235.0748
2015    3       7       1.842016        238.7483
2015    4       0       2.100306        248.9163
2015    4       1       2.106809        249.2093
2015    4       2       1.988271        244.8549
2015    4       3       1.493717        220.522
2015    4       4       1.8341          238.9347
2015    4       5       1.95889         244.6731
2015    4       6       1.473033        220.5004
2015    4       7       1.059237        187.6408
2015    5       0       1.190173        199.4229
2015    5       1       1.378347        213.8102
2015    5       2       1.469992        219.9146
2015    5       3       1.525573        223.3583
2015    5       4       1.699094        233.0691
2015    5       5       1.416616        216.474
2015    5       6       0.8879669       168.5857
2015    5       7       0.7098476       145.608
2015    6       0       0.8410155       162.0106
2015    6       1       1.179002        196.3499
2015    6       2       1.509296        220.8552
2015    6       3       1.769638        235.6418
2015    6       4       2.041367        247.6416
2015    6       5       2.087823        249.4588
2015    6       6       2.071713        248.9982
2015    6       7       2.16041         252.0628
2015    7       0       2.349046        256.9998
2015    7       1       2.415429        258.168
2015    7       2       2.438798        258.7117
2015    7       3       2.498829        260.5039
2015    7       4       2.609052        262.7936
2015    7       5       2.587588        261.9001
2015    7       6       2.265644        253.0303
2015    7       7       2.214788        251.9235
2015    8       0       2.245317        252.6918
2015    8       1       2.277138        252.851
2015    8       2       2.200332        250.0576
2015    8       3       2.227196        250.9591
2015    8       4       2.68328         262.4079
2015    8       5       2.960178        267.464
2015    8       6       3.054528        269.0657
2015    8       7       2.652441        262.6202
2015    9       0       2.669477        262.7518
2015    9       1       2.876523        265.7255
2015    9       2       2.369417        255.3325
2015    9       3       2.444059        257.1359
2015    9       4       3.111225        269.5783
2015    9       5       3.339867        272.0893
2015    9       6       2.933175        266.5326
2015    9       7       2.801337        264.4719
2015    10      0       2.633915        261.3285
2015    10      1       2.697152        262.7356
2015    10      2       2.77803         264.6606
2015    10      3       2.964375        267.6216
2015    10      4       3.142696        270.045
2015    10      5       3.25314         271.5206
2015    10      6       3.03644         268.5387
2015    10      7       2.8094          264.5363
2015    11      0       2.956464        267.0804
2015    11      1       2.921843        266.5133
2015    11      2       2.77862         264.2247
2015    11      3       2.763095        264.1388
2015    11      4       2.704828        261.6952
2015    11      5       2.889811        265.0838
2015    11      6       2.932709        265.9721
2015    11      7       2.579417        258.7988
2015    12      0       2.607968        259.5852
2015    12      1       1.896211        238.0683
2015    12      2       1.388793        210.8558
2015    12      3       1.258751        201.5061
2015    12      4       1.310111        206.6069
2015    12      5       1.207753        198.7847
2015    12      6       0.9056712       169.4534
2015    12      7       0.8356798       161.2674
2015    13      0       1.02653         182.1333
2015    13      1       1.167388        194.9512
2015    13      2       1.05661         184.9388
2015    13      3       0.9002621       168.9554
2015    13      4       0.7728192       153.1219
2015    13      5       0.7579079       151.1544
2015    13      6       0.7643319       151.9222
2015    13      7       0.6669172       138.7282
2015    14      0       0.6240044       132.4275
2015    14      1       0.6275007       132.8256
2015    14      2       0.6229723       131.9465
2015    14      3       0.6061339       129.2629
2015    14      4       0.6442505       134.8297
2015    14      5       0.7830908       154.3388
2015    14      6       0.7575658       151.0257
2015    14      7       0.8200298       159.0299
2015    15      0       0.7661073       152.1994
2015    15      1       0.7111338       144.6903
2015    15      2       0.9030218       168.3509
2015    15      3       1.338611        208.264
2015    15      4       1.850258        237.5905
2015    15      5       1.948151        241.7612
2015    15      6       1.692809        229.9692
2015    15      7       1.418035        213.6355
2015    16      0       0.9216215       170.6663
2015    16      1       0.7538536       150.6955
2015    16      2       0.8114637       158.1826
2015    16      3       0.9435353       173.3024
2015    16      4       1.184168        196.2126
2015    16      5       1.521685        220.329
2015    16      6       1.596998        224.4876
2015    16      7       1.266542        202.4809
2015    17      0       1.554858        221.7916
2015    17      1       1.86594         237.6816
2015    17      2       2.057352        245.2219
2015    17      3       2.190486        249.6027
2015    17      4       2.191219        249.5635
2015    17      5       2.164675        248.7871
2015    17      6       2.1321          247.6979
2015    17      7       2.097106        246.5022
2015    18      0       4.493977        280.4946
2015    18      1       2.330894        253.3725
2015    18      2       2.247386        250.8964
2015    18      3       2.146527        247.8351
2015    18      4       2.060596        245.2466
2015    18      5       2.104506        246.8798
2015    18      6       2.134525        247.5364
2015    18      7       2.025279        243.7403
2015    19      0       1.932887        240.3817
2015    19      1       2.127628        246.955
2015    19      2       2.227389        249.646
2015    19      3       2.164959        247.6401
2015    19      4       2.331271        252.8386
2015    19      5       2.343145        253.0361
2015    19      6       2.161315        247.1386
2015    19      7       1.744937        230.5843
2015    20      0       1.561249        221.1492
2015    20      1       1.455408        214.5368
2015    20      2       1.337484        206.106
2015    20      3       1.279348        201.4898
2015    20      4       2.229101        249.3334
2015    20      5       2.90213         264.6419
2015    20      6       3.094957        268.034
2015    20      7       3.015742        267.0567
2015    21      0       2.726824        262.4207
2015    21      1       2.602382        259.2319
2015    21      2       2.382139        253.8843
2015    21      3       2.43624         255.3789
2015    21      4       2.943319        264.8098
2015    21      5       2.851015        262.5549
2015    21      6       2.466327        254.5193
2015    21      7       2.460721        252.7682
2015    22      0       2.76532         256.8632
2015    22      1       3.143167        262.5448
2015    22      2       3.880633        270.0305
2015    22      3       3.88543         270.9512
2015    22      4       4.147139        273.9037
2015    22      5       3.977476        273.4803
2015    22      6       3.470492        270.013
2015    22      7       2.47148         254.4801
2015    23      0       2.819525        261.4668
2015    23      1       2.749029        260.8116
2015    23      2       2.808716        262.3029
2015    23      3       2.388447        253.6771
2015    23      4       2.669282        260.5622
2015    23      5       2.131101        246.9629
2015    23      6       1.738164        230.8338
2015    23      7       1.636135        225.312
2015    24      0       1.906077        237.7486
2015    24      1       2.221473        248.7584
2015    24      2       2.137724        246.0471
2015    24      3       2.177642        247.9457
2015    24      4       2.471795        256.1398
2015    24      5       2.529141        257.9073
2015    24      6       2.448943        256.2112
2015    24      7       2.38827         254.1952
2015    25      0       2.159589        247.4868
2015    25      1       1.825751        234.9576
2015    25      2       1.547665        220.8534
2015    25      3       1.30375         204.6251
2015    25      4       1.454417        215.2291
2015    25      5       1.384911        210.7295
2015    25      6       1.437544        215.0692
2015    25      7       1.903217        239.1495
2015    26      0       2.974847        265.079
2015    26      1       3.370768        269.9104
2015    26      2       3.539071        271.2033
2015    26      3       3.516104        270.6783
2015    26      4       2.852222        263.7263
2015    26      5       2.370922        254.2572
2015    26      6       2.582349        259.2563
2015    26      7       1.756733        231.4733
2015    27      0       1.490246        216.3079
2015    27      1       1.480109        214.3844
2015    27      2       1.807046        232.3113
2015    27      3       1.92849         236.7965
2015    27      4       2.661989        256.9358
2015    27      5       3.54767         270.6435
2015    27      6       3.888065        272.143
2015    27      7       4.615908        275.9527
2015    28      0       4.711277        276.1776
2015    28      1       3.642104        271.2526
2015    28      2       3.752714        272.2282
2015    28      3       3.74321         271.991
2015    28      4       3.146946        267.2477
2015    28      5       2.389017        253.9492
2015    28      6       1.756026        231.3402
2015    28      7       1.365822        208.3005
2015    29      0       1.403056        210.4237
2015    29      1       1.534813        218.4144
2015    29      2       1.758699        230.6851
2015    29      3       2.300733        249.831
2015    29      4       2.804884        260.5116
2015    29      5       2.888412        261.9023
2015    29      6       2.625096        256.9582
2015    29      7       2.675295        257.8254
2015    30      0       2.844583        261.1178
2015    30      1       3.132528        264.7101
2015    30      2       3.072804        263.6225
2015    30      3       3.088404        264.0566
2015    30      4       2.505935        254.1728
2015    30      5       2.093849        243.1608
2015    30      6       1.880072        235.6534
2015    30      7       1.817675        233.2084
2016    1       0       1.097267        189.9645
2016    1       1       1.128644        192.5321
2016    1       2       1.136307        193.0811
2016    1       3       1.283711        205.1658
2016    1       4       1.340986        209.6445
2016    1       5       1.274159        204.6911
2016    1       6       1.487987        219.2264
2016    1       7       1.622485        226.8208
2016    2       0       1.212162        198.3004
2016    2       1       2.372657        255.4588
2016    2       2       1.741981        232.0116
2016    2       3       1.699298        230.0406
2016    2       4       1.972678        241.1853
2016    2       5       2.222447        249.5877
2016    2       6       2.205629        248.6356
2016    2       7       2.108776        245.1685
2016    3       0       1.78164         231.689
2016    3       1       1.494543        215.354
2016    3       2       1.394783        209.3293
2016    3       3       1.048943        180.8233
2016    3       4       1.223107        195.9265
2016    3       5       1.447731        212.315
2016    3       6       1.390535        208.618
2016    3       7       1.290778        202.0821
2016    4       0       1.242925        198.8171
2016    4       1       1.160446        192.3488
2016    4       2       1.024719        180.0144
2016    4       3       0.8253208       158.1702
2016    4       4       0.6081546       129.4165
2016    4       5       0.4948793       111.5987
2016    4       6       0.5962192       127.6792
2016    4       7       0.6599001       137.3914
2016    5       0       0.6594661       137.4827
2016    5       1       0.6265675       132.3236
2016    5       2       0.5366536       118.239
2016    5       3       0.5129107       114.2286
2016    5       4       0.7012555       142.437
2016    5       5       0.9234511       169.779
2016    5       6       0.6780663       139.3217
2016    5       7       0.6672693       137.7896
2016    6       0       0.944976        171.8039
2016    6       1       1.084784        185.4308
2016    6       2       1.19723         194.3675
2016    6       3       1.712022        228.1698
2016    6       4       3.402769        270.5823
2016    6       5       3.486013        271.041
2016    6       6       3.041383        264.686
2016    6       7       2.609954        256.9317
2016    7       0       2.118207        244.4048
2016    7       1       2.12914         246.1766
2016    7       2       2.342331        252.937
2016    7       3       2.413455        254.5996
2016    7       4       2.522838        257.4782
2016    7       5       2.87081         264.2345
2016    7       6       2.578251        259.1765
2016    7       7       2.43943         255.8511
2016    8       0       2.49656         257.584
2016    8       1       2.447338        256.2826
2016    8       2       2.279222        252.1243
2016    8       3       2.0954          246.3883
2016    8       4       2.173126        249.0892
2016    8       5       2.236319        251.3722
2016    8       6       2.077307        245.7496
2016    8       7       1.814008        233.9127
2016    9       0       1.83187         234.5811
2016    9       1       2.021143        241.9597
2016    9       2       2.121531        244.9552
2016    9       3       4.653903        279.0005
2016    9       4       4.054714        276.5991
2016    9       5       1.88655         237.307
2016    9       6       1.64486         226.8561
2016    9       7       1.118553        189.5761
2016    10      0       1.406805        211.7578
2016    10      1       1.678766        227.8805
2016    10      2       1.824555        234.5313
2016    10      3       1.963748        240.0895
2016    10      4       2.189841        248.1099
2016    10      5       2.347355        252.8569
2016    10      6       1.450361        214.7742
2016    10      7       1.082962        187.2205
2016    11      0       1.031681        182.583
2016    11      1       1.213608        198.5257
2016    11      2       1.509831        219.1047
2016    11      3       1.787097        233.724
2016    11      4       2.505401        257.0098
2016    11      5       2.736104        261.3618
2016    11      6       1.909677        238.7283
2016    11      7       1.34107         207.3865
2016    12      0       1.370386        209.0925
2016    12      1       1.365918        208.6118
2016    12      2       1.48123         216.0089
2016    12      3       1.759676        231.5829
2016    12      4       2.389971        253.6922
2016    12      5       2.47094         255.8384
2016    12      6       1.774836        232.6594
2016    12      7       1.553646        221.4621
2016    13      0       1.571265        222.4979
2016    13      1       1.51744         219.2045
2016    13      2       1.388529        210.7918
2016    13      3       1.356912        208.5052
2016    13      4       1.459994        215.4391
2016    13      5       1.583791        223.1751
2016    13      6       1.526102        219.7591
2016    13      7       1.443523        214.6013
2016    14      0       1.582016        222.8764
2016    14      1       1.762791        232.2241
2016    14      2       1.68275         228.13
2016    14      3       1.566946        221.9494
2016    14      4       1.601805        224.0736
2016    14      5       1.563443        221.7433
2016    14      6       1.282299        202.868
2016    14      7       1.197627        195.5063
2016    15      0       1.739015        231.1705
2016    15      1       1.268846        200.5529
2016    15      2       2.686059        261.1675
2016    15      3       1.415727        212.4486
2016    15      4       2.104269        246.0645
2016    15      5       2.168448        248.2923
2016    15      6       1.893679        238.6626
2016    15      7       1.523329        220.1938
2016    16      0       1.272477        202.3603
2016    16      1       1.253306        199.9101
2016    16      2       1.358091        207.0693
2016    16      3       1.374363        208.8327
2016    16      4       1.32564         205.8447
2016    16      5       1.146033        192.2591
2016    16      6       1.002724        179.5211
2016    16      7       0.9037031       169.261
2016    17      0       0.7562819       151.5155
2016    17      1       0.4639754       107.1182
2016    17      2       0.3581561       87.51997
2016    17      3       0.3565857       86.64552
2016    17      4       0.9304011       169.2775
2016    17      5       1.696359        229.7767
2016    17      6       2.004204        245.0302
2016    17      7       2.113755        249.4753
2016    18      0       2.635346        263.6395
2016    18      1       3.158424        271.8181
2016    18      2       2.849587        267.1655
2016    18      3       2.381777        256.3643
2016    18      4       2.500515        259.1269
2016    18      5       2.77472         264.593
2016    18      6       2.331939        254.6131
2016    18      7       2.58408         260.3028
2016    19      0       2.789327        264.46
2016    19      1       2.779391        263.6189
2016    19      2       3.242967        269.4021
2016    19      3       2.543195        258.4278
2016    19      4       2.65134         260.3045
2016    19      5       3.208678        268.9759
2016    19      6       3.1996          269.2569
2016    19      7       2.666592        260.6686
2016    20      0       2.715137        261.8968
2016    20      1       2.852165        264.2616
2016    20      2       2.855731        263.8309
2016    20      3       3.155593        268.354
2016    20      4       3.510817        272.016
2016    20      5       2.582557        259.2486
2016    20      6       1.025171        181.2523
2016    20      7       0.7545415       150.3205
2016    21      0       1.158839        192.4843
2016    21      1       1.307752        204.14
2016    21      2       1.387723        209.0128
2016    21      3       1.627079        224.2716
2016    21      4       2.404361        253.7654
2016    21      5       2.572498        256.9904
2016    21      6       2.121553        244.3471
2016    21      7       1.59888         221.6453
2016    22      0       1.986522        239.6572
2016    22      1       2.524757        254.8313
2016    22      2       2.864106        260.7957
2016    22      3       2.984271        264.3003
2016    22      4       2.49246         256.1297
2016    22      5       1.986018        241.0627
2016    22      6       1.574543        221.7608
2016    22      7       1.521091        218.3816
2016    23      0       1.696807        226.6751
2016    23      1       2.081433        242.1613
2016    23      2       2.379645        252.1453
2016    23      3       2.392249        252.9984
2016    23      4       1.386516        209.8946
2016    23      5       0.3837417       92.60443
2016    23      6       0.1769483       49.50268
2016    23      7       0.2424891       63.39517
2016    24      0       0.3270143       80.24269
2016    24      1       0.3901164       91.93247
2016    24      2       0.5014404       111.1756
2016    24      3       0.6277485       130.0567
2016    24      4       0.6988242       139.7045
2016    24      5       0.750729        146.9602
2016    24      6       0.741067        145.8832
2016    24      7       0.7629849       148.4152
2016    25      0       0.6274378       129.9602
2016    25      1       0.5579503       119.4546
2016    25      2       0.6570789       133.92
2016    25      3       0.8444164       157.5713
2016    25      4       0.9590241       170.9587
2016    25      5       0.8347844       157.0006
2016    25      6       0.7228894       142.9109
2016    25      7       0.8436507       157.3244
2016    26      0       0.9948416       172.9267
2016    26      1       1.038884        177.1601
2016    26      2       1.299863        198.824
2016    26      3       1.689919        223.517
2016    26      4       1.871713        232.9812
2016    26      5       1.850764        231.9027
2016    26      6       1.929909        235.3798
2016    26      7       1.769238        228.86
2016    27      0       1.559812        218.6273
2016    27      1       1.697265        225.7422
2016    27      2       1.935599        236.0824
2016    27      3       2.098644        242.1865
2016    27      4       2.087407        241.9938
2016    27      5       2.01833         239.7486
2016    27      6       2.02608         240.305
2016    27      7       1.827774        233.0406
2016    28      0       1.76447         230.8677
2016    28      1       1.808198        233.3271
2016    28      2       1.752349        230.909
2016    28      3       1.79517         233.3475
2016    28      4       1.78606         233.2455
2016    28      5       1.64471         226.0243
2016    28      6       1.436274        214.2194
2016    28      7       1.435086        214.129
2016    29      0       1.721168        230.501
2016    29      1       1.944731        240.1336
2016    29      2       2.021085        243.3185
2016    29      3       2.083122        245.8138
2016    29      4       2.195923        249.6757
2016    29      5       2.169376        249.1218
2016    29      6       1.87939         238.4776
2016    29      7       1.480184        217.0617
2016    30      0       1.139071        190.8737
2016    30      1       0.9770085       174.7605
2016    30      2       0.9525001       171.1375
2016    30      3       0.9174197       167.1691
2016    30      4       0.8107505       156.3611
2016    30      5       0.8346844       159.4235
2016    30      6       0.7323191       147.211
2016    30      7       0.6236454       132.1022
2017    1       0       0.938229        173.6722
2017    1       1       0.7688903       153.4965
2017    1       2       0.5615577       123.1315
2017    1       3       0.5186798       115.8552
2017    1       4       0.6073279       130.4846
2017    1       5       0.5932529       128.6833
2017    1       6       0.4875529       111.6389
2017    1       7       0.5177491       117.29
2017    2       0       0.591953        129.1527
2017    2       1       0.5574023       123.392
2017    2       2       0.5161599       116.3329
2017    2       3       0.5049652       114.3829
2017    2       4       0.5465776       121.2722
2017    2       5       0.5409346       120.4837
2017    2       6       0.5581193       123.4772
2017    2       7       0.5733265       126.0523
2017    3       0       0.56582         124.8737
2017    3       1       0.5660823       124.8439
2017    3       2       0.606939        130.8779
2017    3       3       0.8185389       160.1184
2017    3       4       1.628941        229.3579
2017    3       5       2.049908        248.013
2017    3       6       1.766526        235.9343
2017    3       7       1.702676        232.8039
2017    4       0       1.87361         240.2898
2017    4       1       1.675204        230.4759
2017    4       2       1.269818        205.298
2017    4       3       1.16089         196.9711
2017    4       4       0.9103376       171.7645
2017    4       5       0.1895506       52.89032
2017    4       6       0.2799195       73.02607
2017    4       7       0.3821337       93.42262
2017    5       0       0.4681644       109.0692
2017    5       1       0.5192365       117.8634
2017    5       2       0.581666        127.3814
2017    5       3       0.6190983       132.3192
2017    5       4       0.7684586       153.1784
2017    5       5       1.370725        211.2074
2017    5       6       0.9524944       172.1372
2017    5       7       0.9707374       175.2803
2017    6       0       1.326337        206.9252
2017    6       1       1.194602        197.6861
2017    6       2       1.196874        197.9889
2017    6       3       1.011398        180.9888
2017    6       4       1.235679        204.1077
2017    6       5       1.049933        184.5132
2017    6       6       0.6947578       142.9453
2017    6       7       1.089459        188.3102
2017    7       0       1.157037        194.3691
2017    7       1       1.123751        191.7111
2017    7       2       1.092367        188.9016
2017    7       3       1.085175        188.1748
2017    7       4       1.110823        190.6396
2017    7       5       1.170036        195.9556
2017    7       6       1.10086         189.4959
2017    7       7       0.9860673       178.3925
2017    8       0       0.9436091       173.2471
2017    8       1       1.044512        183.1232
2017    8       2       1.06473         185.3864
2017    8       3       1.017927        181.2342
2017    8       4       1.407996        213.31
2017    8       5       1.600329        225.3514
2017    8       6       1.632253        228.217
2017    8       7       2.526542        262.0979
2017    9       0       2.521158        261.6507
2017    9       1       2.275724        254.7835
2017    9       2       2.626139        263.7166
2017    9       3       2.613327        263.4726
2017    9       4       2.778394        266.3471
2017    9       5       2.485518        260.6069
2017    9       6       2.406024        258.2735
2017    9       7       2.393584        257.3369
2017    10      0       2.320031        255.2181
2017    10      1       2.057325        247.1869
2017    10      2       1.643613        229.4612
2017    10      3       1.52581         222.9759
2017    10      4       1.472812        220.0612
2017    10      5       1.010604        182.453
2017    10      6       0.5587709       124.0141
2017    10      7       0.6600993       139.8345
2017    11      0       0.6557797       138.9364
2017    11      1       0.7662323       153.8722
2017    11      2       1.128178        193.5474
2017    11      3       1.324534        210.1724
2017    11      4       1.307138        209.0377
2017    11      5       1.392607        215.4706
2017    11      6       1.477053        220.4683
2017    11      7       1.606944        228.0366
2017    12      0       1.782191        236.7578
2017    12      1       1.563235        225.6443
2017    12      2       1.331977        211.0295
2017    12      3       1.265462        206.0546
2017    12      4       1.02566         184.3552
2017    12      5       0.7053962       145.7113
2017    12      6       0.6193734       133.2485
2017    12      7       0.6136185       132.719
2017    13      0       0.5778966       127.6111
2017    13      1       0.63096         135.9215
2017    13      2       0.7361151       150.7394
2017    13      3       0.7462235       152.0639
2017    13      4       0.7136035       147.5661
2017    13      5       0.5656247       125.5675
2017    13      6       0.5712707       125.8467
2017    13      7       0.6983862       144.0606
2017    14      0       0.8238246       160.1389
2017    14      1       0.996982        179.545
2017    14      2       1.036444        183.7844
2017    14      3       1.119648        191.5702
2017    14      4       1.588713        225.3693
2017    14      5       1.568334        224.7437
2017    14      6       1.063229        187.0915
2017    14      7       0.5328735       120.0574
2017    15      0       0.355169        88.15135
2017    15      1       0.4323781       102.5029
2017    15      2       0.6027258       130.7965
2017    15      3       0.7131519       146.9721
2017    15      4       0.9160695       172.74
2017    15      5       0.7130716       148.2777
2017    15      6       0.3601878       89.98417
2017    15      7       0.3025485       78.13328
2017    16      0       0.2549009       67.82789
2017    16      1       0.2204278       60.21177
2017    16      2       0.1984015       55.26418
2017    16      3       0.1858608       52.22915
2017    16      4       0.1805188       50.73661
2017    16      5       0.1682761       47.78027
2017    16      6       0.1434258       41.83552
2017    16      7       0.1260649       37.6086
2017    17      0       0.1263532       37.73074
2017    17      1       0.140506        41.16131
2017    17      2       0.1518363       43.9093
2017    17      3       0.2066599       56.79531
2017    17      4       0.3375848       84.95423
2017    17      5       0.4242575       101.6987
2017    17      6       0.5146037       117.6819
2017    17      7       0.6854013       144.0033
2017    18      0       0.8217963       161.6966
2017    18      1       0.8153117       160.4507
2017    18      2       0.6759865       141.3621
2017    18      3       0.5786835       126.6208
2017    18      4       0.8018162       157.8009
2017    18      5       1.321003        208.4505
2017    18      6       1.455244        216.9074
2017    18      7       1.494545        218.946
2017    19      0       1.820375        236.4044
2017    19      1       1.916117        240.3789
2017    19      2       2.060056        245.3684
2017    19      3       2.008162        243.2789
2017    19      4       1.950016        240.9064
2017    19      5       2.104765        246.4753
2017    19      6       2.039265        244.6602
2017    19      7       1.818032        236.2585
2017    20      0       1.912005        240.0065
2017    20      1       2.058365        245.7918
2017    20      2       2.050597        245.16
2017    20      3       1.87361         236.439
2017    20      4       2.236339        249.8324
2017    20      5       2.389942        255.1025
2017    20      6       2.106894        246.9629
2017    20      7       2.234119        252.4557
2017    21      0       1.661576        228.5461
2017    21      1       1.665621        228.1063
2017    21      2       1.282288        202.8633
2017    21      3       1.050941        182.6306
2017    21      4       0.6874047       140.4609
2017    21      5       0.4506527       103.7743
2017    21      6       0.3224384       80.14252
2017    21      7       0.300943        75.55215
2017    22      0       0.329728        81.08885
2017    22      1       0.3684251       88.20108
2017    22      2       0.4029072       94.36795
2017    22      3       0.4018721       94.90268
2017    22      4       0.7903084       153.1711
2017    22      5       0.7484785       148.781
2017    22      6       0.3867133       92.31179
2017    22      7       0.4886586       110.0548
2017    23      0       0.5320956       117.438
2017    23      1       0.5442407       119.172
2017    23      2       0.6270696       130.6428
2017    23      3       0.7158244       143.0043
2017    23      4       0.9191451       167.3872
2017    23      5       0.9992913       176.236
2017    23      6       0.723463        144.458
2017    23      7       0.6985926       141.4091
2017    24      0       0.754033        148.129
2017    24      1       0.8081347       154.9266
2017    24      2       0.8194812       155.6721
2017    24      3       0.8804836       161.0088
2017    24      4       0.8988199       163.4322
2017    24      5       1.156808        187.1902
2017    24      6       1.809053        228.8617
2017    24      7       1.90021         234.2597
2017    25      0       2.313122        249.3955
2017    25      1       2.195809        246.1738
2017    25      2       2.024989        240.7541
2017    25      3       2.089912        243.2195
2017    25      4       1.949345        238.2773
2017    25      5       1.923931        237.4965
2017    25      6       1.652558        224.4728
2017    25      7       1.615993        222.7576
2017    26      0       1.654298        224.4062
2017    26      1       1.269793        199.5018
2017    26      2       1.015877        177.7731
2017    26      3       1.069425        183.5832
2017    26      4       1.763516        231.0158
2017    26      5       1.90106         237.4314
2017    26      6       1.442105        213.6296
2017    26      7       1.14537         191.1749
2017    27      0       0.9537432       172.6732
2017    27      1       0.8777165       164.1525
2017    27      2       0.8853111       164.568
2017    27      3       0.9093901       167.123
2017    27      4       1.30577         203.2667
2017    27      5       1.450247        213.0119
2017    27      6       0.9129818       167.4813
2017    27      7       0.7784075       152.2483
2017    28      0       0.8693559       162.802
2017    28      1       1.118643        187.4391
2017    28      2       1.399394        209.5283
2017    28      3       1.750016        229.7822
2017    28      4       2.01668         240.3205
2017    28      5       2.323529        249.4542
2017    28      6       2.466706        252.7428
2017    28      7       2.503525        253.1192
2017    29      0       2.580333        254.7876
2017    29      1       2.9497          261.0375
2017    29      2       3.272443        264.3378
2017    29      3       3.854488        270.0983
2017    29      4       4.231014        272.8719
2017    29      5       4.303634        273.6978
2017    29      6       3.837285        270.752
2017    29      7       2.539968        254.0666
2017    30      0       2.249582        246.7218
2017    30      1       2.369092        249.8257
2017    30      2       3.048361        263.1242
2017    30      3       3.047544        263.3914
2017    30      4       3.071898        263.91
2017    30      5       2.757988        258.9351
2017    30      6       2.403759        250.6899
2017    30      7       2.391183        249.5918
2018    1       0       0.5322961       120.7598
2018    1       1       0.5252994       119.4378
2018    1       2       0.5569994       124.3052
2018    1       3       0.6007377       131.1153
2018    1       4       0.6552864       139.3138
2018    1       5       0.6302407       135.668
2018    1       6       0.5263261       119.3512
2018    1       7       0.4671497       109.353
2018    2       0       0.4656301       109.0419
2018    2       1       0.461069        108.1098
2018    2       2       0.4322008       102.8744
2018    2       3       0.4587565       107.6965
2018    2       4       0.5821085       128.3331
2018    2       5       0.619487        134.0047
2018    2       6       0.6470966       137.9997
2018    2       7       0.6824379       142.8209
2018    3       0       0.6704231       140.8755
2018    3       1       0.6571238       138.4707
2018    3       2       0.5667526       125.1043
2018    3       3       0.5312202       119.5438
2018    3       4       0.5838945       127.9362
2018    3       5       0.6607903       139.6086
2018    3       6       0.6588482       138.4476
2018    3       7       0.7304146       148.0241
2018    4       0       0.8625172       165.3049
2018    4       1       1.152419        194.7996
2018    4       2       1.313438        208.2693
2018    4       3       0.9766297       178.0665
2018    4       4       0.9493073       175.1749
2018    4       5       0.7272213       148.4028
2018    4       6       0.4203536       99.87996
2018    4       7       0.3669089       89.6854
2018    5       0       0.4320265       101.407
2018    5       1       0.5696037       124.36
2018    5       2       0.9999838       180.0902
2018    5       3       1.289044        206.42
2018    5       4       0.9296331       172.0873
2018    5       5       1.606638        225.8388
2018    5       6       1.480663        218.2563
2018    5       7       1.155291        194.0267
2018    6       0       1.093058        188.5732
2018    6       1       1.082765        187.2795
2018    6       2       1.327883        207.21
2018    6       3       1.621019        225.4124
2018    6       4       2.148129        247.9242
2018    6       5       2.244948        251.2154
2018    6       6       1.636139        226.7973
2018    6       7       1.557734        222.5237
2018    7       0       1.836369        236.4835
2018    7       1       1.799577        234.5616
2018    7       2       1.4794          217.2984
2018    7       3       0.9887459       178.0559
2018    7       4       1.464011        216.9542
2018    7       5       1.748656        233.0765
2018    7       6       1.8864          238.7023
2018    7       7       1.606247        223.956
2018    8       0       1.636006        225.0247
2018    8       1       2.104366        245.6183
2018    8       2       2.455204        254.9315
2018    8       3       2.533866        256.6215
2018    8       4       3.103234        267.3269
2018    8       5       2.676845        261.0027
2018    8       6       1.98213         241.5049
2018    8       7       1.760249        232.2997
2018    9       0       2.011859        242.7205
2018    9       1       2.399139        253.7987
2018    9       2       2.432686        254.4461
2018    9       3       2.201896        248.8305
2018    9       4       2.082478        245.2435
2018    9       5       1.966806        240.7418
2018    9       6       1.897091        237.9436
2018    9       7       1.803946        233.7439
2018    10      0       1.61182         224.0924
2018    10      1       1.251596        200.2136
2018    10      2       1.153562        192.2333
2018    10      3       1.098179        187.6576
2018    10      4       1.330978        206.7949
2018    10      5       1.405369        211.8883
2018    10      6       1.035656        181.2595
2018    10      7       1.120909        188.5383
2018    11      0       1.141906        190.4979
2018    11      1       0.9254517       168.6383
2018    11      2       1.024962        177.9445
2018    11      3       1.231166        196.6525
2018    11      4       1.077913        183.6555
2018    11      5       1.026083        179.4406
2018    11      6       1.078694        185.1881
2018    11      7       1.372796        208.5694
2018    12      0       1.441005        212.1815
2018    12      1       1.489032        213.8658
2018    12      2       1.565608        216.1255
2018    12      3       1.615053        218.1385
2018    12      4       1.985477        235.2867
2018    12      5       2.413438        248.9397
2018    12      6       2.571181        253.2884
2018    12      7       2.709665        255.8544
2018    13      0       2.861468        257.9464
2018    13      1       3.014484        259.6668
2018    13      2       2.594029        253.2186
2018    13      3       2.203092        244.5201
2018    13      4       2.562948        254.6586
2018    13      5       2.638951        255.3935
2018    13      6       2.077829        240.2864
2018    13      7       1.693195        225.511
2018    14      0       1.423153        210.897
2018    14      1       1.244858        198.575
2018    14      2       1.501658        214.9384
2018    14      3       2.04479         240.9107
2018    14      4       2.891323        261.8748
2018    14      5       3.287136        267.2287
2018    14      6       2.482478        254.6572
2018    14      7       2.161244        245.5152
2018    15      0       1.853106        233.8527
2018    15      1       1.412194        210.9162
2018    15      2       1.385708        209.5582
2018    15      3       1.35449         207.871
2018    15      4       1.544095        220.2116
2018    15      5       1.537405        223.0722
2018    15      6       1.22253         198.3439
2018    15      7       1.122158        189.9344
2018    16      0       1.048323        183.0697
2018    16      1       1.049802        183.3883
2018    16      2       1.139654        191.6799
2018    16      3       1.32168         206.3905
2018    16      4       1.426664        214.046
2018    16      5       1.332721        207.7117
2018    16      6       1.393758        211.776
2018    16      7       1.480058        216.7589
2018    17      0       1.691008        228.6613
2018    17      1       1.867751        236.5743
2018    17      2       1.745297        230.9249
2018    17      3       1.396305        212.1387
2018    17      4       1.384954        211.6538
2018    17      5       1.657092        227.6497
2018    17      6       1.793926        234.4057
2018    17      7       1.780846        233.9483
2018    18      0       1.569219        222.8047
2018    18      1       1.325695        206.8442
2018    18      2       1.338027        207.8681
2018    18      3       1.279987        203.941
2018    18      4       1.134792        191.9991
2018    18      5       0.8722954       165.3118
2018    18      6       0.8030426       156.7863
2018    18      7       0.6020001       128.6526
2018    19      0       0.465285        106.2541
2018    19      1       0.5038859       112.8062
2018    19      2       0.6294245       132.9522
2018    19      3       0.660841        137.8254
2018    19      4       0.6456493       135.8384
2018    19      5       0.6462472       135.6214
2018    19      6       0.6600604       137.3007
2018    19      7       0.635341        133.5184
2018    20      0       0.6606146       137.2736
2018    20      1       0.832117        158.8982
2018    20      2       0.9833091       174.9281
2018    20      3       0.9962574       176.0071
2018    20      4       0.9639278       172.9079
2018    20      5       0.8911078       165.2974
2018    20      6       0.8085649       155.7518
2018    20      7       0.8230609       157.1927
2018    21      0       0.8116182       155.4
2018    21      1       0.794405        152.7935
2018    21      2       0.8812864       162.9816
2018    21      3       1.04322         180.2167
2018    21      4       1.208677        194.9363
2018    21      5       1.123327        187.1378
2018    21      6       1.086607        183.3544
2018    21      7       1.025734        178.5215
2018    22      0       1.081273        184.1854
2018    22      1       1.279367        200.038
2018    22      2       1.250357        198.4129
2018    22      3       1.190263        194.2366
2018    22      4       1.241517        198.6035
2018    22      5       1.401177        210.2246
2018    22      6       1.468757        214.58
2018    22      7       1.429015        211.6533
2018    23      0       1.45798         213.2751
2018    23      1       1.499634        215.8038
2018    23      2       1.548706        219.1059
2018    23      3       1.532647        218.7491
2018    23      4       1.543595        219.6191
2018    23      5       1.464585        214.9086
2018    23      6       1.676682        228.5926
2018    23      7       1.464607        216.0963
2018    24      0       1.416873        212.7171
2018    24      1       1.3075          204.557
2018    24      2       1.211265        196.8606
2018    24      3       1.222048        198.074
2018    24      4       1.38875         210.7107
2018    24      5       1.544433        221.0065
2018    24      6       1.508667        219.2426
2018    24      7       1.383463        211.1411
2018    25      0       1.30727         205.5287
2018    25      1       1.174471        194.3772
2018    25      2       1.000381        177.6715
2018    25      3       0.987604        175.7244
2018    25      4       0.9720962       173.5777
2018    25      5       1.288662        202.8891
2018    25      6       1.410542        212.108
2018    25      7       1.418768        213.0242
2018    26      0       1.495113        218.0347
2018    26      1       1.658628        227.0731
2018    26      2       2.136981        246.3959
2018    26      3       1.967705        239.6257
2018    26      4       1.491059        215.4331
2018    26      5       1.352426        205.1994
2018    26      6       1.359522        204.7088
2018    26      7       1.696779        224.0452
2018    27      0       2.231568        246.2004
2018    27      1       2.585016        254.8514
2018    27      2       2.863754        261.5756
2018    27      3       3.255637        266.7941
2018    27      4       4.121067        272.1887
2018    27      5       4.967075        276.5033
2018    27      6       5.096803        277.6698
2018    27      7       4.396241        275.7781
2018    28      0       4.822017        277.5863
2018    28      1       4.302664        275.4894
2018    28      2       3.393994        269.6892
2018    28      3       0.6054116       128.7358
2018    28      4       0.4375696       99.98825
2018    28      5       0.5680707       119.9912
2018    28      6       0.8004595       152.4095
2018    28      7       1.672549        225.5488
2018    29      0       1.00756         176.7518
2018    29      1       0.9157986       166.4916
2018    29      2       2.1002          243.8337
2018    29      3       2.566712        257.2615
2018    29      4       2.815121        262.3106
2018    29      5       2.175799        246.9727
2018    29      6       2.068186        243.4476
2018    29      7       2.267708        249.4982
2018    30      0       2.435157        253.1976
2018    30      1       2.707758        258.343
2018    30      2       2.867426        260.7432
2018    30      3       2.769427        258.7999
2018    30      4       2.853012        259.7594
2018    30      5       2.881502        261.243
2018    30      6       1.994369        239.975
2018    30      7       1.790929        231.6188
