####################################################################################################
# Month: 09Sep                                                                                     #
# Station: ERB                                                                                     #
# Frequency: 345 GHz                                                                               #
# Columns are: year    day     segment         tau     Tb (K)                                      #
####################################################################################################
2009    1       0       1.75828         234.3547
2009    1       1       1.53529         222.33
2009    1       2       1.554048        223.419
2009    1       3       1.776344        235.3425
2009    1       4       1.912093        241.6832
2009    1       5       1.94144         242.964
2009    1       6       2.064701        247.2652
2009    1       7       2.11383         248.517
2009    2       0       1.927314        241.9618
2009    2       1       1.864971        239.4114
2009    2       2       1.714437        232.3503
2009    2       3       1.591952        225.9842
2009    2       4       1.240603        202.1549
2009    2       5       1.07067         186.6033
2009    2       6       0.9534639       174.7485
2009    2       7       0.9042712       169.4036
2009    3       0       0.9852699       178.1569
2009    3       1       1.025888        182.208
2009    3       2       1.102422        189.5233
2009    3       3       1.184169        196.7442
2009    3       4       1.192407        197.9749
2009    3       5       1.127504        192.425
2009    3       6       1.08412         188.3731
2009    3       7       1.084473        188.2548
2009    4       0       1.067148        186.6417
2009    4       1       1.063989        186.4699
2009    4       2       1.105119        190.5703
2009    4       3       1.350951        210.6143
2009    4       4       1.523537        221.7758
2009    4       5       1.383001        212.5935
2009    4       6       1.112233        191.1429
2009    4       7       1.137824        192.8656
2009    5       0       1.391767        212.845
2009    5       1       1.429486        215.5597
2009    5       2       1.342049        209.7928
2009    5       3       1.456352        217.3049
2009    5       4       1.52201         220.8466
2009    5       5       1.370562        210.436
2009    5       6       1.275383        203.1623
2009    5       7       1.147434        193.0754
2009    6       0       1.022032        181.4783
2009    6       1       0.9832852       177.568
2009    6       2       1.268059        203.8583
2009    6       3       0.9606884       174.8232
2009    6       4       0.9450837       173.169
2009    6       5       0.9223068       170.827
2009    6       6       0.92273         170.7714
2009    6       7       1.052276        183.4949
2009    7       0       1.21297         197.6501
2009    7       1       1.210277        197.7578
2009    7       2       1.501734        218.5951
2009    7       3       2.011072        242.9447
2009    7       4       2.333464        252.8191
2009    7       5       2.303933        251.7702
2009    7       6       2.64223         260.3568
2009    7       7       2.595557        258.1866
2009    8       0       2.616336        258.6404
2009    8       1       3.364902        270.9526
2009    8       2       2.519948        256.701
2009    8       3       2.379029        253.7757
2009    8       4       2.375167        254.1548
2009    8       5       2.26393         251.1661
2009    8       6       1.874446        237.8861
2009    8       7       1.725501        231.3402
2009    9       0       1.535182        220.789
2009    9       1       1.501565        218.0537
2009    9       2       1.488176        217.3527
2009    9       3       1.575879        222.544
2009    9       4       1.463058        216.0597
2009    9       5       1.214956        198.584
2009    9       6       1.159441        193.8659
2009    9       7       1.196876        196.7869
2009    10      0       1.283506        203.3796
2009    10      1       1.408729        212.0219
2009    10      2       1.478497        216.3697
2009    10      3       1.465177        215.7707
2009    10      4       1.465102        215.7866
2009    10      5       1.505371        218.0454
2009    10      6       1.467873        215.7877
2009    10      7       1.482086        216.48
2009    11      0       1.552613        220.6874
2009    11      1       1.634966        225.3392
2009    11      2       1.635213        224.9859
2009    11      3       1.772742        231.6476
2009    11      4       1.974798        240.7842
2009    11      5       1.973146        241.0014
2009    11      6       1.939541        239.3165
2009    11      7       1.876002        236.3241
2009    12      0       1.832268        234.8418
2009    12      1       1.923969        238.9405
2009    12      2       1.872764        237.1749
2009    12      3       1.897042        238.3903
2009    12      4       1.895456        238.475
2009    12      5       1.863447        237.0685
2009    12      6       1.908247        239.0256
2009    12      7       2.142957        247.9041
2009    13      0       2.48806         257.195
2009    13      1       2.622782        259.8094
2009    13      2       2.498141        257.166
2009    13      3       2.32976         253.3513
2009    13      4       1.952513        241.7064
2009    13      5       1.815966        236.4308
2009    13      6       2.063792        246.4303
2009    13      7       1.843812        237.6312
2009    14      0       1.533248        221.3176
2009    14      1       1.689874        229.7116
2009    14      2       1.662239        228.1322
2009    14      3       1.696142        230.1914
2009    14      4       1.700968        230.5033
2009    14      5       1.631835        226.8126
2009    14      6       1.70648         230.3942
2009    14      7       2.008975        243.2429
2009    15      0       2.26009         251.3287
2009    15      1       2.586342        258.7054
2009    15      2       2.565566        257.7496
2009    15      3       2.592169        258.7369
2009    15      4       2.789011        262.9517
2009    15      5       2.766157        262.8334
2009    15      6       2.71058         261.6058
2009    15      7       2.649486        260.1139
2009    16      0       2.662219        260.2406
2009    16      1       2.829255        262.999
2009    16      2       2.869507        263.0965
2009    16      3       2.890182        263.5436
2009    16      4       2.626032        259.2189
2009    16      5       2.254531        249.9739
2009    16      6       2.161949        246.7244
2009    16      7       2.253214        249.1896
2009    17      0       2.321262        250.8966
2009    17      1       2.40789         252.5091
2009    17      2       2.465267        253.1006
2009    17      3       2.266589        248.0931
2009    17      4       2.225066        247.4278
2009    17      5       2.00191         240.1857
2009    17      6       1.684506        226.1046
2009    17      7       1.46554         213.5818
2009    18      0       1.37929         207.9745
2009    18      1       1.398206        209.3322
2009    18      2       1.332327        204.8484
2009    18      3       1.250527        199.3332
2009    18      4       1.330212        205.2127
2009    18      5       1.383338        208.6997
2009    18      6       1.463969        213.3836
2009    18      7       1.539703        217.2326
2009    19      0       1.832919        231.4655
2009    19      1       2.210712        244.709
2009    19      2       2.185408        243.8739
2009    19      3       2.383761        249.8399
2009    19      4       3.098465        263.1633
2009    19      5       3.002363        262.481
2009    19      6       2.334745        250.6396
2009    19      7       2.115085        244.445
2009    20      0       2.645243        256.8522
2009    20      1       3.147115        264.4396
2009    20      2       2.903434        260.8785
2009    20      3       3.620133        268.6779
2009    20      4       3.349777        266.0853
2009    20      5       2.437566        252.5996
2009    20      6       2.153386        244.3924
2009    20      7       2.125865        243.2127
2009    21      0       2.277484        247.468
2009    21      1       2.61667         255.1575
2009    21      2       2.818172        258.6814
2009    21      3       3.147338        263.7774
2009    21      4       3.260836        265.4412
2009    21      5       3.135294        263.8864
2009    21      6       2.987568        261.9633
2009    21      7       2.29366         248.3672
2009    22      0       1.916628        236.0933
2009    22      1       1.96659         237.9144
2009    22      2       2.271781        247.5867
2009    22      3       2.629602        256.3066
2009    22      4       2.652627        257.0427
2009    22      5       2.608264        256.0193
2009    22      6       2.571741        255.1121
2009    22      7       2.355824        249.9714
2009    23      0       2.128046        243.3436
2009    23      1       1.818502        231.6049
2009    23      2       1.604551        221.1285
2009    23      3       1.3539          206.1436
2009    23      4       1.229365        197.1602
2009    23      5       1.08318         184.565
2009    23      6       1.045024        180.734
2009    23      7       1.086123        184.205
2009    24      0       1.220782        195.2413
2009    24      1       1.444467        211.0074
2009    24      2       1.539603        217.018
2009    24      3       1.800635        230.3992
2009    24      4       2.113783        242.2556
2009    24      5       2.171103        243.9918
2009    24      6       1.947832        236.5386
2009    24      7       1.801333        230.8787
2009    25      0       1.700803        226.2878
2009    25      1       1.623608        222.0847
2009    25      2       1.449152        212.0026
2009    25      3       1.426115        210.7822
2009    25      4       1.511946        216.6522
2009    25      5       1.523286        217.4133
2009    25      6       1.383906        208.6103
2009    25      7       1.250072        198.9033
2009    26      0       1.227392        196.8719
2009    26      1       1.203313        194.7544
2009    26      2       1.157665        190.7963
2009    26      3       1.224146        196.1372
2009    26      4       1.402087        208.9158
2009    26      5       1.578022        219.5906
2009    26      6       1.746233        227.8537
2009    26      7       1.804825        230.1683
2009    27      0       2.019155        238.3059
2009    27      1       2.426396        249.7784
2009    27      2       2.326682        247.2539
2009    27      3       1.991691        236.8257
2009    27      4       1.771203        228.0861
2009    27      5       1.567972        217.8306
2009    27      6       1.348062        204.1291
2009    27      7       1.123339        186.8411
2009    28      0       0.9439577       168.9575
2009    28      1       1.557716        215.6146
2009    28      2       1.503774        212.2382
2009    28      3       1.306263        199.1365
2009    28      4       0.8772918       160.0612
2009    28      5       0.5973705       124.034
2009    28      6       0.511206        111.0327
2009    28      7       0.5017533       109.7625
2009    29      0       0.4408151       99.41564
2009    29      1       0.6917401       135.5634
2009    29      2       0.594571        123.2898
2009    29      3       0.6482118       130.826
2009    29      4       0.7273727       142.2121
2009    29      5       0.713337        141.2067
2009    29      6       0.647476        132.9085
2009    29      7       0.5964148       126.0742
2009    30      0       0.5412829       117.9739
2009    30      1       0.4979672       110.9952
2009    30      2       0.4939963       110.1178
2009    30      3       0.548512        118.3846
2009    30      4       0.5898027       124.4437
2009    30      5       0.6264554       129.5984
2009    30      6       0.6038168       126.2305
2009    30      7       0.6127298       127.3036
2010    1       0       1.48786         218.6937
2010    1       1       1.803968        235.7697
2010    1       2       2.012161        244.4359
2010    1       3       2.170458        250.1428
2010    1       4       2.210842        252.7025
2010    1       5       2.049609        247.705
2010    1       6       2.098841        248.9769
2010    1       7       2.041163        246.437
2010    2       0       1.894669        240.0711
2010    2       1       1.794248        235.2161
2010    2       2       1.744529        232.8349
2010    2       3       1.776383        234.5908
2010    2       4       1.7825          235.6353
2010    2       5       1.654628        229.713
2010    2       6       1.42059         215.9819
2010    2       7       1.386933        213.6441
2010    3       0       1.484426        220.1943
2010    3       1       1.508044        221.9971
2010    3       2       1.522128        222.7646
2010    3       3       1.565344        225.5746
2010    3       4       1.638624        230.3195
2010    3       5       1.659679        231.913
2010    3       6       1.520818        224.0851
2010    3       7       1.685743        233.2555
2010    4       0       1.56654         226.6435
2010    4       1       1.699344        233.7005
2010    4       2       1.934592        244.4411
2010    4       3       1.99411         247.0984
2010    4       4       1.943655        245.1956
2010    4       5       1.943729        244.4138
2010    4       6       1.654068        229.9882
2010    4       7       1.441749        216.8696
2010    5       0       1.479017        219.0412
2010    5       1       1.418394        214.9961
2010    5       2       1.293185        205.9648
2010    5       3       1.255166        203.0162
2010    5       4       1.258576        203.3113
2010    5       5       1.259937        202.9602
2010    5       6       1.219801        199.0171
2010    5       7       1.189381        195.8322
2010    6       0       1.128462        190.5988
2010    6       1       1.067246        184.8792
2010    6       2       1.079153        185.6777
2010    6       3       1.119487        188.8247
2010    6       4       1.236726        199.3272
2010    6       5       1.404594        213.2444
2010    6       6       1.472719        218.0969
2010    6       7       1.586448        224.9699
2010    7       0       1.402493        213.2629
2010    7       1       1.16317         194.5311
2010    7       2       1.351987        209.5508
2010    7       3       1.979262        245.0456
2010    7       4       1.447806        217.4287
2010    7       5       1.456327        218.0666
2010    7       6       1.483702        219.6904
2010    7       7       1.399044        213.3768
2010    8       0       1.488784        219.1746
2010    8       1       1.64063         227.822
2010    8       2       1.754245        233.104
2010    8       3       1.819283        236.367
2010    8       4       1.7444          233.454
2010    8       5       1.632639        228.2388
2010    8       6       1.57544         225.0603
2010    8       7       1.480255        219.3144
2010    9       0       1.546595        223.0926
2010    9       1       1.53757         222.3257
2010    9       2       1.415206        214.6992
2010    9       3       1.49467         219.7998
2010    9       4       1.60541         226.7053
2010    9       5       1.725186        232.9566
2010    9       6       1.555144        224.0532
2010    9       7       1.365273        211.8422
2010    10      0       1.350739        210.7103
2010    10      1       1.433201        216.166
2010    10      2       1.559859        224.0657
2010    10      3       1.982799        244.4858
2010    10      4       2.301837        255.0882
2010    10      5       2.275293        254.3831
2010    10      6       2.016826        245.314
2010    10      7       1.894597        240.0166
2010    11      0       1.691644        230.1681
2010    11      1       1.494559        218.7019
2010    11      2       1.450825        216.0519
2010    11      3       1.831315        236.7152
2010    11      4       2.022611        244.6901
2010    11      5       1.991643        243.8096
2010    11      6       1.898736        240.1416
2010    11      7       1.616306        226.7529
2010    12      0       1.562049        223.9259
2010    12      1       1.596074        226.0011
2010    12      2       1.475721        218.5479
2010    12      3       1.584847        225.0584
2010    12      4       1.741718        233.6409
2010    12      5       1.655386        229.649
2010    12      6       1.398705        214.5196
2010    12      7       1.28276         206.0248
2010    13      0       1.19923         199.0916
2010    13      1       1.079251        187.8662
2010    13      2       1.184041        196.932
2010    13      3       1.253848        202.5796
2010    13      4       1.244879        202.4059
2010    13      5       1.286355        205.6872
2010    13      6       1.425616        215.4203
2010    13      7       1.50972         220.5419
2010    14      0       1.271121        204.1931
2010    14      1       0.7433766       150.1461
2010    14      2       0.9643346       175.4407
2010    14      3       1.143564        192.6985
2010    14      4       1.132704        192.3602
2010    14      5       1.226281        200.8445
2010    14      6       1.237114        201.3614
2010    14      7       1.232448        200.6334
2010    15      0       1.227977        200.3131
2010    15      1       1.313042        206.6478
2010    15      2       1.407183        212.9903
2010    15      3       1.585603        223.8649
2010    15      4       1.641826        227.9851
2010    15      5       1.671096        229.9209
2010    15      6       1.650747        228.6079
2010    15      7       1.566933        223.9437
2010    16      0       1.446482        216.8411
2010    16      1       1.376446        212.0965
2010    16      2       1.356283        210.5547
2010    16      3       1.371762        211.622
2010    16      4       1.368797        212.1135
2010    16      5       1.283228        206.4734
2010    16      6       1.179167        198.0117
2010    16      7       1.118349        192.5684
2010    17      0       1.049043        185.8956
2010    17      1       1.023894        183.3116
2010    17      2       1.022663        183.1043
2010    17      3       1.0699          187.6844
2010    17      4       1.143116        194.4135
2010    17      5       1.142576        194.1856
2010    17      6       1.053483        185.7729
2010    17      7       0.8908898       168.9298
2010    18      0       0.8478716       163.6154
2010    18      1       1.180644        195.0663
2010    18      2       1.779298        231.2797
2010    18      3       1.870674        236.1383
2010    18      4       1.963204        242.1544
2010    18      5       1.740212        232.4024
2010    18      6       1.972141        241.1753
2010    18      7       2.428612        253.6202
2010    19      0       2.422802        253.1593
2010    19      1       2.142335        245.4276
2010    19      2       2.124959        244.7927
2010    19      3       2.251968        248.985
2010    19      4       2.414573        254.1531
2010    19      5       2.660772        260.3836
2010    19      6       2.603287        258.7602
2010    19      7       2.637935        259.3488
2010    20      0       2.502078        256.2102
2010    20      1       2.347662        252.3295
2010    20      2       2.293076        251.0666
2010    20      3       2.291712        251.5029
2010    20      4       2.127588        247.2571
2010    20      5       1.944102        240.898
2010    20      6       2.257966        252.2161
2010    20      7       2.065864        245.3324
2010    21      0       2.023385        243.9253
2010    21      1       1.949598        241.3963
2010    21      2       1.79684         234.7089
2010    21      3       1.678034        229.0984
2010    21      4       1.582947        224.632
2010    21      5       1.550082        223.0183
2010    21      6       1.565317        223.7958
2010    21      7       1.530422        221.6685
2010    22      0       1.584978        224.8736
2010    22      1       1.581766        224.7677
2010    22      2       1.545468        222.2003
2010    22      3       1.600224        224.9433
2010    22      4       1.68671         229.2566
2010    22      5       1.876786        237.403
2010    22      6       1.868851        236.5589
2010    22      7       2.186441        248.5069
2010    23      0       2.449934        256.5328
2010    23      1       2.528738        258.3959
2010    23      2       2.535175        258.0564
2010    23      3       2.89616         263.4694
2010    23      4       2.461561        256.1827
2010    23      5       1.638422        227.9021
2010    23      6       1.580083        224.0148
2010    23      7       1.579037        223.7454
2010    24      0       1.576372        223.1356
2010    24      1       1.649958        226.4365
2010    24      2       1.757119        231.762
2010    24      3       1.925803        239.3947
2010    24      4       2.140333        247.9784
2010    24      5       2.139839        248.0333
2010    24      6       1.9251          239.9537
2010    24      7       1.724723        230.6707
2010    25      0       1.525378        219.7053
2010    25      1       1.616542        224.3614
2010    25      2       1.746752        231.3739
2010    25      3       2.050118        244.2745
2010    25      4       2.790078        263.305
2010    25      5       3.118379        267.806
2010    25      6       3.086071        267.032
2010    25      7       3.521484        273.1934
2010    26      0       2.584038        259.171
2010    26      1       2.279356        252.0152
2010    26      2       2.40924         255.5468
2010    26      3       2.623915        260.5196
2010    26      4       2.980772        267.1873
2010    26      5       3.041561        268.3254
2010    26      6       2.733043        263.5978
2010    26      7       2.483696        258.251
2010    27      0       2.254006        252.4756
2010    27      1       2.074712        246.9766
2010    27      2       1.983928        243.4828
2010    27      3       1.965321        242.7238
2010    27      4       2.012062        244.4454
2010    27      5       1.994886        243.2223
2010    27      6       2.063129        245.5868
2010    27      7       1.988052        242.7536
2010    28      0       1.920641        239.8728
2010    28      1       1.927061        239.8991
2010    28      2       1.870563        237.2945
2010    28      3       1.860205        236.7547
2010    28      4       1.840867        236.0651
2010    28      5       1.864982        236.9185
2010    28      6       2.049361        244.1463
2010    28      7       2.068937        244.9507
2010    29      0       1.925022        239.4255
2010    29      1       1.784263        232.8677
2010    29      2       1.826066        234.2467
2010    29      3       1.815077        233.8321
2010    29      4       1.751403        231.216
2010    29      5       1.708615        229.079
2010    29      6       1.603694        223.6677
2010    29      7       1.745198        230.44
2010    30      0       1.841136        234.612
2010    30      1       1.786508        232.3225
2010    30      2       1.735001        229.8795
2010    30      3       1.816578        233.5531
2010    30      4       1.897629        237.874
2010    30      5       2.157646        247.4635
2010    30      6       2.357456        252.9168
2010    30      7       2.417924        254.5624
2011    1       0       0.9662902       177.5763
2011    1       1       0.9561751       176.3241
2011    1       2       0.9266725       173.1484
2011    1       3       0.9022644       170.8417
2011    1       4       0.9548355       177.0544
2011    1       5       0.9513738       177.16
2011    1       6       0.9132687       173.0206
2011    1       7       0.9718398       179.0251
2011    2       0       0.9239208       173.6917
2011    2       1       0.9873          180.2136
2011    2       2       1.163138        196.8103
2011    2       3       1.305752        208.5788
2011    2       4       1.435706        218.1216
2011    2       5       1.533382        224.1475
2011    2       6       1.669576        231.1237
2011    2       7       1.723658        233.0745
2011    3       0       1.712097        232.076
2011    3       1       1.572812        224.5938
2011    3       2       1.324317        208.6445
2011    3       3       1.200151        199.3353
2011    3       4       1.206593        200.0507
2011    3       5       1.22382         201.5876
2011    3       6       1.301781        207.2581
2011    3       7       1.329468        209.0687
2011    4       0       1.348633        210.1759
2011    4       1       1.353154        210.2534
2011    4       2       1.30999         206.855
2011    4       3       1.423013        214.8442
2011    4       4       1.405919        214.5359
2011    4       5       1.357571        211.3396
2011    4       6       1.231253        201.8772
2011    4       7       1.125662        192.9506
2011    5       0       1.323316        208.2668
2011    5       1       1.544914        221.1443
2011    5       2       1.455368        215.8383
2011    5       3       1.705686        230.1905
2011    5       4       1.585966        225.2234
2011    5       5       1.348928        210.0474
2011    5       6       1.079199        187.6133
2011    5       7       1.163637        194.8579
2011    6       0       1.348893        209.2452
2011    6       1       1.341067        208.3375
2011    6       2       1.452127        215.8316
2011    6       3       1.534464        221.1158
2011    6       4       1.424482        214.4516
2011    6       5       1.115546        190.2371
2011    6       6       0.8894541       167.351
2011    6       7       0.8363204       161.4561
2011    7       0       0.7504873       150.7473
2011    7       1       0.7711056       153.2769
2011    7       2       0.8442759       162.5577
2011    7       3       1.165236        195.5364
2011    7       4       1.182189        196.8508
2011    7       5       1.010652        180.8368
2011    7       6       0.8144453       159.3323
2011    7       7       0.7013082       144.8763
2011    8       0       0.6603909       138.9728
2011    8       1       0.6293298       134.2837
2011    8       2       0.7161942       146.6285
2011    8       3       0.6629028       139.2948
2011    8       4       0.6093643       131.536
2011    8       5       0.6849667       142.6437
2011    8       6       0.8047649       158.4748
2011    8       7       0.8146956       159.4823
2011    9       0       0.7200554       146.7818
2011    9       1       0.641279        135.6666
2011    9       2       0.8144177       158.9536
2011    9       3       0.9383324       173.4645
2011    9       4       0.9543611       176.0424
2011    9       5       0.9497344       176.2305
2011    9       6       1.045944        185.9948
2011    9       7       1.057935        186.728
2011    10      0       0.8974917       169.7818
2011    10      1       0.7787468       155.3414
2011    10      2       0.7221385       147.799
2011    10      3       0.7338411       149.2671
2011    10      4       0.8034544       158.35
2011    10      5       0.9417819       173.9557
2011    10      6       1.159227        194.4952
2011    10      7       1.140603        193.2337
2011    11      0       1.034489        183.5498
2011    11      1       1.115104        190.6619
2011    11      2       1.1618          195.1132
2011    11      3       1.299274        206.7489
2011    11      4       1.242629        202.4671
2011    11      5       1.072572        187.5932
2011    11      6       1.05858         185.9221
2011    11      7       1.114828        190.7896
2011    12      0       1.213062        199.3298
2011    12      1       1.295905        205.5331
2011    12      2       1.521015        220.873
2011    12      3       1.710434        231.631
2011    12      4       1.58487         225.1602
2011    12      5       1.471618        218.0784
2011    12      6       1.44675         216.3299
2011    12      7       1.276536        204.5308
2011    13      0       1.163788        195.4637
2011    13      1       1.132826        192.5813
2011    13      2       1.163804        195.219
2011    13      3       1.334494        208.7483
2011    13      4       1.458211        217.562
2011    13      5       1.501632        220.3652
2011    13      6       1.470836        218.3843
2011    13      7       1.396178        213.4409
2011    14      0       1.171225        196.2794
2011    14      1       1.058491        185.9682
2011    14      2       1.1223          191.793
2011    14      3       1.45346         216.9632
2011    14      4       1.629841        227.6228
2011    14      5       1.65849         229.319
2011    14      6       1.560587        223.7442
2011    14      7       1.538787        222.0288
2011    15      0       1.494776        219.7505
2011    15      1       1.387876        213.1259
2011    15      2       1.319174        208.2689
2011    15      3       1.558381        223.7566
2011    15      4       1.642685        228.7188
2011    15      5       1.375283        212.8185
2011    15      6       1.214676        200.5315
2011    15      7       1.18236         197.4159
2011    16      0       1.167115        195.5494
2011    16      1       1.153436        193.8
2011    16      2       1.256744        201.972
2011    16      3       1.438246        214.8279
2011    16      4       1.555406        222.3072
2011    16      5       1.582152        223.6342
2011    16      6       1.614771        224.9826
2011    16      7       1.624263        225.6005
2011    17      0       1.625999        225.9809
2011    17      1       1.643415        226.8926
2011    17      2       1.619536        225.6391
2011    17      3       1.776473        233.5229
2011    17      4       1.975066        242.1717
2011    17      5       2.211396        250.129
2011    17      6       2.186789        248.6951
2011    17      7       2.008547        242.7918
2011    18      0       1.79401         234.2352
2011    18      1       1.695163        229.3622
2011    18      2       1.634341        226.0809
2011    18      3       1.784822        233.9278
2011    18      4       1.849946        237.3414
2011    18      5       1.808245        235.6585
2011    18      6       1.581876        224.2892
2011    18      7       1.371787        211.1324
2011    19      0       1.450385        215.9234
2011    19      1       1.456604        216.0851
2011    19      2       1.456949        216.0182
2011    19      3       1.426775        214.3128
2011    19      4       1.29589         205.4287
2011    19      5       1.065646        186.1393
2011    19      6       0.9482982       174.0458
2011    19      7       0.9660996       175.6935
2011    20      0       1.24943         200.1703
2011    20      1       1.532936        218.8588
2011    20      2       1.831901        233.8926
2011    20      3       1.998532        240.6343
2011    20      4       1.946246        239.2155
2011    20      5       1.787434        232.8181
2011    20      6       1.66928         227.0694
2011    20      7       1.551962        220.7003
2011    21      0       1.471558        215.5896
2011    21      1       1.433088        212.5263
2011    21      2       1.376337        208.5062
2011    21      3       1.535781        218.4797
2011    21      4       1.750342        230.0483
2011    21      5       1.908043        236.7948
2011    21      6       1.792824        231.8928
2011    21      7       1.567292        220.7025
2011    22      0       1.418584        211.6026
2011    22      1       1.322775        204.9877
2011    22      2       1.286566        202.4084
2011    22      3       1.264629        201.0857
2011    22      4       1.212792        197.4728
2011    22      5       1.145542        192.0889
2011    22      6       1.171421        194.2677
2011    22      7       1.1158          189.3881
2011    23      0       1.056124        183.8424
2011    23      1       1.220017        197.4519
2011    23      2       1.618741        223.7059
2011    23      3       1.673242        227.0935
2011    23      4       1.938604        239.4438
2011    23      5       2.141504        246.809
2011    23      6       2.699672        261.2739
2011    23      7       2.127436        245.8585
2011    24      0       2.041902        243.0417
2011    24      1       1.921563        238.3216
2011    24      2       1.678001        227.0439
2011    24      3       1.50147         217.2378
2011    24      4       1.741724        230.5277
2011    24      5       1.934615        238.7477
2011    24      6       1.955549        238.754
2011    24      7       1.88629         235.6273
2011    25      0       2.043135        241.3839
2011    25      1       2.379643        251.2611
2011    25      2       2.579251        255.7961
2011    25      3       2.671777        258.2567
2011    25      4       2.42384         253.7873
2011    25      5       2.319703        251.2401
2011    25      6       2.30837         250.4704
2011    25      7       2.309803        250.0643
2011    26      0       2.247421        247.9722
2011    26      1       2.148499        244.7325
2011    26      2       2.360382        250.1218
2011    26      3       2.515786        253.8319
2011    26      4       2.932056        261.8044
2011    26      5       3.235291        265.6532
2011    26      6       2.766586        259.3362
2011    26      7       2.34616         250.5583
2011    27      0       2.220584        246.875
2011    27      1       2.036624        240.6764
2011    27      2       2.323343        249.1734
2011    27      3       2.375176        250.9482
2011    27      4       2.223227        246.996
2011    27      5       2.237949        247.3023
2011    27      6       2.117779        243.5786
2011    27      7       1.89374         235.6238
2011    28      0       1.771672        230.2404
2011    28      1       1.75115         229.0567
2011    28      2       1.697915        226.4521
2011    28      3       1.767269        229.9436
2011    28      4       1.782516        230.9423
2011    28      5       1.773359        230.6744
2011    28      6       1.69897         226.9677
2011    28      7       1.601737        221.9532
2011    29      0       1.522375        217.2632
2011    29      1       1.416179        210.4869
2011    29      2       1.343343        205.2756
2011    29      3       1.320375        203.4844
2011    29      4       1.308807        202.9174
2011    29      5       1.263681        199.5036
2011    29      6       1.476792        213.6016
2011    29      7       1.644884        223.3288
2011    30      0       1.947496        236.8972
2011    30      1       2.438063        252.0642
2011    30      2       2.176873        245.2544
2011    30      3       3.226553        267.3104
2011    30      4       2.086765        242.2979
2011    30      5       2.165178        244.3369
2011    30      6       2.019894        239.4743
2011    30      7       1.678741        225.1191
2012    1       0       1.679906        230.3142
2012    1       1       1.696864        230.8302
2012    1       2       1.674713        229.3385
2012    1       3       1.703131        231.287
2012    1       4       1.84952         239.1295
2012    1       5       1.953479        243.8526
2012    1       6       1.928642        242.5198
2012    1       7       2.11703         248.8402
2012    2       0       2.055199        246.4835
2012    2       1       1.979398        243.3745
2012    2       2       2.022562        244.759
2012    2       3       2.170428        249.9744
2012    2       4       2.390699        256.5054
2012    2       5       3.111067        269.1273
2012    2       6       3.337029        271.6112
2012    2       7       2.602147        260.6796
2012    3       0       2.559931        258.5739
2012    3       1       2.325022        251.9728
2012    3       2       2.253809        250.2057
2012    3       3       2.466656        256.2755
2012    3       4       2.829334        264.145
2012    3       5       3.270638        269.7192
2012    3       6       2.766495        263.1972
2012    3       7       2.475748        257.3469
2012    4       0       2.290066        252.199
2012    4       1       2.127097        247.0913
2012    4       2       1.975401        242.0367
2012    4       3       2.037763        245.1342
2012    4       4       2.049803        246.2254
2012    4       5       1.984417        244.1047
2012    4       6       1.734936        233.3443
2012    4       7       1.510058        221.4356
2012    5       0       1.500122        220.4084
2012    5       1       1.457277        217.4774
2012    5       2       1.31504         208.032
2012    5       3       1.421805        215.5606
2012    5       4       1.661926        229.8661
2012    5       5       1.716232        232.6108
2012    5       6       1.61871         227.3313
2012    5       7       1.513063        221.1632
2012    6       0       1.436926        216.342
2012    6       1       1.375951        212.1442
2012    6       2       1.391723        213.4707
2012    6       3       1.486911        219.9728
2012    6       4       1.498543        221.1392
2012    6       5       1.375532        213.3229
2012    6       6       1.285621        206.8678
2012    6       7       1.210157        200.5948
2012    7       0       1.203553        199.8247
2012    7       1       1.241963        202.8259
2012    7       2       1.174473        197.4603
2012    7       3       1.072764        188.5987
2012    7       4       0.9160478       172.8059
2012    7       5       0.8134617       160.951
2012    7       6       0.8161445       161.2893
2012    7       7       0.8155639       160.9077
2012    8       0       0.9255215       173.127
2012    8       1       1.077111        188.0843
2012    8       2       1.107938        190.7752
2012    8       3       1.124618        192.2652
2012    8       4       1.002085        180.6577
2012    8       5       0.9321533       173.0278
2012    8       6       1.036521        183.4464
2012    8       7       1.193349        197.4688
2012    9       0       1.29596         205.7041
2012    9       1       1.356487        209.9589
2012    9       2       1.242515        201.1773
2012    9       3       1.189076        197.0996
2012    9       4       1.22467         200.2692
2012    9       5       1.350529        209.6382
2012    9       6       1.403488        213.1485
2012    9       7       1.423223        214.1736
2012    10      0       1.689082        228.3862
2012    10      1       2.089013        244.5625
2012    10      2       2.222355        249.4718
2012    10      3       2.237585        250.2156
2012    10      4       2.202911        249.6287
2012    10      5       2.238359        250.7419
2012    10      6       2.146452        247.9358
2012    10      7       1.889752        238.6265
2012    11      0       1.926453        239.4983
2012    11      1       2.103081        245.3333
2012    11      2       1.922169        238.8787
2012    11      3       2.084115        245.8293
2012    11      4       2.503505        257.6952
2012    11      5       3.186791        269.3633
2012    11      6       2.525489        257.9295
2012    11      7       1.839407        236.2985
2012    12      0       1.651227        226.546
2012    12      1       1.728431        229.8161
2012    12      2       1.742562        230.3111
2012    12      3       2.000303        241.0306
2012    12      4       2.271765        250.0398
2012    12      5       2.812593        262.7166
2012    12      6       2.43508         254.2916
2012    12      7       2.200388        248.2236
2012    13      0       2.114282        245.5743
2012    13      1       2.054617        243.5011
2012    13      2       1.894877        237.6354
2012    13      3       1.883141        237.6569
2012    13      4       1.872881        238.0304
2012    13      5       1.805546        235.1525
2012    13      6       1.624022        226.0646
2012    13      7       1.453171        215.8849
2012    14      0       1.308356        205.8136
2012    14      1       1.141955        192.6012
2012    14      2       1.02134         181.0522
2012    14      3       1.103774        188.4676
2012    14      4       1.090732        187.5795
2012    14      5       1.267115        203.1854
2012    14      6       1.009482        179.3827
2012    14      7       0.9267972       170.9967
2012    15      0       0.8656993       164.4066
2012    15      1       0.8573546       163.7821
2012    15      2       0.9499878       174.5128
2012    15      3       1.176119        195.9957
2012    15      4       1.238409        201.1227
2012    15      5       1.222479        199.643
2012    15      6       1.345431        209.347
2012    15      7       1.332603        209.0289
2012    16      0       1.157458        195.1729
2012    16      1       1.089181        189.0177
2012    16      2       1.034579        183.9609
2012    16      3       1.245307        202.7549
2012    16      4       1.351108        210.8668
2012    16      5       1.29141         206.7134
2012    16      6       1.125816        193.3192
2012    16      7       1.035854        184.8544
2012    17      0       0.9873361       179.6513
2012    17      1       0.8781246       167.5961
2012    17      2       0.7867871       156.5277
2012    17      3       0.9019311       169.8714
2012    17      4       1.010547        181.6414
2012    17      5       0.9570025       176.516
2012    17      6       0.8376853       163.0181
2012    17      7       0.7189016       147.8429
2012    18      0       0.6282773       134.7893
2012    18      1       0.5757844       126.6608
2012    18      2       0.5476292       122.182
2012    18      3       0.5688653       125.221
2012    18      4       0.5500615       122.4528
2012    18      5       0.5109895       116.3591
2012    18      6       0.5240921       118.6132
2012    18      7       0.5602572       124.3963
2012    19      0       0.6100875       131.8916
2012    19      1       0.661584        139.2795
2012    19      2       0.6550097       138.079
2012    19      3       0.7353096       149.1784
2012    19      4       0.7688356       153.8098
2012    19      5       0.7742112       154.661
2012    19      6       0.8611915       165.1945
2012    19      7       0.9242729       172.2188
2012    20      0       0.9763284       177.795
2012    20      1       1.019433        182.1594
2012    20      2       1.076026        187.0176
2012    20      3       1.073488        186.4955
2012    20      4       1.084509        187.7106
2012    20      5       1.218174        199.3908
2012    20      6       1.368835        210.9701
2012    20      7       1.396179        212.9457
2012    21      0       1.495678        219.4776
2012    21      1       1.355279        209.5956
2012    21      2       1.288862        204.4724
2012    21      3       1.336906        208.1809
2012    21      4       1.357247        210.0048
2012    21      5       1.365037        210.9023
2012    21      6       1.468729        218.207
2012    21      7       1.564064        224.0468
2012    22      0       1.535743        222.2955
2012    22      1       1.210898        199.604
2012    22      2       1.246735        201.6845
2012    22      3       1.714807        231.5119
2012    22      4       1.873519        238.9834
2012    22      5       1.851017        238.2605
2012    22      6       1.957122        242.6851
2012    22      7       1.96385         242.7805
2012    23      0       2.052431        245.6085
2012    23      1       1.983054        242.5975
2012    23      2       1.759204        233.0
2012    23      3       1.52672         220.7687
2012    23      4       1.180413        196.4788
2012    23      5       1.044029        183.8528
2012    23      6       1.150149        193.3381
2012    23      7       1.25951         202.442
2012    24      0       1.254893        201.8562
2012    24      1       1.29039         204.4436
2012    24      2       1.248029        201.0936
2012    24      3       1.26714         202.3945
2012    24      4       1.32168         206.6601
2012    24      5       1.310902        205.9204
2012    24      6       1.209701        198.5153
2012    24      7       1.068449        186.3075
2012    25      0       0.9609832       175.3927
2012    25      1       0.8577588       163.8928
2012    25      2       0.8505276       163.247
2012    25      3       0.9906843       178.7838
2012    25      4       1.060313        185.9388
2012    25      5       1.051713        185.3662
2012    25      6       1.003885        180.7678
2012    25      7       0.9425749       174.32
2012    26      0       0.8274763       161.0849
2012    26      1       0.7453412       150.5246
2012    26      2       0.7226121       147.3143
2012    26      3       0.7687213       153.081
2012    26      4       0.797223        156.5674
2012    26      5       0.7822675       154.6787
2012    26      6       0.8011387       156.6099
2012    26      7       0.7413326       148.8121
2012    27      0       0.6787059       140.2346
2012    27      1       0.640076        134.4244
2012    27      2       0.6188009       131.1064
2012    27      3       0.6089407       129.8755
2012    27      4       0.6463046       135.586
2012    27      5       0.7080252       144.3948
2012    27      6       0.7888829       154.581
2012    27      7       0.8299995       159.4369
2012    28      0       0.9122348       168.6835
2012    28      1       0.9623013       173.8036
2012    28      2       1.008458        178.6905
2012    28      3       1.321061        205.6561
2012    28      4       1.786281        232.443
2012    28      5       1.914545        237.9389
2012    28      6       1.682862        227.9413
2012    28      7       1.215976        198.4821
2012    29      0       0.8549274       163.1602
2012    29      1       0.6502554       136.4811
2012    29      2       0.441899        102.9994
2012    29      3       0.6062721       129.8324
2012    29      4       0.7160646       144.958
2012    29      5       0.7506257       149.1498
2012    29      6       0.7578861       150.2356
2012    29      7       0.7677094       151.7989
2012    30      0       0.8213788       158.2206
2012    30      1       0.8847192       165.3073
2012    30      2       0.8919848       165.9968
2012    30      3       0.9159246       168.3975
2012    30      4       1.006314        177.5713
2012    30      5       1.089237        185.5149
2012    30      6       1.157429        191.4467
2012    30      7       1.152914        190.9855
2013    1       0       1.327566        209.5471
2013    1       1       1.453136        217.8766
2013    1       2       1.61702         227.5829
2013    1       3       1.904068        241.6368
2013    1       4       2.074765        248.4855
2013    1       5       2.057374        247.7553
2013    1       6       1.994972        245.3737
2013    1       7       1.926534        242.6864
2013    2       0       1.785671        236.2475
2013    2       1       1.635238        228.5508
2013    2       2       1.587282        225.9923
2013    2       3       1.617719        227.943
2013    2       4       1.825512        238.7016
2013    2       5       1.893301        241.8334
2013    2       6       1.704997        233.5668
2013    2       7       1.563727        226.0735
2013    3       0       1.573808        226.3775
2013    3       1       1.562365        225.3541
2013    3       2       1.516704        222.1903
2013    3       3       1.505934        221.4995
2013    3       4       1.396096        214.6603
2013    3       5       1.155758        196.4157
2013    3       6       1.091367        190.701
2013    3       7       1.153469        196.0712
2013    4       0       1.048541        186.1182
2013    4       1       0.894872        169.6238
2013    4       2       1.019553        182.3488
2013    4       3       1.267683        204.1637
2013    4       4       1.581492        225.2937
2013    4       5       1.855781        238.6188
2013    4       6       1.911577        240.8164
2013    4       7       1.543213        222.6021
2013    5       0       1.345357        209.5897
2013    5       1       1.337453        208.3583
2013    5       2       1.593341        224.0601
2013    5       3       1.77597         233.9133
2013    5       4       1.695449        230.6414
2013    5       5       1.481814        218.8214
2013    5       6       1.134397        193.1663
2013    5       7       0.919806        172.1866
2013    6       0       0.8081301       159.1235
2013    6       1       0.7928643       157.1513
2013    6       2       0.8358769       162.4422
2013    6       3       0.7291469       149.2919
2013    6       4       0.5398182       121.4411
2013    6       5       0.4481656       105.487
2013    6       6       0.4419699       103.9941
2013    6       7       0.4442372       104.0571
2013    7       0       0.3880842       93.26132
2013    7       1       0.3709544       89.86772
2013    7       2       0.4064109       96.92911
2013    7       3       0.4350141       102.6329
2013    7       4       0.4258578       101.335
2013    7       5       0.459893        107.4366
2013    7       6       0.469185        108.8596
2013    7       7       0.4750771       109.5077
2013    8       0       0.5025961       113.7503
2013    8       1       0.5831901       126.5609
2013    8       2       0.7043255       144.5095
2013    8       3       0.7445865       150.4343
2013    8       4       0.7738927       154.5915
2013    8       5       0.7263047       148.5789
2013    8       6       0.6847186       142.9482
2013    8       7       0.6437168       137.1
2013    9       0       0.6370238       135.9333
2013    9       1       0.5839499       127.7106
2013    9       2       0.5443849       121.3064
2013    9       3       0.5844786       127.4681
2013    9       4       0.6893396       142.5424
2013    9       5       0.7926054       155.8936
2013    9       6       0.9194154       170.6528
2013    9       7       1.098597        188.5656
2013    10      0       1.30033         204.9533
2013    10      1       1.487962        217.2992
2013    10      2       1.256796        201.0154
2013    10      3       1.164594        193.9575
2013    10      4       1.068386        185.5691
2013    10      5       1.031864        182.0452
2013    10      6       1.003109        179.3578
2013    10      7       0.9755332       176.371
2013    11      0       0.9284946       171.1409
2013    11      1       0.9382918       171.7771
2013    11      2       0.9722298       175.1564
2013    11      3       0.9730283       175.1063
2013    11      4       0.9430205       173.0554
2013    11      5       0.9085185       169.9427
2013    11      6       0.8345352       161.3658
2013    11      7       0.8438578       162.0632
2013    12      0       0.8992992       167.9578
2013    12      1       0.9118338       169.4393
2013    12      2       0.9997077       179.1398
2013    12      3       1.254563        202.5043
2013    12      4       1.210152        199.3625
2013    12      5       1.080463        188.0743
2013    12      6       0.9803937       178.0928
2013    12      7       0.9007428       169.3941
2013    13      0       0.8711408       165.6954
2013    13      1       0.8722887       165.5386
2013    13      2       0.881333        167.057
2013    13      3       0.8284988       161.1672
2013    13      4       0.8001204       158.0722
2013    13      5       0.7810625       155.8551
2013    13      6       0.7606145       153.3249
2013    13      7       0.7838361       155.5034
2013    14      0       0.793631        155.9597
2013    14      1       0.8295695       159.9502
2013    14      2       0.876388        165.5328
2013    14      3       0.9029562       168.6235
2013    14      4       0.950564        174.4512
2013    14      5       0.9142979       171.3714
2013    14      6       0.8925604       168.9815
2013    14      7       0.902411        170.0034
2013    15      0       0.8500993       164.2542
2013    15      1       0.7732004       155.0102
2013    15      2       0.7968164       157.6566
2013    15      3       0.8918338       168.3674
2013    15      4       1.062117        185.9086
2013    15      5       1.259492        203.1244
2013    15      6       1.186131        197.6441
2013    15      7       1.229885        200.9819
2013    16      0       1.344912        208.5269
2013    16      1       1.419484        212.5112
2013    16      2       1.446251        214.0453
2013    16      3       1.48186         216.9988
2013    16      4       1.404655        213.3807
2013    16      5       1.442548        216.4639
2013    16      6       1.30645         207.3389
2013    16      7       1.209294        199.3811
2013    17      0       1.181778        196.2987
2013    17      1       1.154231        193.3698
2013    17      2       1.064667        185.3147
2013    17      3       1.016294        181.3069
2013    17      4       1.097216        189.0868
2013    17      5       1.078533        187.4087
2013    17      6       1.029668        182.8108
2013    17      7       1.326347        206.833
2013    18      0       1.484788        216.0887
2013    18      1       1.385083        210.4439
2013    18      2       1.961553        240.1292
2013    18      3       2.217822        249.1592
2013    18      4       2.086455        245.166
2013    18      5       1.907255        238.1484
2013    18      6       2.076115        244.6875
2013    18      7       2.167158        248.0839
2013    19      0       2.246965        250.3566
2013    19      1       2.28592         251.283
2013    19      2       2.252129        250.1815
2013    19      3       2.264543        251.0746
2013    19      4       2.268486        251.6262
2013    19      5       2.250663        251.0337
2013    19      6       2.306844        252.4622
2013    19      7       2.415269        255.183
2013    20      0       2.569323        258.4244
2013    20      1       2.571012        258.2644
2013    20      2       2.760363        261.5958
2013    20      3       2.928084        264.569
2013    20      4       2.940087        265.5487
2013    20      5       2.953573        265.9618
2013    20      6       2.530641        258.5691
2013    20      7       2.057141        245.8198
2013    21      0       1.762604        233.906
2013    21      1       1.561853        222.9813
2013    21      2       1.439176        214.8453
2013    21      3       1.30983         205.6591
2013    21      4       1.341692        207.8373
2013    21      5       1.404296        212.0425
2013    21      6       1.49025         217.6777
2013    21      7       1.783727        233.1192
2013    22      0       1.957494        239.8934
2013    22      1       1.935796        238.454
2013    22      2       2.091699        243.788
2013    22      3       2.692193        259.091
2013    22      4       3.279533        267.4946
2013    22      5       2.96559         263.6276
2013    22      6       2.339358        251.958
2013    22      7       1.909751        238.5528
2013    23      0       1.817229        234.4952
2013    23      1       1.804198        233.3914
2013    23      2       1.909397        237.3923
2013    23      3       2.049887        242.7634
2013    23      4       2.424059        253.9795
2013    23      5       2.70911         259.7285
2013    23      6       2.59302         256.5704
2013    23      7       2.405889        252.1442
2013    24      0       2.271653        248.2273
2013    24      1       2.286105        248.0871
2013    24      2       2.08274         241.6221
2013    24      3       2.407912        251.0549
2013    24      4       2.92867         261.395
2013    24      5       2.742852        258.5405
2013    24      6       2.365278        250.0453
2013    24      7       1.894231        234.4313
2013    25      0       1.398971        208.1454
2013    25      1       1.120614        186.3652
2013    25      2       1.050171        179.4367
2013    25      3       1.135902        187.3352
2013    25      4       1.217949        195.0976
2013    25      5       1.202976        194.3986
2013    25      6       1.236409        197.4361
2013    25      7       1.217902        196.3199
2013    26      0       1.055956        182.5142
2013    26      1       0.9984182       177.0391
2013    26      2       0.9882839       176.2618
2013    26      3       0.9589317       173.6851
2013    26      4       0.9094879       168.9315
2013    26      5       0.8435404       162.0213
2013    26      6       0.7597293       152.047
2013    26      7       0.7112923       145.6382
2013    27      0       0.6721839       140.4086
2013    27      1       0.6481867       136.5207
2013    27      2       0.6682297       138.8921
2013    27      3       0.6503377       136.4032
2013    27      4       0.620468        131.6966
2013    27      5       0.6076097       129.2907
2013    27      6       0.5974867       127.4981
2013    27      7       0.6078818       128.9596
2013    28      0       0.6757526       138.4505
2013    28      1       0.7433859       147.2633
2013    28      2       0.8769228       163.2072
2013    28      3       1.071125        183.3013
2013    28      4       1.151531        191.1411
2013    28      5       1.39468         209.7055
2013    28      6       1.488101        216.2229
2013    28      7       1.414356        211.9403
2013    29      0       1.324315        205.7427
2013    29      1       1.228396        198.2545
2013    29      2       1.216145        197.2772
2013    29      3       1.197971        196.1629
2013    29      4       1.240025        199.6606
2013    29      5       1.310205        204.7779
2013    29      6       1.440535        214.0199
2013    29      7       1.516147        218.8194
2013    30      0       1.405965        211.6629
2013    30      1       1.243859        199.4731
2013    30      2       1.197743        195.6727
2013    30      3       1.220356        197.5684
2013    30      4       1.264734        201.231
2013    30      5       1.25643         200.6995
2013    30      6       1.226418        198.5005
2013    30      7       1.137065        191.2897
2014    1       0       2.106939        250.9183
2014    1       1       1.959826        245.6532
2014    1       2       1.809431        239.224
2014    1       3       1.769364        237.6194
2014    1       4       1.663926        232.7482
2014    1       5       1.517022        224.3217
2014    1       6       1.361285        213.8688
2014    1       7       1.255903        206.0362
2014    2       0       1.197293        201.2597
2014    2       1       1.139775        195.7796
2014    2       2       1.079079        189.7369
2014    2       3       0.9395649       175.2344
2014    2       4       0.9277817       173.8153
2014    2       5       0.9667696       178.3748
2014    2       6       1.030877        184.9308
2014    2       7       1.133415        194.3227
2014    3       0       1.306786        208.5937
2014    3       1       1.472048        219.9774
2014    3       2       1.454813        218.5179
2014    3       3       1.490417        220.7376
2014    3       4       1.615564        228.7324
2014    3       5       1.854351        240.9211
2014    3       6       2.317652        257.0673
2014    3       7       2.454011        260.1723
2014    4       0       2.08716         250.057
2014    4       1       1.980246        246.2814
2014    4       2       1.678106        232.2536
2014    4       3       1.595416        227.5181
2014    4       4       1.455253        219.1801
2014    4       5       1.33717         210.5084
2014    4       6       1.296651        207.0668
2014    4       7       1.361823        211.5149
2014    5       0       1.322992        208.3809
2014    5       1       1.296159        206.0653
2014    5       2       1.422244        214.8889
2014    5       3       1.457474        217.7578
2014    5       4       1.58802         226.0349
2014    5       5       1.78393         235.7985
2014    5       6       1.920647        241.2819
2014    5       7       2.055005        246.4486
2014    6       0       2.045928        246.3102
2014    6       1       2.028886        245.4551
2014    6       2       2.079964        247.1888
2014    6       3       2.007662        245.0706
2014    6       4       2.07351         247.7263
2014    6       5       1.946068        242.5943
2014    6       6       1.760271        234.0946
2014    6       7       1.595815        225.4943
2014    7       0       1.45983         217.4845
2014    7       1       1.335193        208.9373
2014    7       2       1.13709         193.0346
2014    7       3       1.031239        183.6511
2014    7       4       1.035203        184.618
2014    7       5       1.121622        192.6936
2014    7       6       1.28046         205.3416
2014    7       7       1.259086        203.7325
2014    8       0       1.035986        184.5137
2014    8       1       0.8674933       166.5515
2014    8       2       0.9507747       175.6579
2014    8       3       0.9647294       177.6185
2014    8       4       1.030551        184.7749
2014    8       5       1.174565        198.113
2014    8       6       1.288191        207.1979
2014    8       7       1.325471        209.8857
2014    9       0       1.362094        212.2927
2014    9       1       1.256593        204.2785
2014    9       2       1.315987        208.5714
2014    9       3       1.202923        200.2412
2014    9       4       1.248363        204.2655
2014    9       5       1.336276        210.9794
2014    9       6       1.399055        214.9419
2014    9       7       1.417551        215.9767
2014    10      0       1.282348        206.439
2014    10      1       1.255546        204.1083
2014    10      2       1.276276        205.2521
2014    10      3       1.090698        190.2118
2014    10      4       1.164719        196.8196
2014    10      5       1.319334        209.2186
2014    10      6       1.463412        218.9618
2014    10      7       1.285027        206.7981
2014    11      0       1.107221        192.2239
2014    11      1       1.008957        182.652
2014    11      2       0.9876648       180.4103
2014    11      3       0.8672156       167.6477
2014    11      4       0.7770846       156.8635
2014    11      5       0.7234328       149.7268
2014    11      6       0.7007974       146.5821
2014    11      7       0.6024555       132.3497
2014    12      0       0.4780322       111.6633
2014    12      1       0.5972956       130.9938
2014    12      2       0.73694         150.7711
2014    12      3       0.761481        153.937
2014    12      4       0.6826283       143.7353
2014    12      5       0.6473937       138.8822
2014    12      6       0.7238934       149.4687
2014    12      7       0.7433926       151.944
2014    13      0       0.7337222       150.5338
2014    13      1       0.7717882       155.3896
2014    13      2       0.7896585       157.2076
2014    13      3       0.7234433       148.8099
2014    13      4       0.745           151.9376
2014    13      5       0.7840545       156.8414
2014    13      6       0.8171034       160.6242
2014    13      7       0.8921503       169.0512
2014    14      0       0.9734352       177.4904
2014    14      1       0.9606965       175.6359
2014    14      2       1.118993        190.8477
2014    14      3       1.244515        201.3727
2014    14      4       1.268253        203.6361
2014    14      5       1.367735        211.1491
2014    14      6       1.616415        226.6172
2014    14      7       1.602158        225.9164
2014    15      0       1.473966        218.5524
2014    15      1       1.304626        206.7631
2014    15      2       1.210932        198.8272
2014    15      3       1.226726        200.0542
2014    15      4       1.165067        195.1199
2014    15      5       1.190722        197.5038
2014    15      6       1.345457        209.2296
2014    15      7       1.511789        219.3989
2014    16      0       2.070172        245.3485
2014    16      1       2.204952        249.5905
2014    16      2       1.898137        238.1829
2014    16      3       1.827466        235.305
2014    16      4       1.82275         235.0981
2014    16      5       1.911685        238.7951
2014    16      6       1.857587        236.9576
2014    16      7       1.914982        239.306
2014    17      0       1.96946         241.6029
2014    17      1       1.988864        242.1512
2014    17      2       1.946154        240.3044
2014    17      3       1.977729        242.0299
2014    17      4       2.066041        245.8399
2014    17      5       1.91655         240.2487
2014    17      6       1.673363        228.9372
2014    17      7       1.540868        221.7103
2014    18      0       1.42084         213.9696
2014    18      1       1.246786        200.8319
2014    18      2       1.272852        202.8455
2014    18      3       1.267067        202.8351
2014    18      4       1.519645        220.7972
2014    18      5       1.682131        230.4166
2014    18      6       1.800475        235.7687
2014    18      7       1.888516        239.0911
2014    19      0       1.973909        241.8515
2014    19      1       2.067062        245.1148
2014    19      2       2.051118        244.5027
2014    19      3       1.868986        238.0831
2014    19      4       1.746173        232.7749
2014    19      5       1.724699        231.627
2014    19      6       1.720735        231.5772
2014    19      7       1.797414        235.213
2014    20      0       1.935703        240.8201
2014    20      1       2.529245        258.3797
2014    20      2       2.638948        260.476
2014    20      3       2.536259        258.8632
2014    20      4       2.443487        257.3037
2014    20      5       2.319618        254.0789
2014    20      6       2.228526        251.3351
2014    20      7       2.199141        249.9693
2014    21      0       2.071503        245.7386
2014    21      1       1.806861        235.2304
2014    21      2       1.63086         226.2811
2014    21      3       1.36833         210.609
2014    21      4       1.13856         192.4894
2014    21      5       1.057729        185.1229
2014    21      6       1.03341         182.7856
2014    21      7       1.015794        180.8174
2014    22      0       1.033931        181.53
2014    22      1       1.05123         182.6307
2014    22      2       1.077753        184.6981
2014    22      3       1.057433        182.4467
2014    22      4       1.165788        191.7055
2014    22      5       1.395471        208.973
2014    22      6       1.852342        233.9545
2014    22      7       2.021981        240.9317
2014    23      0       1.911669        236.4694
2014    23      1       1.821893        232.6581
2014    23      2       1.773406        230.5273
2014    23      3       1.794102        231.7896
2014    23      4       1.81836         233.9828
2014    23      5       1.787284        233.1058
2014    23      6       1.638018        226.1001
2014    23      7       1.586034        223.1285
2014    24      0       1.554646        221.2064
2014    24      1       1.599121        223.3389
2014    24      2       1.76194         231.9899
2014    24      3       2.122408        246.3449
2014    24      4       2.583846        259.1807
2014    24      5       2.912449        265.2591
2014    24      6       2.954272        265.4426
2014    24      7       3.253998        268.5479
2014    25      0       2.895658        263.8019
2014    25      1       2.376572        253.0496
2014    25      2       2.25776         249.442
2014    25      3       2.694873        259.8523
2014    25      4       2.759999        261.3855
2014    25      5       2.590495        257.9047
2014    25      6       2.546343        256.4047
2014    25      7       2.511907        254.7747
2014    26      0       2.92015         262.8876
2014    26      1       1.223217        195.1783
2014    26      2       1.00417         175.5457
2014    26      3       0.9772099       173.5894
2014    26      4       1.10865         187.1183
2014    26      5       1.199184        195.4782
2014    26      6       1.171903        193.1948
2014    26      7       1.23526         197.9343
2014    27      0       1.313768        203.6393
2014    27      1       1.397646        209.3766
2014    27      2       1.381526        208.4616
2014    27      3       1.297547        202.8896
2014    27      4       1.376947        208.6023
2014    27      5       1.313844        204.9486
2014    27      6       1.404305        211.0165
2014    27      7       1.629516        224.5485
2014    28      0       1.976009        240.996
2014    28      1       2.244102        250.119
2014    28      2       2.374814        253.0739
2014    28      3       2.317962        251.7229
2014    28      4       2.325245        252.0749
2014    28      5       3.732368        274.2725
2014    28      6       2.333732        250.4342
2014    28      7       2.530896        255.055
2014    29      0       2.642923        257.5233
2014    29      1       3.231329        266.7153
2014    29      2       3.423287        269.3484
2014    29      3       3.132254        266.2784
2014    29      4       2.776088        261.6094
2014    29      5       2.327292        251.6464
2014    29      6       1.977143        240.3991
2014    29      7       1.745485        230.3321
2014    30      0       1.202104        195.6803
2014    30      1       0.8493603       160.6401
2014    30      2       0.9763253       173.8487
2014    30      3       1.199788        194.7569
2014    30      4       1.34916         206.2026
2014    30      5       1.487906        215.288
2014    30      6       1.699499        226.6337
2014    30      7       1.765731        229.7344
2015    1       0       2.313767        253.2057
2015    1       1       2.707171        261.2942
2015    1       2       2.591503        258.6728
2015    1       3       2.515217        257.3325
2015    1       4       2.670264        261.3742
2015    1       5       3.08244         267.8866
2015    1       6       2.670336        261.8196
2015    1       7       2.059433        246.3145
2015    2       0       1.819562        236.9351
2015    2       1       1.830426        237.0968
2015    2       2       1.754898        233.4408
2015    2       3       1.957602        242.2715
2015    2       4       2.674761        263.281
2015    2       5       2.446216        257.5609
2015    2       6       2.35645         255.5481
2015    2       7       2.245859        252.5638
2015    3       0       1.971805        243.8418
2015    3       1       1.708755        232.5516
2015    3       2       1.409104        215.1081
2015    3       3       1.373321        212.8161
2015    3       4       1.593776        227.2695
2015    3       5       2.184097        253.7929
2015    3       6       1.642536        229.5891
2015    3       7       1.488772        220.567
2015    4       0       1.417015        215.7871
2015    4       1       1.343037        210.3451
2015    4       2       1.278992        205.3096
2015    4       3       1.32214         208.6289
2015    4       4       1.484282        220.2576
2015    4       5       1.510194        222.4526
2015    4       6       1.499726        221.5259
2015    4       7       1.618313        227.7306
2015    5       0       1.733374        233.3451
2015    5       1       2.306055        256.5444
2015    5       2       1.658           228.9928
2015    5       3       1.553904        223.3225
2015    5       4       1.737368        233.6701
2015    5       5       2.08844         248.3966
2015    5       6       2.30808         254.9404
2015    5       7       2.242889        252.7103
2015    6       0       2.214423        251.1472
2015    6       1       2.142165        248.0578
2015    6       2       2.49656         257.3297
2015    6       3       2.730346        262.4899
2015    6       4       2.621916        260.6436
2015    6       5       2.968113        266.7561
2015    6       6       3.22442         269.4436
2015    6       7       2.890516        265.1273
2015    7       0       2.869447        264.6409
2015    7       1       3.462611        271.0643
2015    7       2       2.990584        266.2183
2015    7       3       3.783442        273.7995
2015    7       4       3.716144        273.4253
2015    7       5       2.596859        260.1478
2015    7       6       1.920377        240.3446
2015    7       7       1.56617         222.9121
2015    8       0       1.420311        213.7059
2015    8       1       1.34847         208.6761
2015    8       2       1.314863        206.3767
2015    8       3       1.41826         214.1096
2015    8       4       1.423435        215.1285
2015    8       5       1.255283        203.3404
2015    8       6       1.105487        190.1163
2015    8       7       1.377659        212.1804
2015    9       0       1.898606        240.3248
2015    9       1       2.056869        246.161
2015    9       2       2.024781        244.7793
2015    9       3       2.061962        246.3141
2015    9       4       1.945571        242.8999
2015    9       5       1.810703        237.5906
2015    9       6       1.737878        233.8396
2015    9       7       1.687938        230.791
2015    10      0       1.60401         225.918
2015    10      1       1.586118        224.641
2015    10      2       1.583417        224.4118
2015    10      3       1.786933        234.7917
2015    10      4       1.997621        243.7988
2015    10      5       1.986036        243.7515
2015    10      6       1.853772        238.6599
2015    10      7       1.804606        236.4343
2015    11      0       1.760397        234.0756
2015    11      1       1.751371        233.1481
2015    11      2       1.689066        229.99
2015    11      3       1.599102        225.5565
2015    11      4       1.56847         223.4104
2015    11      5       1.683584        229.5767
2015    11      6       2.676972        263.5231
2015    11      7       1.749663        232.2024
2015    12      0       1.751214        232.0211
2015    12      1       1.780155        232.976
2015    12      2       1.758339        231.7532
2015    12      3       1.834812        235.23
2015    12      4       2.179624        249.4813
2015    12      5       2.298203        252.667
2015    12      6       2.085356        245.8112
2015    12      7       1.939027        240.169
2015    13      0       1.834139        235.3964
2015    13      1       1.575873        222.444
2015    13      2       1.376034        210.0626
2015    13      3       1.558744        220.9846
2015    13      4       2.17339         247.5906
2015    13      5       2.056843        243.1025
2015    13      6       1.832905        234.2502
2015    13      7       2.113559        243.7754
2015    14      0       2.215465        247.4034
2015    14      1       2.243583        248.4844
2015    14      2       2.473946        253.9124
2015    14      3       2.417297        252.9577
2015    14      4       2.772619        260.8457
2015    14      5       2.742119        262.6766
2015    14      6       2.754729        263.1698
2015    14      7       2.660834        261.5943
2015    15      0       2.749021        262.577
2015    15      1       2.600606        259.8849
2015    15      2       2.596613        258.8216
2015    15      3       2.565381        257.6301
2015    15      4       2.868953        263.0751
2015    15      5       2.406376        254.2938
2015    15      6       2.589756        258.1828
2015    15      7       2.51413         256.4375
2015    16      0       2.832079        264.2833
2015    16      1       2.424369        253.6493
2015    16      2       2.073876        243.9527
2015    16      3       1.914925        238.5884
2015    16      4       2.151659        248.1861
2015    16      5       2.36209         254.823
2015    16      6       2.451893        256.8367
2015    16      7       2.439432        256.234
2015    17      0       2.770979        263.9396
2015    17      1       2.943975        266.8318
2015    17      2       2.384481        253.7924
2015    17      3       2.446494        255.5015
2015    17      4       2.196678        249.1566
2015    17      5       1.929888        239.4609
2015    17      6       1.888566        237.2159
2015    17      7       1.879832        236.6986
2015    18      0       1.852911        235.5888
2015    18      1       1.726785        229.7892
2015    18      2       1.64987         225.8181
2015    18      3       2.015263        242.2733
2015    18      4       2.333434        252.3852
2015    18      5       2.728071        260.5527
2015    18      6       2.181801        248.0351
2015    18      7       1.859114        236.0991
2015    19      0       1.65181         226.2498
2015    19      1       1.490884        217.038
2015    19      2       1.292482        203.5678
2015    19      3       1.492854        217.53
2015    19      4       1.912062        238.4783
2015    19      5       1.981808        240.9142
2015    19      6       1.666938        227.5424
2015    19      7       1.33307         207.6168
2015    20      0       1.044678        183.688
2015    20      1       0.7807589       154.6123
2015    20      2       0.5370493       120.2587
2015    20      3       0.5436027       121.4167
2015    20      4       0.5944577       129.1962
2015    20      5       0.5489645       122.098
2015    20      6       0.5245441       117.9415
2015    20      7       0.5390377       120.3403
2015    21      0       0.5823466       126.9952
2015    21      1       0.6506798       136.5515
2015    21      2       0.7030609       143.5821
2015    21      3       0.8382914       160.3553
2015    21      4       0.9500979       172.9926
2015    21      5       1.017785        180.2567
2015    21      6       1.336312        206.2311
2015    21      7       1.794052        231.6395
2015    22      0       1.753185        230.8752
2015    22      1       1.840006        235.0204
2015    22      2       1.958939        239.6725
2015    22      3       1.701911        229.2445
2015    22      4       1.518949        220.1503
2015    22      5       1.44662         216.1634
2015    22      6       1.221691        200.3186
2015    22      7       1.097364        189.7883
2015    23      0       0.9992102       180.0995
2015    23      1       0.7845213       155.3916
2015    23      2       0.778593        154.4922
2015    23      3       0.8557143       164.1362
2015    23      4       0.8824481       167.2813
2015    23      5       0.8712153       166.0114
2015    23      6       0.8206888       159.8833
2015    23      7       0.8071139       157.6298
2015    24      0       0.8210793       159.1143
2015    24      1       0.7681242       152.4248
2015    24      2       0.7184047       145.9987
2015    24      3       0.7560306       150.8207
2015    24      4       0.8437194       161.6786
2015    24      5       0.950221        173.3881
2015    24      6       0.995794        178.6288
2015    24      7       0.9113558       169.3821
2015    25      0       0.8343761       160.6526
2015    25      1       0.8818206       166.2595
2015    25      2       0.9308419       171.5992
2015    25      3       1.233667        200.3045
2015    25      4       1.424113        214.2606
2015    25      5       1.412792        214.1367
2015    25      6       1.394119        212.5675
2015    25      7       1.401935        212.6431
2015    26      0       1.416583        213.5074
2015    26      1       1.352015        209.0657
2015    26      2       1.39384         211.6837
2015    26      3       1.646809        226.7298
2015    26      4       1.818431        235.0605
2015    26      5       1.968412        240.9219
2015    26      6       2.055186        243.5004
2015    26      7       1.935078        238.8239
2015    27      0       1.663217        226.8522
2015    27      1       1.467893        215.9203
2015    27      2       1.579067        221.9788
2015    27      3       1.631885        225.0758
2015    27      4       1.554464        220.9934
2015    27      5       1.472686        215.9195
2015    27      6       1.511657        217.9654
2015    27      7       1.560836        220.3803
2015    28      0       1.59631         221.7319
2015    28      1       1.509769        216.729
2015    28      2       1.560844        219.4663
2015    28      3       1.755225        229.6996
2015    28      4       1.697854        227.7161
2015    28      5       1.675455        227.0169
2015    28      6       1.888425        236.9294
2015    28      7       1.976229        240.4769
2015    29      0       1.905032        237.7145
2015    29      1       1.828792        234.4448
2015    29      2       1.931329        238.4066
2015    29      3       2.247244        249.0832
2015    29      4       2.384374        253.3509
2015    29      5       2.593905        257.2042
2015    29      6       2.324746        250.5399
2015    29      7       2.083331        243.1266
2015    30      0       2.174229        246.4944
2015    30      1       2.28677         249.5069
2015    30      2       2.396561        252.1711
2015    30      3       3.053516        266.4534
2015    30      4       2.723711        260.985
2015    30      5       2.640162        259.7427
2015    30      6       3.58698         272.8923
2015    30      7       3.62446         272.151
2016    1       0       2.057851        247.5363
2016    1       1       1.919253        241.7266
2016    1       2       1.899237        240.2743
2016    1       3       1.503008        220.1623
2016    1       4       0.7643284       154.5298
2016    1       5       0.5627736       125.9245
2016    1       6       0.802535        159.2161
2016    1       7       1.085065        189.4246
2016    2       0       1.186877        198.3352
2016    2       1       1.229747        201.3825
2016    2       2       1.148908        194.2485
2016    2       3       0.9990563       180.6464
2016    2       4       0.8847793       168.4832
2016    2       5       1.018384        182.5765
2016    2       6       1.040651        184.7618
2016    2       7       0.8223471       161.1026
2016    3       0       0.9379148       173.6282
2016    3       1       1.246702        201.1347
2016    3       2       1.383979        211.0445
2016    3       3       1.472735        217.4849
2016    3       4       1.416411        214.8428
2016    3       5       1.32961         208.947
2016    3       6       1.28081         205.5567
2016    3       7       1.259631        203.5475
2016    4       0       1.288378        205.3698
2016    4       1       1.312877        207.0787
2016    4       2       1.21487         199.2218
2016    4       3       1.094632        188.9516
2016    4       4       1.203369        198.5999
2016    4       5       1.366557        210.9227
2016    4       6       1.320446        207.741
2016    4       7       1.230369        200.6535
2016    5       0       1.051905        184.6985
2016    5       1       1.012015        180.5356
2016    5       2       0.9457588       173.4971
2016    5       3       0.9202755       171.1664
2016    5       4       0.9148963       171.0871
2016    5       5       0.9695481       177.2085
2016    5       6       1.031607        184.5226
2016    5       7       1.076132        188.4692
2016    6       0       0.9517328       174.6434
2016    6       1       0.9696833       176.3512
2016    6       2       1.008916        179.9944
2016    6       3       1.057512        184.8708
2016    6       4       1.205257        198.1381
2016    6       5       1.326816        207.8281
2016    6       6       1.481139        218.2308
2016    6       7       1.499129        219.2044
2016    7       0       1.522635        220.3662
2016    7       1       1.60866         224.8656
2016    7       2       1.650263        227.0545
2016    7       3       1.875662        237.5543
2016    7       4       2.084763        245.6322
2016    7       5       2.336989        253.7546
2016    7       6       2.250369        250.8224
2016    7       7       1.903686        239.5292
2016    8       0       1.722994        231.3286
2016    8       1       1.774059        233.1513
2016    8       2       1.619515        225.3953
2016    8       3       1.537181        221.0521
2016    8       4       1.410976        213.3099
2016    8       5       1.255893        202.0044
2016    8       6       1.128936        191.1784
2016    8       7       0.9345093       171.9764
2016    9       0       0.9124256       169.5866
2016    9       1       0.8861764       166.547
2016    9       2       0.8150521       158.3418
2016    9       3       0.7667971       152.5776
2016    9       4       0.8307857       160.5648
2016    9       5       0.9518398       174.1134
2016    9       6       1.023053        181.0274
2016    9       7       0.9588003       174.4557
2016    10      0       0.9766428       176.2511
2016    10      1       0.9890975       177.3644
2016    10      2       0.992453        177.61
2016    10      3       0.9783491       176.3089
2016    10      4       0.986502        177.4936
2016    10      5       0.9625899       175.3452
2016    10      6       0.9555373       174.6757
2016    10      7       0.916444        171.1818
2016    11      0       0.937493        173.0903
2016    11      1       1.057591        184.8164
2016    11      2       1.029676        182.0072
2016    11      3       0.9859545       177.8629
2016    11      4       0.9912293       178.7816
2016    11      5       0.9362694       173.3885
2016    11      6       0.8716393       166.2648
2016    11      7       0.834419        161.7039
2016    12      0       0.8431502       162.5099
2016    12      1       0.8499923       163.0888
2016    12      2       0.8203156       159.2363
2016    12      3       0.823139        159.5761
2016    12      4       0.9396128       172.6
2016    12      5       1.038511        182.6152
2016    12      6       1.093826        187.8384
2016    12      7       1.080291        186.7794
2016    13      0       1.002074        179.4195
2016    13      1       0.97261         176.3734
2016    13      2       1.014864        180.6316
2016    13      3       1.310798        206.332
2016    13      4       1.378854        211.6396
2016    13      5       1.309324        206.8868
2016    13      6       1.194373        197.5717
2016    13      7       1.026681        182.3572
2016    14      0       0.8501013       163.1339
2016    14      1       0.9557408       174.7584
2016    14      2       1.471825        217.2589
2016    14      3       1.509117        219.7779
2016    14      4       1.574018        224.3601
2016    14      5       1.525343        221.9525
2016    14      6       1.384385        213.1863
2016    14      7       1.302783        207.1309
2016    15      0       1.14032         193.3947
2016    15      1       1.174766        195.8857
2016    15      2       1.404868        213.2972
2016    15      3       1.559812        223.5361
2016    15      4       1.600814        226.0886
2016    15      5       1.639254        227.9543
2016    15      6       1.811619        236.2215
2016    15      7       1.932597        241.2478
2016    16      0       1.933777        240.9131
2016    16      1       1.858911        237.3999
2016    16      2       1.764251        232.8657
2016    16      3       1.817803        236.0369
2016    16      4       1.636118        227.631
2016    16      5       1.486721        219.0871
2016    16      6       1.444798        216.2693
2016    16      7       1.426778        214.8788
2016    17      0       1.288851        204.6246
2016    17      1       1.371703        209.4625
2016    17      2       1.539123        219.1588
2016    17      3       1.671484        226.5496
2016    17      4       1.86321         235.926
2016    17      5       2.107281        244.838
2016    17      6       1.857712        235.3519
2016    17      7       1.569786        221.4454
2016    18      0       1.493435        216.8072
2016    18      1       1.508743        217.369
2016    18      2       1.381693        209.509
2016    18      3       1.320767        205.3971
2016    18      4       1.289599        203.7253
2016    18      5       1.194924        196.736
2016    18      6       1.172046        194.4801
2016    18      7       1.062769        184.5228
2016    19      0       1.005438        179.0019
2016    19      1       0.9823371       176.4362
2016    19      2       1.026852        180.5051
2016    19      3       1.107426        188.0856
2016    19      4       1.256103        200.5161
2016    19      5       1.268193        201.7634
2016    19      6       1.228585        198.6197
2016    19      7       1.12429         189.7866
2016    20      0       1.014794        179.7619
2016    20      1       0.9041114       168.4731
2016    20      2       0.8201965       158.806
2016    20      3       0.7987819       155.8756
2016    20      4       0.8293114       159.5732
2016    20      5       0.8960282       166.8187
2016    20      6       0.9349849       170.5528
2016    20      7       1.033342        180.6995
2016    21      0       1.060855        183.85
2016    21      1       1.29528         203.5865
2016    21      2       1.628981        224.3299
2016    21      3       1.891952        236.7112
2016    21      4       2.967625        264.7325
2016    21      5       2.190635        248.5474
2016    21      6       1.40766         212.1677
2016    21      7       1.096272        186.4054
2016    22      0       0.9196711       168.2631
2016    22      1       0.8314936       158.5685
2016    22      2       1.082655        185.4594
2016    22      3       1.39            210.3373
2016    22      4       1.725714        229.8955
2016    22      5       1.9402          239.7109
2016    22      6       1.997663        241.6739
2016    22      7       2.235066        248.7515
2016    23      0       2.609271        257.5738
2016    23      1       2.400578        252.9098
2016    23      2       2.054089        242.8194
2016    23      3       1.645198        225.8877
2016    23      4       1.51498         219.1216
2016    23      5       1.450758        215.2426
2016    23      6       1.521576        218.8869
2016    23      7       1.744847        229.8768
2016    24      0       1.650191        224.5385
2016    24      1       1.457298        212.8499
2016    24      2       1.366389        206.7479
2016    24      3       1.22226         196.9838
2016    24      4       1.036527        180.9978
2016    24      5       0.8205215       158.1676
2016    24      6       0.7697372       151.3728
2016    24      7       0.77029         151.1104
2016    25      0       0.7330057       145.9936
2016    25      1       0.6603629       135.965
2016    25      2       0.6526158       135.0339
2016    25      3       0.6178578       130.5704
2016    25      4       0.5721188       123.8761
2016    25      5       0.4908456       110.8658
2016    25      6       0.4980478       111.6722
2016    25      7       0.4792111       108.0854
2016    26      0       0.4113886       96.09192
2016    26      1       0.5014459       111.7813
2016    26      2       0.8351198       158.5464
2016    26      3       1.133575        188.8805
2016    26      4       1.442885        212.7663
2016    26      5       1.587229        221.819
2016    26      6       1.789667        232.2024
2016    26      7       1.893723        236.7512
2016    27      0       1.869216        235.8394
2016    27      1       1.912916        237.3547
2016    27      2       2.004017        240.8439
2016    27      3       2.010899        241.6118
2016    27      4       1.965298        240.7536
2016    27      5       1.961114        240.9407
2016    27      6       1.945927        239.9811
2016    27      7       1.902454        237.7735
2016    28      0       1.731553        230.3725
2016    28      1       1.556224        221.0989
2016    28      2       1.226362        198.5219
2016    28      3       1.26386         201.4685
2016    28      4       1.31469         205.0299
2016    28      5       1.129375        189.2527
2016    28      6       0.8919772       166.2827
2016    28      7       0.758838        150.7865
2016    29      0       0.8139119       157.0287
2016    29      1       0.8478805       160.4241
2016    29      2       0.7622987       150.1777
2016    29      3       0.7940391       153.767
2016    29      4       0.8961052       165.5746
2016    29      5       0.956056        172.2686
2016    29      6       0.882052        164.2585
2016    29      7       0.8807971       163.5929
2016    30      0       1.091355        183.0319
2016    30      1       1.343954        201.7911
2016    30      2       1.222722        194.0294
2016    30      3       1.299111        199.8977
2016    30      4       1.452308        210.1513
2016    30      5       1.900802        231.6269
2016    30      6       1.878384        230.4561
2016    30      7       1.381472        205.5293
2017    1       0       1.221924        201.5812
2017    1       1       1.225955        201.7822
2017    1       2       1.313563        208.4806
2017    1       3       1.451229        218.028
2017    1       4       1.669884        231.3349
2017    1       5       1.689556        232.8133
2017    1       6       1.565714        225.7835
2017    1       7       1.630228        228.6374
2017    2       0       1.904374        241.0323
2017    2       1       1.85642         239.0515
2017    2       2       1.736113        233.999
2017    2       3       1.722755        233.7355
2017    2       4       1.490134        221.4437
2017    2       5       1.202944        200.8958
2017    2       6       0.9567096       177.5356
2017    2       7       0.8068716       159.9014
2017    3       0       0.5767269       127.7525
2017    3       1       0.4479159       106.5464
2017    3       2       0.5617453       125.681
2017    3       3       0.6396386       137.4509
2017    3       4       0.6988267       145.7553
2017    3       5       0.797797        158.5692
2017    3       6       0.9589985       176.4242
2017    3       7       1.009554        181.3201
2017    4       0       1.006766        181.0364
2017    4       1       1.03154         183.4608
2017    4       2       1.081483        188.718
2017    4       3       1.142459        194.3216
2017    4       4       1.405291        214.5311
2017    4       5       1.462803        217.6993
2017    4       6       1.425707        214.9969
2017    4       7       1.449809        216.5531
2017    5       0       1.489848        218.9934
2017    5       1       1.543056        221.8964
2017    5       2       1.446835        215.7475
2017    5       3       1.284222        204.7251
2017    5       4       1.171777        196.134
2017    5       5       1.243196        202.1887
2017    5       6       1.331689        208.8256
2017    5       7       1.277621        204.4788
2017    6       0       1.343022        209.1089
2017    6       1       1.656998        228.2597
2017    6       2       1.89498         239.991
2017    6       3       2.155223        250.2481
2017    6       4       2.144332        250.5742
2017    6       5       2.302888        255.5749
2017    6       6       2.395992        257.8999
2017    6       7       2.372257        256.7804
2017    7       0       2.191944        251.5094
2017    7       1       2.543378        260.2332
2017    7       2       1.695582        232.4576
2017    7       3       1.692728        232.4787
2017    7       4       1.488961        221.7657
2017    7       5       0.8816259       169.4118
2017    7       6       0.6145561       133.6537
2017    7       7       0.5368792       121.1647
2017    8       0       0.5893622       129.1438
2017    8       1       0.6750333       141.4301
2017    8       2       0.7503115       151.4987
2017    8       3       0.8344276       162.6269
2017    8       4       0.8456081       164.33
2017    8       5       0.7626713       154.3972
2017    8       6       0.7249363       149.4288
2017    8       7       0.7336962       150.5678
2017    9       0       0.7220281       148.9993
2017    9       1       0.7102373       147.1625
2017    9       2       0.7132668       147.5643
2017    9       3       0.7939638       158.5297
2017    9       4       0.8498827       165.4171
2017    9       5       0.7788992       156.6323
2017    9       6       0.7454725       151.9785
2017    9       7       0.7271589       149.3572
2017    10      0       0.6628995       140.467
2017    10      1       0.5939597       130.2986
2017    10      2       0.5593553       124.9964
2017    10      3       0.5412535       122.0698
2017    10      4       0.5143408       117.6427
2017    10      5       0.4372395       104.1122
2017    10      6       0.3987225       96.74907
2017    10      7       0.3841086       93.83674
2017    11      0       0.3640075       89.98137
2017    11      1       0.3725766       91.5664
2017    11      2       0.4601088       107.2743
2017    11      3       0.5514348       122.1847
2017    11      4       0.6199641       132.7824
2017    11      5       0.6159026       132.5992
2017    11      6       0.5800405       127.2702
2017    11      7       0.5631591       124.621
2017    12      0       0.5446632       121.8781
2017    12      1       0.5188064       117.843
2017    12      2       0.5241932       119.0212
2017    12      3       0.5041809       115.6337
2017    12      4       0.5300171       120.0111
2017    12      5       0.5583906       124.7508
2017    12      6       0.5357372       121.1087
2017    12      7       0.4464907       105.7533
2017    13      0       0.4168056       100.599
2017    13      1       0.3952307       96.76317
2017    13      2       0.4464359       106.0682
2017    13      3       0.5089764       116.6529
2017    13      4       0.5680102       126.3482
2017    13      5       0.616668        133.7778
2017    13      6       0.6615749       140.0546
2017    13      7       0.6802921       142.4672
2017    14      0       0.663019        139.9264
2017    14      1       0.638866        136.4413
2017    14      2       0.6837019       143.0891
2017    14      3       1.098534        191.0019
2017    14      4       1.416568        216.6347
2017    14      5       1.490557        221.6432
2017    14      6       1.252111        204.697
2017    14      7       1.110623        192.5125
2017    15      0       1.195949        199.884
2017    15      1       1.243488        203.5492
2017    15      2       1.271778        205.5333
2017    15      3       1.490971        221.0821
2017    15      4       1.54829         224.225
2017    15      5       1.464231        218.8163
2017    15      6       1.464061        218.5006
2017    15      7       1.741059        234.3283
2017    16      0       1.705517        231.2964
2017    16      1       1.767068        233.8604
2017    16      2       1.721693        231.3418
2017    16      3       1.689704        229.8587
2017    16      4       1.69277         229.838
2017    16      5       1.629604        225.9956
2017    16      6       1.661028        226.9301
2017    16      7       1.751019        231.3774
2017    17      0       1.807954        234.0412
2017    17      1       1.75162         231.8734
2017    17      2       1.760308        232.9174
2017    17      3       2.049393        245.9752
2017    17      4       2.413199        257.0046
2017    17      5       2.758665        263.7997
2017    17      6       2.176872        250.4066
2017    17      7       1.738602        233.1091
2017    18      0       1.696228        230.6179
2017    18      1       1.754359        232.6725
2017    18      2       1.550589        221.7246
2017    18      3       1.482153        217.2972
2017    18      4       1.735705        231.3985
2017    18      5       1.931746        240.194
2017    18      6       1.810902        235.2231
2017    18      7       1.613002        225.7817
2017    19      0       1.544405        221.7085
2017    19      1       1.484236        218.0474
2017    19      2       1.187343        196.9134
2017    19      3       1.143108        192.3942
2017    19      4       1.158143        194.1496
2017    19      5       1.138635        192.6021
2017    19      6       1.331862        207.1115
2017    19      7       1.688432        228.0668
2017    20      0       1.96107         240.0009
2017    20      1       2.23023         249.5868
2017    20      2       2.175969        247.743
2017    20      3       2.085162        244.6841
2017    20      4       1.966084        241.3699
2017    20      5       2.04827         245.726
2017    20      6       1.974277        242.4357
2017    20      7       2.06743         245.4266
2017    21      0       2.050053        244.3168
2017    21      1       1.990958        241.692
2017    21      2       1.883854        236.8052
2017    21      3       1.818929        233.5016
2017    21      4       1.750021        230.5515
2017    21      5       1.604813        223.5566
2017    21      6       1.469161        215.3141
2017    21      7       1.45623         214.4101
2017    22      0       1.607745        223.6275
2017    22      1       1.742465        230.6363
2017    22      2       1.705743        229.2709
2017    22      3       1.653773        226.925
2017    22      4       1.415239        213.9955
2017    22      5       1.183004        197.0159
2017    22      6       1.038282        183.6447
2017    22      7       1.001072        179.788
2017    23      0       0.9594484       175.4983
2017    23      1       0.9419366       173.3681
2017    23      2       1.082827        187.0107
2017    23      3       1.046013        183.2764
2017    23      4       0.7841942       154.4607
2017    23      5       0.6576554       137.875
2017    23      6       0.6410052       135.2001
2017    23      7       0.5261169       117.5055
2017    24      0       0.3989337       95.27338
2017    24      1       0.3719529       89.71281
2017    24      2       0.4228848       98.47889
2017    24      3       0.5436092       118.7852
2017    24      4       0.6083931       128.7233
2017    24      5       0.6664943       137.1115
2017    24      6       0.759448        149.039
2017    24      7       1.066228        182.8224
2017    25      0       1.557713        219.3479
2017    25      1       1.79316         231.6912
2017    25      2       1.88003         234.9925
2017    25      3       2.206265        248.7622
2017    25      4       1.832483        234.8832
2017    25      5       1.877397        237.0178
2017    25      6       1.817983        234.2598
2017    25      7       1.988284        240.7731
2017    26      0       1.932301        239.2946
2017    26      1       1.872113        236.6701
2017    26      2       2.113065        245.116
2017    26      3       2.510848        256.331
2017    26      4       2.334391        253.1709
2017    26      5       1.968024        241.7398
2017    26      6       1.596667        224.3128
2017    26      7       1.619097        224.9666
2017    27      0       1.408247        212.4004
2017    27      1       0.9371429       171.4794
2017    27      2       0.9652682       174.0787
2017    27      3       1.181735        194.9915
2017    27      4       1.092108        187.4507
2017    27      5       0.9588319       174.7054
2017    27      6       0.8997718       168.2497
2017    27      7       0.6924754       142.1316
2017    28      0       0.8167057       157.8042
2017    28      1       1.034043        181.3831
2017    28      2       1.175918        194.0578
2017    28      3       1.337832        206.8176
2017    28      4       1.395512        211.3443
2017    28      5       1.336592        207.3263
2017    28      6       1.240565        200.1943
2017    28      7       1.227342        198.7891
2017    29      0       1.196319        196.0306
2017    29      1       1.141495        191.1589
2017    29      2       1.103854        187.5767
2017    29      3       1.148671        191.3343
2017    29      4       1.071433        184.5355
2017    29      5       0.9183074       169.4596
2017    29      6       0.834516        159.6754
2017    29      7       0.952921        172.5496
2017    30      0       1.344328        206.008
2017    30      1       2.055199        242.4337
2017    30      2       2.079339        243.4731
2017    30      3       1.63052         224.7055
2017    30      4       1.503737        218.0747
2017    30      5       1.584059        222.8518
2017    30      6       1.444855        214.9109
2017    30      7       1.184235        195.9615
2018    1       0       0.9307092       174.8659
2018    1       1       1.017431        183.4083
2018    1       2       1.058912        187.1133
2018    1       3       1.452801        218.2435
2018    1       4       1.699826        233.1545
2018    1       5       1.735785        235.5991
2018    1       6       1.735568        235.3249
2018    1       7       1.633752        230.0857
2018    2       0       1.458902        219.7779
2018    2       1       1.425093        217.2246
2018    2       2       1.355725        212.1391
2018    2       3       1.56277         225.2346
2018    2       4       1.840701        239.3185
2018    2       5       2.141527        251.8434
2018    2       6       1.636698        229.4373
2018    2       7       1.471998        219.6094
2018    3       0       1.338718        210.797
2018    3       1       1.262694        204.855
2018    3       2       1.231896        202.062
2018    3       3       1.363263        211.9016
2018    3       4       1.379271        213.1277
2018    3       5       1.312275        208.5121
2018    3       6       1.308869        207.8653
2018    3       7       1.280052        205.3385
2018    4       0       1.110212        191.2232
2018    4       1       1.044328        184.7719
2018    4       2       1.17027         196.0056
2018    4       3       1.446726        216.6955
2018    4       4       1.606113        226.3557
2018    4       5       1.809138        235.9764
2018    4       6       1.796218        235.1747
2018    4       7       1.687144        229.9343
2018    5       0       1.572467        223.831
2018    5       1       1.454685        216.7015
2018    5       2       1.366221        210.701
2018    5       3       1.342365        209.0457
2018    5       4       1.331286        208.8056
2018    5       5       1.240953        202.4912
2018    5       6       1.261131        204.0571
2018    5       7       1.224879        200.8931
2018    6       0       1.198615        198.4956
2018    6       1       1.168587        195.7114
2018    6       2       1.132844        192.4353
2018    6       3       1.082406        188.5194
2018    6       4       1.126653        193.2682
2018    6       5       1.226586        201.4373
2018    6       6       1.373091        212.0451
2018    6       7       1.497502        220.0902
2018    7       0       1.399802        213.6633
2018    7       1       1.296313        205.9148
2018    7       2       1.273741        203.6681
2018    7       3       1.29336         205.2173
2018    7       4       1.361158        210.3839
2018    7       5       1.350587        209.4757
2018    7       6       1.192928        197.3042
2018    7       7       1.185313        196.5619
2018    8       0       1.201689        197.5828
2018    8       1       1.272368        202.6766
2018    8       2       1.377443        209.9872
2018    8       3       1.478356        216.878
2018    8       4       1.495688        218.6296
2018    8       5       1.605737        224.9332
2018    8       6       1.807368        234.367
2018    8       7       1.802853        233.7762
2018    9       0       1.534983        219.7099
2018    9       1       1.604428        223.0869
2018    9       2       1.677736        226.9083
2018    9       3       1.701666        228.6941
2018    9       4       1.601497        224.5706
2018    9       5       1.58427         224.272
2018    9       6       1.436499        215.4959
2018    9       7       1.44189         215.6714
2018    10      0       1.515879        220.0023
2018    10      1       1.543266        221.3033
2018    10      2       1.453531        215.7045
2018    10      3       1.399996        212.4527
2018    10      4       1.32034         207.2789
2018    10      5       1.362019        210.0657
2018    10      6       1.272318        203.4844
2018    10      7       1.247875        201.1681
2018    11      0       1.296745        204.6123
2018    11      1       1.562928        221.9514
2018    11      2       1.597244        223.6629
2018    11      3       1.536906        220.2423
2018    11      4       1.388152        211.9042
2018    11      5       1.328717        208.1919
2018    11      6       1.100005        189.689
2018    11      7       0.7965528       156.9848
2018    12      0       0.5436648       120.8566
2018    12      1       0.4851854       111.1403
2018    12      2       0.5292947       118.4374
2018    12      3       0.7340679       148.2003
2018    12      4       0.8171409       159.0932
2018    12      5       0.7615444       152.7744
2018    12      6       0.6614958       139.1996
2018    12      7       0.6153526       132.1157
2018    13      0       0.7341295       148.193
2018    13      1       1.086134        186.209
2018    13      2       1.594145        223.8447
2018    13      3       1.704543        229.8865
2018    13      4       2.161095        248.8037
2018    13      5       2.453294        257.4279
2018    13      6       2.420435        257.0817
2018    13      7       2.27257         252.7347
2018    14      0       2.509178        259.836
2018    14      1       2.222351        251.1326
2018    14      2       2.14702         248.571
2018    14      3       2.177982        249.695
2018    14      4       2.221883        251.4786
2018    14      5       2.249628        252.4185
2018    14      6       2.38402         256.2873
2018    14      7       2.155047        249.9918
2018    15      0       1.87928         240.3771
2018    15      1       1.811615        237.7928
2018    15      2       1.607833        227.4671
2018    15      3       1.2579          204.1252
2018    15      4       0.9758001       178.612
2018    15      5       0.7759048       155.4973
2018    15      6       0.5816513       128.3124
2018    15      7       0.4761921       110.9404
2018    16      0       0.3928814       95.72932
2018    16      1       0.3960476       95.91727
2018    16      2       0.5723918       125.4916
2018    16      3       0.699213        144.4054
2018    16      4       0.8517923       163.5265
2018    16      5       1.07823         187.1509
2018    16      6       1.193656        197.2027
2018    16      7       1.284108        204.1783
2018    17      0       1.273897        203.4097
2018    17      1       1.29831         205.0209
2018    17      2       1.353304        208.7221
2018    17      3       1.34998         208.6184
2018    17      4       1.30305         205.7269
2018    17      5       1.206196        198.4399
2018    17      6       1.170406        195.3832
2018    17      7       1.151206        193.4214
2018    18      0       1.190995        196.3492
2018    18      1       1.484177        216.8717
2018    18      2       1.722183        230.1077
2018    18      3       1.625546        225.5907
2018    18      4       1.674126        228.8491
2018    18      5       2.059072        245.4305
2018    18      6       2.467214        258.2262
2018    18      7       1.893622        238.9606
2018    19      0       1.894841        238.8953
2018    19      1       2.353009        253.3443
2018    19      2       2.195239        249.2493
2018    19      3       1.95788         241.9331
2018    19      4       1.794207        235.966
2018    19      5       1.733344        233.2944
2018    19      6       1.648766        228.7933
2018    19      7       1.727406        232.3326
2018    20      0       1.697553        230.4257
2018    20      1       1.746569        232.2839
2018    20      2       1.760536        232.7261
2018    20      3       1.946135        240.9558
2018    20      4       2.024886        244.6127
2018    20      5       2.040059        245.5361
2018    20      6       2.086766        246.8321
2018    20      7       2.035758        244.6794
2018    21      0       1.931401        240.4655
2018    21      1       1.783454        233.8314
2018    21      2       1.717989        230.4664
2018    21      3       1.692573        229.2995
2018    21      4       1.536246        221.2661
2018    21      5       1.400082        212.4912
2018    21      6       1.299403        204.8612
2018    21      7       1.357521        208.7713
2018    22      0       1.644881        225.8266
2018    22      1       1.849696        235.2478
2018    22      2       2.040123        242.6687
2018    22      3       2.11489         245.8458
2018    22      4       1.833916        236.2744
2018    22      5       1.540906        221.8014
2018    22      6       1.25411         201.8317
2018    22      7       1.102444        188.6719
2018    23      0       1.11336         189.0421
2018    23      1       1.10553         187.8929
2018    23      2       1.173981        193.85
2018    23      3       1.325512        205.3743
2018    23      4       1.356256        207.8616
2018    23      5       1.429515        212.608
2018    23      6       1.582646        221.5437
2018    23      7       1.676273        226.0435
2018    24      0       1.624374        223.2278
2018    24      1       1.525328        217.7161
2018    24      2       1.533949        218.54
2018    24      3       1.679561        227.0
2018    24      4       1.784732        232.5838
2018    24      5       1.695098        228.5956
2018    24      6       1.494812        217.8204
2018    24      7       1.398655        211.7682
2018    25      0       1.411551        212.5275
2018    25      1       1.409887        212.345
2018    25      2       1.370619        209.5262
2018    25      3       1.339916        207.2829
2018    25      4       1.340167        207.6026
2018    25      5       1.226356        199.3822
2018    25      6       1.101883        188.7569
2018    25      7       1.058617        184.2544
2018    26      0       1.012134        179.4555
2018    26      1       0.961773        174.163
2018    26      2       0.9252979       169.8668
2018    26      3       0.9059207       167.2346
2018    26      4       0.9046742       167.3057
2018    26      5       0.8870829       165.494
2018    26      6       0.92793         169.9577
2018    26      7       1.029044        179.8102
2018    27      0       1.081263        184.6023
2018    27      1       1.084644        185.2721
2018    27      2       1.152064        191.9712
2018    27      3       1.253847        200.7943
2018    27      4       1.221008        198.2752
2018    27      5       1.186814        195.4769
2018    27      6       1.105146        188.4341
2018    27      7       1.009001        178.9539
2018    28      0       0.9335278       171.0424
2018    28      1       0.9082037       169.0148
2018    28      2       0.9304037       171.4742
2018    28      3       1.132456        191.3375
2018    28      4       1.171989        194.7367
2018    28      5       1.087711        187.2542
2018    28      6       0.9743341       176.2515
2018    28      7       0.9005683       168.1391
2018    29      0       0.853678        162.5499
2018    29      1       0.846917        161.4944
2018    29      2       0.9371495       170.597
2018    29      3       1.046109        181.4487
2018    29      4       1.103949        187.2197
2018    29      5       1.165179        192.7293
2018    29      6       1.277141        201.4735
2018    29      7       1.827011        235.4337
2018    30      0       1.283814        201.993
2018    30      1       1.244194        199.4067
2018    30      2       1.185285        194.6505
2018    30      3       1.34054         206.0699
2018    30      4       1.738259        229.8725
2018    30      5       1.994618        240.8785
2018    30      6       2.063975        242.8916
2018    30      7       1.966804        239.4838
