####################################################################################################
# Month: 02Feb                                                                                     #
# Station: GLTS                                                                                    #
# Frequency: 345 GHz                                                                               #
# Columns are: year    day     segment         tau     Tb (K)                                      #
####################################################################################################
2009    1       0       0.1181308       32.73418
2009    1       1       0.113403        31.75804
2009    1       2       0.1084215       30.68765
2009    1       3       0.1048249       29.91256
2009    1       4       0.1060304       30.17199
2009    1       5       0.1122693       31.47486
2009    1       6       0.1185726       32.77288
2009    1       7       0.1227324       33.63825
2009    2       0       0.1252716       34.15939
2009    2       1       0.1237138       33.84659
2009    2       2       0.11902         32.9032
2009    2       3       0.1133071       31.76046
2009    2       4       0.1084312       30.80159
2009    2       5       0.1038481       29.85154
2009    2       6       0.09962069      29.01165
2009    2       7       0.100848        29.32642
2009    3       0       0.1005674       29.31232
2009    3       1       0.1045889       30.25906
2009    3       2       0.1159172       32.79513
2009    3       3       0.1201598       33.68396
2009    3       4       0.1608054       42.00729
2009    3       5       0.310094        70.61027
2009    3       6       0.3989838       85.80925
2009    3       7       0.4307138       90.90898
2009    4       0       0.4188675       89.13486
2009    4       1       0.4324004       91.34245
2009    4       2       0.4279135       90.6828
2009    4       3       0.4191168       89.37775
2009    4       4       0.423766        90.1912
2009    4       5       0.3978672       85.9624
2009    4       6       0.3838249       83.40769
2009    4       7       0.3850375       83.45682
2009    5       0       0.3446076       76.6471
2009    5       1       0.3379848       75.44466
2009    5       2       0.3006976       68.95932
2009    5       3       0.2894285       66.91255
2009    5       4       0.2793993       65.04647
2009    5       5       0.2624846       61.92411
2009    5       6       0.2736017       63.87602
2009    5       7       0.3014361       68.84788
2009    6       0       0.294774        67.6231
2009    6       1       0.2780618       64.6293
2009    6       2       0.2769316       64.31961
2009    6       3       0.2802648       64.84549
2009    6       4       0.2718862       63.43013
2009    6       5       0.2483843       59.32856
2009    6       6       0.2226805       54.3855
2009    6       7       0.209489        51.81209
2009    7       0       0.2104797       51.99354
2009    7       1       0.2030464       50.61577
2009    7       2       0.2100936       51.89356
2009    7       3       0.2322085       56.15
2009    7       4       0.2670743       62.53777
2009    7       5       0.2706702       63.26471
2009    7       6       0.2560313       60.62142
2009    7       7       0.2461569       58.76109
2009    8       0       0.2278623       55.69599
2009    8       1       0.2175839       53.90385
2009    8       2       0.1989974       50.32603
2009    8       3       0.1924226       48.83858
2009    8       4       0.1781099       45.8406
2009    8       5       0.1588885       41.94692
2009    8       6       0.2065601       51.30683
2009    8       7       0.2723197       63.7066
2009    9       0       0.2831426       65.86993
2009    9       1       0.283654        66.10617
2009    9       2       0.2919955       67.56685
2009    9       3       0.2788315       65.1358
2009    9       4       0.2520305       60.14962
2009    9       5       0.2359869       57.08387
2009    9       6       0.2359502       56.95916
2009    9       7       0.2271894       55.28322
2009    10      0       0.2141754       52.87344
2009    10      1       0.2074288       51.58426
2009    10      2       0.2015667       50.36804
2009    10      3       0.1932708       48.739
2009    10      4       0.1810758       46.42262
2009    10      5       0.1748495       45.22569
2009    10      6       0.1744523       45.11841
2009    10      7       0.1700854       44.22462
2009    11      0       0.1547004       41.10037
2009    11      1       0.1352604       37.0415
2009    11      2       0.1096993       31.58749
2009    11      3       0.1062821       30.86257
2009    11      4       0.1211558       34.10229
2009    11      5       0.1182587       33.48022
2009    11      6       0.1078791       31.22496
2009    11      7       0.1059774       30.80526
2009    12      0       0.109267        31.49735
2009    12      1       0.1091855       31.4436
2009    12      2       0.1109415       31.77723
2009    12      3       0.1145443       32.53133
2009    12      4       0.1116028       31.93607
2009    12      5       0.1143384       32.49037
2009    12      6       0.1300138       35.79839
2009    12      7       0.1396667       37.88244
2009    13      0       0.1500322       40.03954
2009    13      1       0.1551917       41.03292
2009    13      2       0.13997         37.93042
2009    13      3       0.1321859       36.35426
2009    13      4       0.1414013       38.26854
2009    13      5       0.1708527       44.21558
2009    13      6       0.1986082       49.71136
2009    13      7       0.205847        51.26539
2009    14      0       0.1955902       49.47274
2009    14      1       0.17012         44.54649
2009    14      2       0.1545377       41.35622
2009    14      3       0.1648155       43.34174
2009    14      4       0.1859085       47.49977
2009    14      5       0.2321213       56.5294
2009    14      6       0.3134181       71.25019
2009    14      7       0.1958678       49.56618
2009    15      0       0.1951592       49.23491
2009    15      1       0.1836647       46.89236
2009    15      2       0.1896271       48.00891
2009    15      3       0.2120157       52.28
2009    15      4       0.2213005       54.10346
2009    15      5       0.2314011       55.99241
2009    15      6       0.2305269       55.79449
2009    15      7       0.2517236       59.71832
2009    16      0       0.2796889       64.9198
2009    16      1       0.2967073       68.05273
2009    16      2       0.312187        70.77574
2009    16      3       0.2904555       66.86145
2009    16      4       0.3029552       69.09725
2009    16      5       0.2782693       64.68521
2009    16      6       0.2768781       64.43557
2009    16      7       0.2443462       58.37309
2009    17      0       0.2093346       51.84765
2009    17      1       0.1728811       44.67381
2009    17      2       0.1616972       42.32528
2009    17      3       0.1562076       41.10541
2009    17      4       0.1332002       36.35062
2009    17      5       0.1253704       34.67714
2009    17      6       0.1444018       38.46799
2009    17      7       0.1892582       47.48354
2009    18      0       0.2104952       51.82716
2009    18      1       0.3050288       69.44422
2009    18      2       0.2755542       64.31723
2009    18      3       0.2848319       65.99417
2009    18      4       0.246871        58.89445
2009    18      5       0.2501953       59.46872
2009    18      6       0.2225188       54.13744
2009    18      7       0.1989242       49.31779
2009    19      0       0.1791032       45.3525
2009    19      1       0.1556754       40.6464
2009    19      2       0.1417364       37.76689
2009    19      3       0.1402786       37.39294
2009    19      4       0.1348215       36.10317
2009    19      5       0.1278259       34.61376
2009    19      6       0.1198269       32.92455
2009    19      7       0.1061269       30.05689
2009    20      0       0.09203091      27.13525
2009    20      1       0.08797831      26.2746
2009    20      2       0.09620025      28.03195
2009    20      3       0.1053994       30.00011
2009    20      4       0.119426        32.94583
2009    20      5       0.1351288       36.12789
2009    20      6       0.1370513       36.49371
2009    20      7       0.133349        35.76875
2009    21      0       0.1249185       34.06469
2009    21      1       0.1129462       31.57545
2009    21      2       0.100094        28.85415
2009    21      3       0.08981405      26.64948
2009    21      4       0.08441046      25.4531
2009    21      5       0.08072644      24.63201
2009    21      6       0.08318794      25.16104
2009    21      7       0.08770541      26.09321
2009    22      0       0.09059559      26.67802
2009    22      1       0.090853        26.72587
2009    22      2       0.08573347      25.58783
2009    22      3       0.08063272      24.46615
2009    22      4       0.07854425      24.00891
2009    22      5       0.07830491      23.95563
2009    22      6       0.08244425      24.86163
2009    22      7       0.08881984      26.28042
2009    23      0       0.09484383      27.64168
2009    23      1       0.1038577       29.59399
2009    23      2       0.1120097       31.35912
2009    23      3       0.1224834       33.57734
2009    23      4       0.1370129       36.53924
2009    23      5       0.1415401       37.54507
2009    23      6       0.1420004       37.65576
2009    23      7       0.1404976       37.30292
2009    24      0       0.1397031       37.14583
2009    24      1       0.1445059       38.10739
2009    24      2       0.1420651       37.59164
2009    24      3       0.1362494       36.45156
2009    24      4       0.1332817       35.82075
2009    24      5       0.1314924       35.41974
2009    24      6       0.1300024       35.13901
2009    24      7       0.126147        34.36882
2009    25      0       0.1289692       34.97791
2009    25      1       0.1272805       34.66581
2009    25      2       0.1251213       34.26278
2009    25      3       0.1284344       34.92997
2009    25      4       0.1318025       35.59775
2009    25      5       0.1344513       36.14539
2009    25      6       0.1399459       37.26423
2009    25      7       0.1494802       39.21082
2009    26      0       0.1534976       39.99621
2009    26      1       0.1586384       40.9804
2009    26      2       0.1604276       41.31077
2009    26      3       0.1579073       40.84435
2009    26      4       0.1509687       39.48628
2009    26      5       0.1444468       38.21628
2009    26      6       0.1472811       38.80523
2009    26      7       0.1567502       40.68167
2009    27      0       0.1650642       42.29696
2009    27      1       0.16987         43.18858
2009    27      2       0.1674254       42.72654
2009    27      3       0.1633531       41.89853
2009    27      4       0.1556074       40.38371
2009    27      5       0.1418081       37.75368
2009    27      6       0.1336351       36.10323
2009    27      7       0.136198        36.55798
2009    28      0       0.1422476       37.81128
2009    28      1       0.1399004       37.37269
2009    28      2       0.1309741       35.48799
2009    28      3       0.1252726       34.27246
2009    28      4       0.1148557       32.13393
2009    28      5       0.114065        31.98721
2009    28      6       0.1213668       33.53812
2009    28      7       0.1292612       35.17482
2010    1       0       0.5091737       105.2322
2010    1       1       0.5090667       105.7345
2010    1       2       0.6489736       124.9301
2010    1       3       0.7237201       134.2812
2010    1       4       0.6208797       121.1085
2010    1       5       0.554596        111.692
2010    1       6       0.5019557       103.9624
2010    1       7       0.5025371       104.0432
2010    2       0       0.4936089       102.5381
2010    2       1       0.5855395       115.4114
2010    2       2       0.5650496       112.4848
2010    2       3       0.4836645       100.9465
2010    2       4       0.4400766       94.50873
2010    2       5       0.4268357       92.28669
2010    2       6       0.4541821       96.65192
2010    2       7       0.4663508       98.52523
2010    3       0       0.4347713       93.2521
2010    3       1       0.4484335       95.28255
2010    3       2       0.4135054       89.94282
2010    3       3       0.3812553       84.65446
2010    3       4       0.3839878       85.00088
2010    3       5       0.3937864       86.56857
2010    3       6       0.4004302       87.81111
2010    3       7       0.4115597       89.6657
2010    4       0       0.4163879       90.52169
2010    4       1       0.3828726       85.20232
2010    4       2       0.3853889       85.44501
2010    4       3       0.3962497       87.22127
2010    4       4       0.3383629       77.73564
2010    4       5       0.3037857       71.39444
2010    4       6       0.2919671       69.00104
2010    4       7       0.2996772       70.39959
2010    5       0       0.2845605       67.75388
2010    5       1       0.26752         64.53007
2010    5       2       0.2757661       65.81695
2010    5       3       0.2958336       69.34733
2010    5       4       0.3079991       71.45954
2010    5       5       0.300888        69.8807
2010    5       6       0.2916355       68.08742
2010    5       7       0.2882142       67.42421
2010    6       0       0.2729129       64.37247
2010    6       1       0.2097795       52.12741
2010    6       2       0.1370915       37.16594
2010    6       3       0.1020716       29.62363
2010    6       4       0.1278004       35.39157
2010    6       5       0.1627297       42.68033
2010    6       6       0.1527386       40.55208
2010    6       7       0.1593973       41.9431
2010    7       0       0.1858821       47.03323
2010    7       1       0.2048852       50.58127
2010    7       2       0.2111944       51.76018
2010    7       3       0.1964217       48.94527
2010    7       4       0.1928573       48.34951
2010    7       5       0.2426756       58.10746
2010    7       6       0.3341002       74.57526
2010    7       7       0.3281348       73.55182
2010    8       0       0.2574904       61.08047
2010    8       1       0.2443503       58.93154
2010    8       2       0.3280744       74.42863
2010    8       3       0.3246064       73.70277
2010    8       4       0.3154996       71.98163
2010    8       5       0.2771849       65.12864
2010    8       6       0.2821722       66.12161
2010    8       7       0.2771793       65.38044
2010    9       0       0.2691472       64.12608
2010    9       1       0.2853805       67.43773
2010    9       2       0.4105343       89.02012
2010    9       3       0.5472234       109.2785
2010    9       4       0.5752953       113.2111
2010    9       5       0.571015        112.6975
2010    9       6       0.5260816       106.3371
2010    9       7       0.5158475       104.8866
2010    10      0       0.5100265       103.9387
2010    10      1       0.4791338       99.08971
2010    10      2       0.4620443       96.31932
2010    10      3       0.453471        94.69635
2010    10      4       0.425466        90.10175
2010    10      5       0.2149963       52.92256
2010    10      6       0.1207403       33.61437
2010    10      7       0.1035887       29.88504
2010    11      0       0.1181351       33.04143
2010    11      1       0.1171137       32.7968
2010    11      2       0.1365026       36.85455
2010    11      3       0.162923        42.2388
2010    11      4       0.173812        44.36747
2010    11      5       0.1752713       44.61718
2010    11      6       0.1784516       45.27208
2010    11      7       0.1771522       45.01159
2010    12      0       0.1813351       45.80617
2010    12      1       0.2086638       51.24496
2010    12      2       0.2391009       57.18963
2010    12      3       0.2152137       52.64882
2010    12      4       0.2074579       51.30955
2010    12      5       0.2361741       57.07135
2010    12      6       0.2274029       55.35854
2010    12      7       0.2696446       63.13163
2010    13      0       0.3026496       69.01171
2010    13      1       0.2597088       61.08584
2010    13      2       0.2061581       50.78307
2010    13      3       0.1551524       40.55421
2010    13      4       0.1423349       37.8725
2010    13      5       0.1304948       35.38888
2010    13      6       0.1193739       32.98869
2010    13      7       0.1129516       31.60325
2010    14      0       0.1164862       32.32974
2010    14      1       0.1244745       33.98998
2010    14      2       0.1312739       35.40304
2010    14      3       0.1285393       34.89099
2010    14      4       0.1249148       34.15752
2010    14      5       0.1244505       34.04588
2010    14      6       0.1233752       33.81735
2010    14      7       0.1240995       33.98352
2010    15      0       0.1266449       34.54869
2010    15      1       0.124967        34.1498
2010    15      2       0.123233        33.77145
2010    15      3       0.1266242       34.47704
2010    15      4       0.1293152       35.0243
2010    15      5       0.1327913       35.77315
2010    15      6       0.1653046       42.40538
2010    15      7       0.1628807       41.94278
2010    16      0       0.1580158       41.01294
2010    16      1       0.1716237       43.72083
2010    16      2       0.1840927       46.23945
2010    16      3       0.1839159       46.22145
2010    16      4       0.1745378       44.33525
2010    16      5       0.1689864       43.21726
2010    16      6       0.2086988       51.13952
2010    16      7       0.2494776       58.95617
2010    17      0       0.2742313       63.62575
2010    17      1       0.2837721       65.39176
2010    17      2       0.2501987       59.0424
2010    17      3       0.1906116       47.35037
2010    17      4       0.1527983       39.62599
2010    17      5       0.1451597       37.99824
2010    17      6       0.1408311       37.09833
2010    17      7       0.1331117       35.52754
2010    18      0       0.1250925       33.93329
2010    18      1       0.112127        31.2763
2010    18      2       0.1079998       30.47438
2010    18      3       0.1071077       30.33134
2010    18      4       0.1079873       30.46223
2010    18      5       0.1087175       30.59474
2010    18      6       0.1260414       34.22572
2010    18      7       0.1250171       34.01565
2010    19      0       0.1332732       35.72163
2010    19      1       0.1470216       38.54475
2010    19      2       0.1609231       41.36675
2010    19      3       0.1729822       43.84692
2010    19      4       0.1847647       46.24255
2010    19      5       0.2020063       49.68176
2010    19      6       0.2216734       53.56899
2010    19      7       0.2447441       58.01897
2010    20      0       0.253182        59.63611
2010    20      1       0.2502291       59.12617
2010    20      2       0.2474208       58.56131
2010    20      3       0.2516613       59.37178
2010    20      4       0.2512239       59.42225
2010    20      5       0.2678386       62.48397
2010    20      6       0.2588228       60.79969
2010    20      7       0.2500615       59.24995
2010    21      0       0.2517925       59.55995
2010    21      1       0.2608348       61.19617
2010    21      2       0.2809096       64.91023
2010    21      3       0.2822942       65.20303
2010    21      4       0.2854936       65.66719
2010    21      5       0.2546222       59.88989
2010    21      6       0.2321011       55.6122
2010    21      7       0.2377117       56.72006
2010    22      0       0.232329        55.80788
2010    22      1       0.2147381       52.33222
2010    22      2       0.1943438       48.25449
2010    22      3       0.1591896       41.23051
2010    22      4       0.1443313       38.18978
2010    22      5       0.1262776       34.46011
2010    22      6       0.111807        31.31203
2010    22      7       0.105242        29.84086
2010    23      0       0.1043053       29.68863
2010    23      1       0.1058027       30.05355
2010    23      2       0.1059986       30.06866
2010    23      3       0.1081032       30.49933
2010    23      4       0.1126237       31.46827
2010    23      5       0.1160016       32.2303
2010    23      6       0.1132679       31.71688
2010    23      7       0.1053733       30.07921
2010    24      0       0.09613085      28.12679
2010    24      1       0.09169442      27.09707
2010    24      2       0.1104649       31.049
2010    24      3       0.1471177       38.75271
2010    24      4       0.1784779       45.06551
2010    24      5       0.1887147       47.07185
2010    24      6       0.1913427       47.58825
2010    24      7       0.1898453       47.27974
2010    25      0       0.1846106       46.2388
2010    25      1       0.1734585       44.00596
2010    25      2       0.1624636       41.79127
2010    25      3       0.1480571       38.89413
2010    25      4       0.1266468       34.52707
2010    25      5       0.1096197       30.92485
2010    25      6       0.1121475       31.4944
2010    25      7       0.1216888       33.5246
2010    26      0       0.1360164       36.51198
2010    26      1       0.1523932       39.79385
2010    26      2       0.1614494       41.62974
2010    26      3       0.1714812       43.71493
2010    26      4       0.1804156       45.49216
2010    26      5       0.1788904       45.11855
2010    26      6       0.175561        44.42588
2010    26      7       0.1654168       42.34271
2010    27      0       0.1663435       42.50939
2010    27      1       0.1588438       40.9854
2010    27      2       0.1549929       40.21172
2010    27      3       0.1534378       39.8919
2010    27      4       0.1528106       39.77621
2010    27      5       0.151314        39.52273
2010    27      6       0.1469072       38.62443
2010    27      7       0.1439274       37.9896
2010    28      0       0.1415615       37.54327
2010    28      1       0.1406635       37.34799
2010    28      2       0.1328623       35.68905
2010    28      3       0.1234389       33.71827
2010    28      4       0.127502        34.50965
2010    28      5       0.1405696       37.16102
2010    28      6       0.1494385       38.98842
2010    28      7       0.15725         40.61769
2011    1       0       0.1031916       29.17191
2011    1       1       0.1110024       30.80733
2011    1       2       0.1261504       33.95056
2011    1       3       0.1526923       39.36897
2011    1       4       0.1597257       40.767
2011    1       5       0.1581772       40.46065
2011    1       6       0.1566784       40.17903
2011    1       7       0.1557131       39.99732
2011    2       0       0.153886        39.63933
2011    2       1       0.149169        38.69533
2011    2       2       0.1464725       38.13061
2011    2       3       0.1441705       37.67405
2011    2       4       0.1401275       36.92699
2011    2       5       0.1518822       39.33517
2011    2       6       0.1671355       42.42848
2011    2       7       0.1730205       43.63115
2011    3       0       0.1757545       44.29275
2011    3       1       0.1701879       43.30504
2011    3       2       0.1505666       39.52398
2011    3       3       0.1620666       41.89253
2011    3       4       0.1662504       42.69377
2011    3       5       0.1780561       44.85441
2011    3       6       0.1773183       44.67296
2011    3       7       0.168915        42.93802
2011    4       0       0.1622371       41.53157
2011    4       1       0.169056        42.88876
2011    4       2       0.1692001       42.92469
2011    4       3       0.1656818       42.27369
2011    4       4       0.1570837       40.54518
2011    4       5       0.1465894       38.38465
2011    4       6       0.1401472       37.00522
2011    4       7       0.1363648       36.18809
2011    5       0       0.1390962       36.68321
2011    5       1       0.1419254       37.15637
2011    5       2       0.1324303       35.17365
2011    5       3       0.1293809       34.48811
2011    5       4       0.1293116       34.40058
2011    5       5       0.132687        35.06844
2011    5       6       0.1311203       34.75335
2011    5       7       0.1278868       34.14681
2011    6       0       0.1305728       34.70126
2011    6       1       0.1352278       35.63231
2011    6       2       0.1350497       35.56488
2011    6       3       0.1367856       35.93785
2011    6       4       0.1378149       36.23033
2011    6       5       0.1341993       35.56676
2011    6       6       0.1276244       34.26496
2011    6       7       0.1264082       34.04018
2011    7       0       0.1093455       30.48379
2011    7       1       0.1092363       30.44294
2011    7       2       0.1217403       32.94799
2011    7       3       0.1204717       32.56218
2011    7       4       0.1247416       33.3269
2011    7       5       0.1221056       32.77853
2011    7       6       0.1148915       31.23922
2011    7       7       0.1134446       30.93834
2011    8       0       0.113893        31.1276
2011    8       1       0.1249535       33.41896
2011    8       2       0.1319106       34.87925
2011    8       3       0.1418282       36.99139
2011    8       4       0.1498883       38.64599
2011    8       5       0.1607138       40.90295
2011    8       6       0.1687918       42.79909
2011    8       7       0.1827692       45.72873
2011    9       0       0.1968765       48.53747
2011    9       1       0.208012        50.78156
2011    9       2       0.2231656       53.95255
2011    9       3       0.2256216       54.60217
2011    9       4       0.198651        49.68278
2011    9       5       0.2001087       50.20209
2011    9       6       0.2298993       55.78083
2011    9       7       0.2270368       55.24622
2011    10      0       0.2407612       57.64291
2011    10      1       0.2311272       55.54752
2011    10      2       0.2096302       51.08823
2011    10      3       0.1860597       46.34969
2011    10      4       0.1569327       40.37511
2011    10      5       0.1575089       40.59745
2011    10      6       0.1688642       43.00176
2011    10      7       0.1763779       44.59232
2011    11      0       0.1585047       41.34609
2011    11      1       0.186613        47.11104
2011    11      2       0.2974801       68.51253
2011    11      3       0.3471953       77.27888
2011    11      4       0.3319734       74.85382
2011    11      5       0.3019906       69.94999
2011    11      6       0.3103923       70.98014
2011    11      7       0.3196047       72.19534
2011    12      0       0.290359        66.69073
2011    12      1       0.2451738       58.17518
2011    12      2       0.2311703       55.47508
2011    12      3       0.2157875       52.56184
2011    12      4       0.2058376       50.77429
2011    12      5       0.2035611       50.47521
2011    12      6       0.2088443       51.58212
2011    12      7       0.260421        61.22666
2011    13      0       0.2545228       59.99887
2011    13      1       0.2502851       59.12219
2011    13      2       0.2546087       60.18083
2011    13      3       0.2408987       57.90136
2011    13      4       0.2812299       65.28732
2011    13      5       0.2859006       66.07988
2011    13      6       0.2914757       66.88264
2011    13      7       0.2587809       60.83677
2011    14      0       0.2461038       58.42164
2011    14      1       0.2404939       57.1439
2011    14      2       0.2236374       53.84408
2011    14      3       0.2203528       53.23808
2011    14      4       0.2355768       56.25625
2011    14      5       0.2437257       57.79918
2011    14      6       0.2348393       55.97501
2011    14      7       0.2264244       54.34729
2011    15      0       0.2178978       52.90855
2011    15      1       0.2136936       52.20079
2011    15      2       0.2253157       54.30187
2011    15      3       0.2406172       57.11915
2011    15      4       0.2445948       57.88739
2011    15      5       0.2558473       60.0133
2011    15      6       0.232294        55.37555
2011    15      7       0.2091358       50.81423
2011    16      0       0.1849008       46.1312
2011    16      1       0.1755853       44.31259
2011    16      2       0.1781758       44.77514
2011    16      3       0.1820214       45.56173
2011    16      4       0.2018487       49.46279
2011    16      5       0.2021539       49.54618
2011    16      6       0.1950898       48.17126
2011    16      7       0.1840395       46.00214
2011    17      0       0.1744371       44.07913
2011    17      1       0.1834986       45.86038
2011    17      2       0.2004146       49.11188
2011    17      3       0.2013738       49.3161
2011    17      4       0.1750661       44.27736
2011    17      5       0.1461546       38.60094
2011    17      6       0.158085        41.0039
2011    17      7       0.1728168       43.95635
2011    18      0       0.2059447       50.4561
2011    18      1       0.2232473       53.72579
2011    18      2       0.2404267       56.99949
2011    18      3       0.2416497       57.31928
2011    18      4       0.2833379       65.25299
2011    18      5       0.3032091       68.8513
2011    18      6       0.3181691       71.34727
2011    18      7       0.3169338       71.13
2011    19      0       0.3252793       72.5959
2011    19      1       0.291416        66.58974
2011    19      2       0.2744833       63.63763
2011    19      3       0.316038        71.00704
2011    19      4       0.2346232       56.20741
2011    19      5       0.1760535       45.2115
2011    19      6       0.1799538       46.03437
2011    19      7       0.1842269       46.67153
2011    20      0       0.1981862       49.58763
2011    20      1       0.2441245       58.5382
2011    20      2       0.2640282       62.03839
2011    20      3       0.2528207       59.53739
2011    20      4       0.209954        51.22163
2011    20      5       0.1079907       30.55363
2011    20      6       0.08667533      25.84972
2011    20      7       0.07402933      23.01363
2011    21      0       0.07999674      24.2961
2011    21      1       0.09127157      26.68885
2011    21      2       0.1107736       30.79052
2011    21      3       0.1325908       35.32595
2011    21      4       0.148108        38.61727
2011    21      5       0.1598844       41.07677
2011    21      6       0.1615425       41.47392
2011    21      7       0.1936297       48.04228
2011    22      0       0.2169052       52.57119
2011    22      1       0.2160533       52.30547
2011    22      2       0.2017809       49.53427
2011    22      3       0.1969395       48.52882
2011    22      4       0.1796122       45.06334
2011    22      5       0.1735106       43.75183
2011    22      6       0.1825083       45.53995
2011    22      7       0.189388        46.92246
2011    23      0       0.1908452       47.20486
2011    23      1       0.1879137       46.62435
2011    23      2       0.1860255       46.25568
2011    23      3       0.200634        49.30003
2011    23      4       0.1906481       47.19519
2011    23      5       0.2039731       50.08161
2011    23      6       0.1938591       48.14119
2011    23      7       0.1907806       47.44213
2011    24      0       0.2079377       50.76866
2011    24      1       0.2294775       54.92027
2011    24      2       0.2813828       64.99801
2011    24      3       0.2774128       64.21666
2011    24      4       0.2768218       64.04938
2011    24      5       0.2730995       63.3199
2011    24      6       0.2613503       61.00255
2011    24      7       0.2313504       55.35915
2011    25      0       0.2467649       58.26414
2011    25      1       0.2281239       54.70864
2011    25      2       0.2206879       53.16878
2011    25      3       0.2098216       51.04364
2011    25      4       0.1962686       48.42004
2011    25      5       0.1949664       48.22765
2011    25      6       0.1952946       48.31157
2011    25      7       0.1934322       47.94859
2011    26      0       0.1719173       43.51529
2011    26      1       0.1529429       39.6039
2011    26      2       0.1477475       38.56797
2011    26      3       0.1467341       38.323
2011    26      4       0.1501393       38.97875
2011    26      5       0.1566095       40.27157
2011    26      6       0.1467711       38.1677
2011    26      7       0.1362693       35.97104
2011    27      0       0.132088        35.05867
2011    27      1       0.1212951       32.78534
2011    27      2       0.1079851       30.06583
2011    27      3       0.08899248      26.08988
2011    27      4       0.08252678      24.76846
2011    27      5       0.08210479      24.66451
2011    27      6       0.1335394       35.58412
2011    27      7       0.2381596       56.67804
2011    28      0       0.2843242       65.42476
2011    28      1       0.3356834       74.78774
2011    28      2       0.2802674       64.7206
2011    28      3       0.2623534       61.34012
2011    28      4       0.1853091       46.29041
2011    28      5       0.1617867       41.50693
2011    28      6       0.1542305       39.85677
2011    28      7       0.1442181       37.74502
2012    1       0       0.1103467       31.48463
2012    1       1       0.1383594       37.39524
2012    1       2       0.1523257       40.2012
2012    1       3       0.1606529       41.85402
2012    1       4       0.1614362       41.98335
2012    1       5       0.1742177       44.48142
2012    1       6       0.1945176       48.5143
2012    1       7       0.2042936       50.43183
2012    2       0       0.1945537       48.34757
2012    2       1       0.1724498       43.75767
2012    2       2       0.1674557       42.77456
2012    2       3       0.1629695       41.94976
2012    2       4       0.1575842       40.89141
2012    2       5       0.1432785       38.06454
2012    2       6       0.1415859       37.83372
2012    2       7       0.1084035       30.89578
2012    3       0       0.1208123       33.37012
2012    3       1       0.2338747       56.2653
2012    3       2       0.3404753       76.01384
2012    3       3       0.3665885       80.32822
2012    3       4       0.3032417       69.05511
2012    3       5       0.2580652       60.53417
2012    3       6       0.221003        53.31975
2012    3       7       0.1911501       47.35608
2012    4       0       0.1597494       40.95214
2012    4       1       0.1459913       38.18231
2012    4       2       0.144627        37.79574
2012    4       3       0.1385557       36.49482
2012    4       4       0.1457965       38.12107
2012    4       5       0.1658732       42.35146
2012    4       6       0.1708669       43.25952
2012    4       7       0.1608929       41.1835
2012    5       0       0.1622042       41.51633
2012    5       1       0.1642431       41.98324
2012    5       2       0.1341893       35.98621
2012    5       3       0.1175342       32.57882
2012    5       4       0.1280075       34.86192
2012    5       5       0.1448998       38.50491
2012    5       6       0.1613155       42.10831
2012    5       7       0.2140435       52.49367
2012    6       0       0.3641494       79.43969
2012    6       1       0.4421736       92.42438
2012    6       2       0.4131341       88.13267
2012    6       3       0.3810237       83.01187
2012    6       4       0.3485764       77.96156
2012    6       5       0.3815352       83.43258
2012    6       6       0.5061954       103.0389
2012    6       7       0.50298         102.7592
2012    7       0       0.5122612       103.7094
2012    7       1       0.3494885       77.25203
2012    7       2       0.3078398       69.96816
2012    7       3       0.3152359       71.04576
2012    7       4       0.2883748       66.2886
2012    7       5       0.2550764       60.28476
2012    7       6       0.2504843       59.38866
2012    7       7       0.2452089       58.36414
2012    8       0       0.2347303       56.55949
2012    8       1       0.2362203       56.97212
2012    8       2       0.2445369       58.61514
2012    8       3       0.2517953       59.96905
2012    8       4       0.2588822       61.28516
2012    8       5       0.2669074       62.79725
2012    8       6       0.2841923       65.86734
2012    8       7       0.2867941       66.2595
2012    9       0       0.2710159       63.27776
2012    9       1       0.255985        60.39028
2012    9       2       0.2547248       59.99375
2012    9       3       0.2576362       60.35024
2012    9       4       0.2349477       56.07586
2012    9       5       0.2274747       54.5975
2012    9       6       0.2140213       51.88506
2012    9       7       0.2119644       51.44228
2012    10      0       0.2172392       52.44041
2012    10      1       0.1961576       48.29386
2012    10      2       0.1886849       46.77671
2012    10      3       0.181292        45.29625
2012    10      4       0.1728881       43.66441
2012    10      5       0.1724576       43.5831
2012    10      6       0.1636129       41.77373
2012    10      7       0.1642186       41.87527
2012    11      0       0.1540086       39.75947
2012    11      1       0.1476793       38.42052
2012    11      2       0.1418871       37.21818
2012    11      3       0.1277372       34.32246
2012    11      4       0.1075427       30.16246
2012    11      5       0.1099361       30.61409
2012    11      6       0.1388971       36.73406
2012    11      7       0.1996441       49.07129
2012    12      0       0.2126985       51.66541
2012    12      1       0.2090038       51.04976
2012    12      2       0.1770999       44.44045
2012    12      3       0.157978        40.48019
2012    12      4       0.1512507       39.14057
2012    12      5       0.1539153       39.73032
2012    12      6       0.1497856       38.89009
2012    12      7       0.149126        38.73831
2012    13      0       0.1419731       37.36558
2012    13      1       0.1330749       35.55064
2012    13      2       0.1442739       37.75845
2012    13      3       0.1779096       44.52005
2012    13      4       0.1865979       46.35992
2012    13      5       0.1455836       38.44999
2012    13      6       0.1242358       34.18467
2012    13      7       0.1514179       39.88656
2012    14      0       0.2922353       67.28898
2012    14      1       0.651418        123.1617
2012    14      2       0.771218        138.3757
2012    14      3       0.8016719       142.6886
2012    14      4       0.7935237       141.978
2012    14      5       0.7531789       137.1278
2012    14      6       0.6624768       125.9521
2012    14      7       0.6172014       119.2842
2012    15      0       0.5546536       110.25
2012    15      1       0.4651017       96.83012
2012    15      2       0.3688476       80.90093
2012    15      3       0.2995214       68.52751
2012    15      4       0.2955651       67.54066
2012    15      5       0.2873078       65.9293
2012    15      6       0.2588591       60.75893
2012    15      7       0.2223325       53.67923
2012    16      0       0.2021834       49.60373
2012    16      1       0.1694915       43.03147
2012    16      2       0.1591158       40.91157
2012    16      3       0.1563732       40.33564
2012    16      4       0.1560897       40.30074
2012    16      5       0.1541191       39.89004
2012    16      6       0.1569031       40.42562
2012    16      7       0.1577153       40.57293
2012    17      0       0.1507499       39.19044
2012    17      1       0.1525022       39.54627
2012    17      2       0.1628011       41.55844
2012    17      3       0.1645022       41.88272
2012    17      4       0.1625696       41.46696
2012    17      5       0.1571217       40.33228
2012    17      6       0.152063        39.25911
2012    17      7       0.1480036       38.40328
2012    18      0       0.1442617       37.62942
2012    18      1       0.1409267       36.94442
2012    18      2       0.1393624       36.66184
2012    18      3       0.1464733       38.08713
2012    18      4       0.1430151       37.35833
2012    18      5       0.131837        35.00455
2012    18      6       0.1256905       33.70048
2012    18      7       0.1265113       33.88893
2012    19      0       0.1298356       34.62408
2012    19      1       0.1313288       34.92103
2012    19      2       0.1295165       34.53417
2012    19      3       0.126708        33.98473
2012    19      4       0.1225331       33.15316
2012    19      5       0.115923        31.78094
2012    19      6       0.1132311       31.17839
2012    19      7       0.1123794       30.99328
2012    20      0       0.1152416       31.56082
2012    20      1       0.1146607       31.43998
2012    20      2       0.1146606       31.49476
2012    20      3       0.1079353       30.12954
2012    20      4       0.09752997      27.9537
2012    20      5       0.09110118      26.56807
2012    20      6       0.08693346      25.68102
2012    20      7       0.084168        25.11365
2012    21      0       0.08317061      24.92319
2012    21      1       0.08474047      25.26207
2012    21      2       0.08082004      24.43459
2012    21      3       0.07924451      24.11857
2012    21      4       0.07713083      23.67432
2012    21      5       0.07683388      23.61681
2012    21      6       0.0837324       25.11777
2012    21      7       0.09265449      27.07273
2012    22      0       0.1008503       28.90567
2012    22      1       0.10995         30.86774
2012    22      2       0.1268          34.38723
2012    22      3       0.1466957       38.46744
2012    22      4       0.1655583       42.33443
2012    22      5       0.1743263       44.13838
2012    22      6       0.1691399       43.02605
2012    22      7       0.1634813       41.85548
2012    23      0       0.1597738       41.10996
2012    23      1       0.1595411       41.03758
2012    23      2       0.161196        41.3993
2012    23      3       0.1656564       42.33626
2012    23      4       0.1676093       42.73091
2012    23      5       0.1661144       42.40502
2012    23      6       0.1522121       39.59342
2012    23      7       0.1296542       35.10438
2012    24      0       0.1017015       29.21249
2012    24      1       0.0991963       28.62679
2012    24      2       0.09881446      28.53906
2012    24      3       0.09420337      27.45762
2012    24      4       0.1037898       29.47753
2012    24      5       0.1409643       37.29491
2012    24      6       0.1600575       41.19619
2012    24      7       0.1497917       39.02966
2012    25      0       0.1439236       37.68609
2012    25      1       0.1343176       35.65353
2012    25      2       0.1294881       34.71204
2012    25      3       0.1291757       34.6736
2012    25      4       0.1324238       35.35215
2012    25      5       0.1364604       36.21629
2012    25      6       0.1395879       36.88715
2012    25      7       0.1406332       37.07944
2012    26      0       0.1356555       36.04451
2012    26      1       0.127704        34.41608
2012    26      2       0.1303142       34.98844
2012    26      3       0.1238883       33.64617
2012    26      4       0.1170609       32.17814
2012    26      5       0.110805        30.85999
2012    26      6       0.1074259       30.14159
2012    26      7       0.1119735       31.16709
2012    27      0       0.1079883       30.31066
2012    27      1       0.105477        29.7708
2012    27      2       0.1072532       30.14494
2012    27      3       0.1096727       30.63869
2012    27      4       0.1096594       30.65483
2012    27      5       0.1066794       29.99804
2012    27      6       0.105455        29.72487
2012    27      7       0.1054102       29.74932
2012    28      0       0.104054        29.42876
2012    28      1       0.1014481       28.83365
2012    28      2       0.09664019      27.81942
2012    28      3       0.09257173      26.98268
2012    28      4       0.08971098      26.40921
2012    28      5       0.08318756      25.01701
2012    28      6       0.07869108      24.02629
2012    28      7       0.07494318      23.20663
2012    29      0       0.07030849      22.15783
2012    29      1       0.06906241      21.86044
2012    29      2       0.06909189      21.86314
2012    29      3       0.06691821      21.40091
2012    29      4       0.06882417      21.81017
2012    29      5       0.07766077      23.7052
2012    29      6       0.1022899       28.98635
2012    29      7       0.112169        30.9954
2013    1       0       0.1274814       34.53385
2013    1       1       0.1441635       37.91588
2013    1       2       0.1514716       39.3764
2013    1       3       0.1548876       40.15091
2013    1       4       0.1667213       42.70594
2013    1       5       0.1900886       47.47151
2013    1       6       0.198908        49.37694
2013    1       7       0.2289707       54.83204
2013    2       0       0.2571566       60.2954
2013    2       1       0.2715545       63.02182
2013    2       2       0.2719136       63.10896
2013    2       3       0.2639467       61.68333
2013    2       4       0.2427685       57.73508
2013    2       5       0.234986        56.30221
2013    2       6       0.2166706       52.81567
2013    2       7       0.2250089       54.32914
2013    3       0       0.2247855       54.38144
2013    3       1       0.2233822       54.18236
2013    3       2       0.2188134       53.27163
2013    3       3       0.2177608       53.03826
2013    3       4       0.2175263       53.02414
2013    3       5       0.2068982       50.90684
2013    3       6       0.2108617       51.65881
2013    3       7       0.2293196       55.30736
2013    4       0       0.2420636       57.60759
2013    4       1       0.2214032       53.53802
2013    4       2       0.210036        51.30354
2013    4       3       0.1931867       47.92789
2013    4       4       0.1813027       45.54952
2013    4       5       0.1747234       44.21674
2013    4       6       0.1716108       43.59631
2013    4       7       0.1565052       40.50805
2013    5       0       0.1497657       39.0503
2013    5       1       0.1476912       38.58209
2013    5       2       0.1441073       37.90224
2013    5       3       0.1442186       37.99141
2013    5       4       0.1550591       40.18011
2013    5       5       0.1433741       37.99457
2013    5       6       0.1309098       35.70563
2013    5       7       0.122047        33.90351
2013    6       0       0.1967463       49.22646
2013    6       1       0.5437185       108.8136
2013    6       2       0.4985093       102.5126
2013    6       3       0.537935        108.6097
2013    6       4       0.509872        104.2331
2013    6       5       0.4004578       86.75048
2013    6       6       0.3611213       79.53925
2013    6       7       0.3194085       72.16691
2013    7       0       0.2614217       61.66356
2013    7       1       0.2344233       56.65036
2013    7       2       0.2189872       53.41738
2013    7       3       0.216981        52.86355
2013    7       4       0.1887898       47.41167
2013    7       5       0.1948698       48.58764
2013    7       6       0.1850314       46.57956
2013    7       7       0.1719812       43.91117
2013    8       0       0.1544829       40.27954
2013    8       1       0.1497481       39.22196
2013    8       2       0.1412636       37.44909
2013    8       3       0.1336883       35.941
2013    8       4       0.1299844       35.20714
2013    8       5       0.1224557       33.76826
2013    8       6       0.1351902       36.454
2013    8       7       0.1524174       40.1549
2013    9       0       0.1791704       45.54038
2013    9       1       0.2786988       64.76303
2013    9       2       0.3808113       82.85673
2013    9       3       0.4708704       97.48561
2013    9       4       0.4049396       87.14724
2013    9       5       0.2539807       60.86007
2013    9       6       0.1950834       49.07214
2013    9       7       0.21415         52.62968
2013    10      0       0.1945352       48.86584
2013    10      1       0.2262446       54.99139
2013    10      2       0.3405372       75.98469
2013    10      3       0.4476142       93.927
2013    10      4       0.3401788       75.88819
2013    10      5       0.2689205       62.93122
2013    10      6       0.2715321       63.31991
2013    10      7       0.297556        68.06198
2013    11      0       0.304057        69.30647
2013    11      1       0.2800481       64.97708
2013    11      2       0.2674422       62.5846
2013    11      3       0.2402996       57.42714
2013    11      4       0.2196625       53.47121
2013    11      5       0.2309624       55.59179
2013    11      6       0.2393235       57.21406
2013    11      7       0.2276289       54.95696
2013    12      0       0.2198773       53.3334
2013    12      1       0.2074135       50.88648
2013    12      2       0.1987462       49.15661
2013    12      3       0.1821017       45.90869
2013    12      4       0.1693254       43.31326
2013    12      5       0.1730106       43.95766
2013    12      6       0.1763192       44.64519
2013    12      7       0.173954        44.16821
2013    13      0       0.1674778       42.78718
2013    13      1       0.1683597       43.01972
2013    13      2       0.1746941       44.33684
2013    13      3       0.1809723       45.67339
2013    13      4       0.1806445       45.6739
2013    13      5       0.1843346       46.35654
2013    13      6       0.1851189       46.4037
2013    13      7       0.1756308       44.55724
2013    14      0       0.1722475       43.92426
2013    14      1       0.1781575       45.02624
2013    14      2       0.1805737       45.47229
2013    14      3       0.1739629       44.13149
2013    14      4       0.1673218       42.84225
2013    14      5       0.1546562       40.31799
2013    14      6       0.1635807       42.07066
2013    14      7       0.1760314       44.5678
2013    15      0       0.1700407       43.29517
2013    15      1       0.1709333       43.47531
2013    15      2       0.1702519       43.40743
2013    15      3       0.1623615       41.9863
2013    15      4       0.1433225       38.06851
2013    15      5       0.1388747       37.16677
2013    15      6       0.1298089       35.22837
2013    15      7       0.1438207       38.20085
2013    16      0       0.1476535       39.00387
2013    16      1       0.1611609       41.70265
2013    16      2       0.1683083       43.13288
2013    16      3       0.163573        42.26107
2013    16      4       0.128776        35.21199
2013    16      5       0.1146642       32.27817
2013    16      6       0.1435745       38.43211
2013    16      7       0.1826397       46.42747
2013    17      0       0.192268        48.39889
2013    17      1       0.1873532       47.42312
2013    17      2       0.1969053       49.32407
2013    17      3       0.1973774       49.3015
2013    17      4       0.1913223       48.00365
2013    17      5       0.1691498       43.42638
2013    17      6       0.1861127       46.75692
2013    17      7       0.2140848       52.40604
2013    18      0       0.2264918       54.93793
2013    18      1       0.2348688       56.73466
2013    18      2       0.2241336       54.78096
2013    18      3       0.2091907       51.83955
2013    18      4       0.1936403       48.76534
2013    18      5       0.2137536       52.51263
2013    18      6       0.2284867       55.31034
2013    18      7       0.2945894       67.6104
2013    19      0       0.3036588       69.17103
2013    19      1       0.2623714       61.50078
2013    19      2       0.2346595       56.23181
2013    19      3       0.2448074       58.0675
2013    19      4       0.2202554       53.4347
2013    19      5       0.161881        42.13441
2013    19      6       0.1095948       31.1905
2013    19      7       0.1012451       29.36587
2013    20      0       0.1127774       31.87975
2013    20      1       0.1433626       38.2543
2013    20      2       0.2117738       51.93968
2013    20      3       0.2059735       51.04135
2013    20      4       0.2294737       55.59208
2013    20      5       0.2557442       60.39058
2013    20      6       0.2630461       61.77613
2013    20      7       0.2812352       65.26402
2013    21      0       0.2308609       55.83057
2013    21      1       0.2242159       54.52795
2013    21      2       0.2662125       62.21108
2013    21      3       0.2699222       62.6882
2013    21      4       0.19961         49.33866
2013    21      5       0.1697905       43.4965
2013    21      6       0.1334694       35.97379
2013    21      7       0.1120966       31.45171
2013    22      0       0.0862877       25.93427
2013    22      1       0.07866515      24.26752
2013    22      2       0.07756035      24.05191
2013    22      3       0.08182897      24.97542
2013    22      4       0.0934327       27.42158
2013    22      5       0.1268906       34.47483
2013    22      6       0.1731746       44.0262
2013    22      7       0.1964272       48.71631
2013    23      0       0.153228        39.95979
2013    23      1       0.1210096       33.2952
2013    23      2       0.1089081       30.73894
2013    23      3       0.1691929       43.29217
2013    23      4       0.2750351       63.63703
2013    23      5       0.2842647       65.31435
2013    23      6       0.2910083       66.60898
2013    23      7       0.2883391       66.13926
2013    24      0       0.2745502       63.64463
2013    24      1       0.2650457       61.84546
2013    24      2       0.2335885       55.83482
2013    24      3       0.1818562       45.73738
2013    24      4       0.154535        40.33185
2013    24      5       0.1168942       32.58692
2013    24      6       0.09508998      27.88938
2013    24      7       0.09143309      27.04437
2013    25      0       0.09585347      27.96643
2013    25      1       0.09973644      28.91341
2013    25      2       0.1033633       29.80419
2013    25      3       0.1221402       33.98647
2013    25      4       0.1351121       36.70547
2013    25      5       0.1428159       38.377
2013    25      6       0.1320489       36.17253
2013    25      7       0.1552042       40.95059
2013    26      0       0.1816513       46.41465
2013    26      1       0.2528445       59.97389
2013    26      2       0.3047118       69.43701
2013    26      3       0.3380696       75.53749
2013    26      4       0.3710775       81.32792
2013    26      5       0.3639323       80.23273
2013    26      6       0.3650897       80.29773
2013    26      7       0.3365108       75.16205
2013    27      0       0.2738962       63.60543
2013    27      1       0.1921234       47.80973
2013    27      2       0.1554713       40.38239
2013    27      3       0.1348175       36.12606
2013    27      4       0.1357915       36.24126
2013    27      5       0.1284597       34.67996
2013    27      6       0.1398296       36.88007
2013    27      7       0.1385689       36.64898
2013    28      0       0.1445307       37.90428
2013    28      1       0.1486347       38.73481
2013    28      2       0.1523246       39.52294
2013    28      3       0.1631118       41.72219
2013    28      4       0.1695433       43.07707
2013    28      5       0.1644558       42.03988
2013    28      6       0.155997        40.32606
2013    28      7       0.1453015       38.12203
2014    1       0       0.2094125       51.50709
2014    1       1       0.1780278       45.41838
2014    1       2       0.1723249       44.36935
2014    1       3       0.1599469       41.78019
2014    1       4       0.1393652       37.37613
2014    1       5       0.1399182       37.33708
2014    1       6       0.1600744       41.41293
2014    1       7       0.1706532       43.52551
2014    2       0       0.1723789       43.91017
2014    2       1       0.1873847       46.93754
2014    2       2       0.1952917       48.49293
2014    2       3       0.1903336       47.46541
2014    2       4       0.1813181       45.63512
2014    2       5       0.1831868       46.01094
2014    2       6       0.1627188       41.83657
2014    2       7       0.1520383       39.68851
2014    3       0       0.1496346       39.30277
2014    3       1       0.1445552       38.29639
2014    3       2       0.1410951       37.5781
2014    3       3       0.1366515       36.69496
2014    3       4       0.1334288       36.01431
2014    3       5       0.1336754       36.03518
2014    3       6       0.1357008       36.48431
2014    3       7       0.1348944       36.36235
2014    4       0       0.1268776       34.7369
2014    4       1       0.1181784       32.94036
2014    4       2       0.115662        32.43714
2014    4       3       0.1118986       31.64851
2014    4       4       0.1227424       34.0142
2014    4       5       0.1279393       35.10394
2014    4       6       0.163082        42.24199
2014    4       7       0.2460535       58.36249
2014    5       0       0.2506339       59.16752
2014    5       1       0.2311358       55.64964
2014    5       2       0.219433        53.42893
2014    5       3       0.217754        53.07492
2014    5       4       0.2238135       54.27309
2014    5       5       0.2323645       55.83236
2014    5       6       0.2383111       57.05465
2014    5       7       0.2484004       59.04234
2014    6       0       0.2413251       57.65641
2014    6       1       0.2370553       56.86016
2014    6       2       0.2352564       56.37976
2014    6       3       0.2222197       53.85992
2014    6       4       0.2150551       52.55623
2014    6       5       0.2084118       51.35002
2014    6       6       0.2074669       51.14915
2014    6       7       0.1960159       48.95755
2014    7       0       0.180585        46.06948
2014    7       1       0.18156         46.33805
2014    7       2       0.1869935       47.41867
2014    7       3       0.1805837       46.14938
2014    7       4       0.1692801       43.90638
2014    7       5       0.1531004       40.61822
2014    7       6       0.1349459       36.85178
2014    7       7       0.1168528       32.98221
2014    8       0       0.1125024       31.99595
2014    8       1       0.1104751       31.52174
2014    8       2       0.1081083       31.00687
2014    8       3       0.1123487       31.90795
2014    8       4       0.1221261       33.90496
2014    8       5       0.141859        37.98197
2014    8       6       0.1671466       43.10362
2014    8       7       0.1712883       43.82708
2014    9       0       0.1813643       45.71712
2014    9       1       0.1917949       47.73099
2014    9       2       0.2034005       49.99149
2014    9       3       0.2185726       52.92152
2014    9       4       0.2047275       50.23126
2014    9       5       0.1908255       47.49311
2014    9       6       0.1965703       48.50669
2014    9       7       0.1866263       46.48571
2014    10      0       0.1661333       42.52817
2014    10      1       0.161704        41.71266
2014    10      2       0.1693768       43.09923
2014    10      3       0.1678108       42.63677
2014    10      4       0.1595887       41.04155
2014    10      5       0.1594166       41.01692
2014    10      6       0.1650054       42.0394
2014    10      7       0.1612723       41.28388
2014    11      0       0.1598392       40.95376
2014    11      1       0.1561486       40.16595
2014    11      2       0.1696044       42.95089
2014    11      3       0.1724954       43.43846
2014    11      4       0.1701026       42.94843
2014    11      5       0.1673896       42.40799
2014    11      6       0.1667611       42.21315
2014    11      7       0.1642194       41.6729
2014    12      0       0.155659        39.92646
2014    12      1       0.1385602       36.42131
2014    12      2       0.1295333       34.62262
2014    12      3       0.1217897       33.10055
2014    12      4       0.1091547       30.5768
2014    12      5       0.09774899      28.18293
2014    12      6       0.09833102      28.30376
2014    12      7       0.0993559       28.51852
2014    13      0       0.1071611       30.20924
2014    13      1       0.1251016       34.00395
2014    13      2       0.1258262       34.20841
2014    13      3       0.1278236       34.71556
2014    13      4       0.1232756       33.84355
2014    13      5       0.1251802       34.19448
2014    13      6       0.1626843       41.97742
2014    13      7       0.2295149       55.34342
2014    14      0       0.2037189       50.29926
2014    14      1       0.1977837       48.99431
2014    14      2       0.2149113       52.35994
2014    14      3       0.2294098       55.06934
2014    14      4       0.2063402       50.64237
2014    14      5       0.1898405       47.42159
2014    14      6       0.1735954       44.12686
2014    14      7       0.1626638       41.93387
2014    15      0       0.1681996       43.04621
2014    15      1       0.1696693       43.29973
2014    15      2       0.1651502       42.3269
2014    15      3       0.1631312       41.88701
2014    15      4       0.1671437       42.69992
2014    15      5       0.1693436       43.18186
2014    15      6       0.1673539       42.88322
2014    15      7       0.163461        42.0891
2014    16      0       0.1763288       44.55733
2014    16      1       0.1763517       44.48613
2014    16      2       0.1870636       46.66544
2014    16      3       0.1954733       48.36764
2014    16      4       0.2282306       54.60947
2014    16      5       0.2022438       49.56517
2014    16      6       0.1942329       48.10405
2014    16      7       0.188847        46.99037
2014    17      0       0.1817179       45.43358
2014    17      1       0.1692296       42.95037
2014    17      2       0.1673911       42.62855
2014    17      3       0.1674726       42.60854
2014    17      4       0.1677402       42.59647
2014    17      5       0.1725945       43.57706
2014    17      6       0.1778634       44.55717
2014    17      7       0.1786934       44.71433
2014    18      0       0.2073414       50.58009
2014    18      1       0.2421255       57.41762
2014    18      2       0.2579051       60.51628
2014    18      3       0.2625549       61.56681
2014    18      4       0.2593495       60.90037
2014    18      5       0.2601755       61.01608
2014    18      6       0.2673721       62.42911
2014    18      7       0.27864         64.48359
2014    19      0       0.2652896       62.20842
2014    19      1       0.2743248       63.92822
2014    19      2       0.2610349       61.58713
2014    19      3       0.1993574       49.85034
2014    19      4       0.1242189       34.06564
2014    19      5       0.1048935       29.77832
2014    19      6       0.1076079       30.31031
2014    19      7       0.1230194       33.47255
2014    20      0       0.1258461       34.16442
2014    20      1       0.1146806       31.96386
2014    20      2       0.1120222       31.45849
2014    20      3       0.1128533       31.58237
2014    20      4       0.1165343       32.33114
2014    20      5       0.1316851       35.58194
2014    20      6       0.162799        42.01736
2014    20      7       0.1706928       43.52005
2014    21      0       0.1796687       45.29648
2014    21      1       0.1860064       46.53897
2014    21      2       0.1960375       48.48236
2014    21      3       0.2006481       49.41511
2014    21      4       0.1910888       47.54327
2014    21      5       0.1845985       46.21024
2014    21      6       0.1853533       46.35232
2014    21      7       0.1899946       47.24491
2014    22      0       0.1905898       47.28149
2014    22      1       0.177252        44.54814
2014    22      2       0.1670316       42.51171
2014    22      3       0.1587713       40.82054
2014    22      4       0.1631224       41.71535
2014    22      5       0.1672314       42.56425
2014    22      6       0.1587618       40.86189
2014    22      7       0.1470559       38.61437
2014    23      0       0.1381725       36.80903
2014    23      1       0.1452392       38.23392
2014    23      2       0.141972        37.49304
2014    23      3       0.140166        37.04697
2014    23      4       0.1393257       36.76634
2014    23      5       0.1382769       36.47673
2014    23      6       0.1310892       34.93452
2014    23      7       0.1360689       36.00024
2014    24      0       0.1291222       34.52994
2014    24      1       0.1206331       32.71943
2014    24      2       0.1130023       31.12779
2014    24      3       0.1036286       29.1754
2014    24      4       0.09815856      27.98849
2014    24      5       0.07958986      24.0193
2014    24      6       0.07830056      23.76222
2014    24      7       0.07770443      23.53583
2014    25      0       0.07710662      23.37479
2014    25      1       0.08033485      24.08748
2014    25      2       0.08459061      24.9996
2014    25      3       0.08838942      25.772
2014    25      4       0.09012023      26.23029
2014    25      5       0.09272448      26.81687
2014    25      6       0.08817717      25.97362
2014    25      7       0.09037599      26.56974
2014    26      0       0.1088707       30.6059
2014    26      1       0.1846565       46.28063
2014    26      2       0.2189942       53.08553
2014    26      3       0.2360312       56.57913
2014    26      4       0.2426022       57.64659
2014    26      5       0.2204105       53.51282
2014    26      6       0.1834732       46.32327
2014    26      7       0.1306666       35.51543
2014    27      0       0.113881        32.01985
2014    27      1       0.1142418       32.14283
2014    27      2       0.1245792       34.30236
2014    27      3       0.2000143       49.79646
2014    27      4       0.2420097       57.92283
2014    27      5       0.2449228       58.5652
2014    27      6       0.2369331       57.0463
2014    27      7       0.260174        61.43913
2014    28      0       0.263987        62.11043
2014    28      1       0.2877979       66.43626
2014    28      2       0.2484187       59.02099
2014    28      3       0.2609344       61.37726
2014    28      4       0.2791828       64.76265
2014    28      5       0.2864807       66.08913
2014    28      6       0.2861811       65.98836
2014    28      7       0.2807275       65.00326
2015    1       0       0.1287768       34.51165
2015    1       1       0.1235823       33.41082
2015    1       2       0.1144717       31.52563
2015    1       3       0.1104862       30.65551
2015    1       4       0.1087782       30.25642
2015    1       5       0.1069058       29.84868
2015    1       6       0.1018533       28.80243
2015    1       7       0.1005652       28.57954
2015    2       0       0.1024145       28.98502
2015    2       1       0.1002656       28.67509
2015    2       2       0.1126754       31.36212
2015    2       3       0.1417238       37.46444
2015    2       4       0.2049217       50.39486
2015    2       5       0.4173282       88.80324
2015    2       6       0.5634712       111.4276
2015    2       7       0.6431847       122.4706
2015    3       0       0.5781594       113.9785
2015    3       1       0.6089933       118.2928
2015    3       2       0.58226         114.9254
2015    3       3       0.5829147       115.3104
2015    3       4       0.5868431       116.1012
2015    3       5       0.6439545       123.0447
2015    3       6       0.5686324       111.9932
2015    3       7       0.3870944       83.81111
2015    4       0       0.2968593       67.94543
2015    4       1       0.2072429       50.86887
2015    4       2       0.1334134       35.80827
2015    4       3       0.09939214      28.7309
2015    4       4       0.103686        29.4723
2015    4       5       0.1280262       34.57236
2015    4       6       0.1966814       48.57798
2015    4       7       0.2046706       50.27684
2015    5       0       0.1904123       47.35218
2015    5       1       0.1670053       42.55891
2015    5       2       0.1565667       40.45132
2015    5       3       0.1389258       36.80333
2015    5       4       0.1260948       34.09012
2015    5       5       0.1127278       31.33701
2015    5       6       0.1026955       29.24179
2015    5       7       0.1005501       28.76624
2015    6       0       0.09979846      28.53776
2015    6       1       0.0990073       28.31362
2015    6       2       0.1008939       28.69267
2015    6       3       0.1107711       30.73414
2015    6       4       0.1008151       28.51159
2015    6       5       0.09225631      26.63496
2015    6       6       0.08862142      25.8186
2015    6       7       0.08555415      25.14727
2015    7       0       0.08466213      25.01618
2015    7       1       0.082086        24.59516
2015    7       2       0.08417474      25.18239
2015    7       3       0.126693        34.18261
2015    7       4       0.1576629       40.60773
2015    7       5       0.226506        54.21206
2015    7       6       0.2668502       62.2007
2015    7       7       0.2650098       62.01351
2015    8       0       0.2022241       49.83587
2015    8       1       0.1593173       41.05482
2015    8       2       0.1443495       37.95529
2015    8       3       0.1457098       38.21521
2015    8       4       0.1599339       41.02867
2015    8       5       0.1813153       45.37806
2015    8       6       0.1889437       46.98659
2015    8       7       0.177252        44.63022
2015    9       0       0.1536944       39.75411
2015    9       1       0.1323228       35.22016
2015    9       2       0.1224389       33.10053
2015    9       3       0.1191234       32.35613
2015    9       4       0.1114036       30.65441
2015    9       5       0.104152        29.08204
2015    9       6       0.1001432       28.18901
2015    9       7       0.0967179       27.42326
2015    10      0       0.09504426      27.05182
2015    10      1       0.09318889      26.62974
2015    10      2       0.09158244      26.26635
2015    10      3       0.0883776       25.57554
2015    10      4       0.08895056      25.71898
2015    10      5       0.08731681      25.34623
2015    10      6       0.08564573      24.95462
2015    10      7       0.08479123      24.77175
2015    11      0       0.0847787       24.78359
2015    11      1       0.07902768      23.50235
2015    11      2       0.07706014      23.08923
2015    11      3       0.07589542      22.86693
2015    11      4       0.07629048      22.94829
2015    11      5       0.07709215      23.10042
2015    11      6       0.07761761      23.20788
2015    11      7       0.07757813      23.20598
2015    12      0       0.07636231      22.93688
2015    12      1       0.07415331      22.45403
2015    12      2       0.07263681      22.14063
2015    12      3       0.07643017      22.96033
2015    12      4       0.08326403      24.43811
2015    12      5       0.08355336      24.48401
2015    12      6       0.08510197      24.82955
2015    12      7       0.08296467      24.37587
2015    13      0       0.08160817      24.04548
2015    13      1       0.08210734      24.15938
2015    13      2       0.08053132      23.87003
2015    13      3       0.07843936      23.43985
2015    13      4       0.08289503      24.40095
2015    13      5       0.0925401       26.49601
2015    13      6       0.1013524       28.41361
2015    13      7       0.1045555       29.09898
2015    14      0       0.1018083       28.55077
2015    14      1       0.1080673       29.99008
2015    14      2       0.1062989       29.67358
2015    14      3       0.09292113      26.89376
2015    14      4       0.08335557      24.84475
2015    14      5       0.08859048      25.94583
2015    14      6       0.1029254       28.98571
2015    14      7       0.131685        35.08503
2015    15      0       0.1538749       39.74047
2015    15      1       0.159949        41.06408
2015    15      2       0.1605125       41.18428
2015    15      3       0.1571734       40.54016
2015    15      4       0.1524355       39.61925
2015    15      5       0.1434391       37.78709
2015    15      6       0.1390353       36.83506
2015    15      7       0.1399738       36.95599
2015    16      0       0.1395588       36.74537
2015    16      1       0.1423293       37.29063
2015    16      2       0.1507457       39.01455
2015    16      3       0.1512712       39.07272
2015    16      4       0.1488819       38.58602
2015    16      5       0.1471839       38.22835
2015    16      6       0.1481122       38.41772
2015    16      7       0.1459031       37.93884
2015    17      0       0.1289506       34.38516
2015    17      1       0.1275156       34.10922
2015    17      2       0.1238462       33.36729
2015    17      3       0.1216852       32.99771
2015    17      4       0.1220506       33.16618
2015    17      5       0.1255972       33.93576
2015    17      6       0.1236993       33.60185
2015    17      7       0.1085589       30.56756
2015    18      0       0.09072557      26.81828
2015    18      1       0.07978828      24.37648
2015    18      2       0.07657656      23.64114
2015    18      3       0.08436724      25.35562
2015    18      4       0.09107095      26.79091
2015    18      5       0.09161083      26.94633
2015    18      6       0.09344018      27.37351
2015    18      7       0.09602197      27.94855
2015    19      0       0.09862675      28.48475
2015    19      1       0.1003431       28.81769
2015    19      2       0.1008078       28.89772
2015    19      3       0.1019071       29.1011
2015    19      4       0.1005998       28.79344
2015    19      5       0.1014215       28.87893
2015    19      6       0.1014655       28.8552
2015    19      7       0.1030515       29.17135
2015    20      0       0.1059821       29.7498
2015    20      1       0.1087679       30.31021
2015    20      2       0.1089751       30.35628
2015    20      3       0.1097015       30.48692
2015    20      4       0.1114141       30.85041
2015    20      5       0.1105463       30.65944
2015    20      6       0.1106107       30.6093
2015    20      7       0.1104851       30.53622
2015    21      0       0.1090228       30.22853
2015    21      1       0.1065723       29.65437
2015    21      2       0.1053023       29.35051
2015    21      3       0.1038044       29.00363
2015    21      4       0.1030655       28.78669
2015    21      5       0.09965327      28.03836
2015    21      6       0.1001246       28.18725
2015    21      7       0.09772326      27.6823
2015    22      0       0.09832965      27.78206
2015    22      1       0.09984077      28.05577
2015    22      2       0.1059209       29.44166
2015    22      3       0.1095924       30.23825
2015    22      4       0.1093149       30.15686
2015    22      5       0.1054886       29.37162
2015    22      6       0.1016048       28.59742
2015    22      7       0.1002395       28.31731
2015    23      0       0.1009529       28.46114
2015    23      1       0.1007373       28.41045
2015    23      2       0.1035106       28.96153
2015    23      3       0.1059809       29.44058
2015    23      4       0.1066578       29.56338
2015    23      5       0.1059299       29.38964
2015    23      6       0.1044098       29.03655
2015    23      7       0.1041551       28.97766
2015    24      0       0.1029505       28.7151
2015    24      1       0.1004213       28.16667
2015    24      2       0.09942642      28.01686
2015    24      3       0.09248745      26.53186
2015    24      4       0.0943318       26.92757
2015    24      5       0.1020375       28.54561
2015    24      6       0.1071204       29.64609
2015    24      7       0.1098986       30.2765
2015    25      0       0.106664        29.57862
2015    25      1       0.1070718       29.67534
2015    25      2       0.1072213       29.728
2015    25      3       0.1071902       29.73004
2015    25      4       0.1083762       30.0462
2015    25      5       0.1149272       31.45761
2015    25      6       0.1206934       32.67969
2015    25      7       0.1214863       32.71374
2015    26      0       0.1255361       33.61661
2015    26      1       0.1286329       34.325
2015    26      2       0.1308028       34.81105
2015    26      3       0.1380362       36.4331
2015    26      4       0.1516501       39.28086
2015    26      5       0.1586844       40.7223
2015    26      6       0.1583465       40.64721
2015    26      7       0.1649045       41.99166
2015    27      0       0.176884        44.3286
2015    27      1       0.183302        45.66797
2015    27      2       0.179159        44.90263
2015    27      3       0.1708813       43.1909
2015    27      4       0.1695555       42.96303
2015    27      5       0.166773        42.37284
2015    27      6       0.1541836       39.81812
2015    27      7       0.1595575       40.8469
2015    28      0       0.1684696       42.70822
2015    28      1       0.1563267       40.18486
2015    28      2       0.1609955       41.11103
2015    28      3       0.1591987       40.76754
2015    28      4       0.1470207       38.2396
2015    28      5       0.1443772       37.71596
2015    28      6       0.1451331       37.98373
2015    28      7       0.1440322       37.72565
2016    1       0       0.140876        37.11163
2016    1       1       0.144742        37.92434
2016    1       2       0.1411302       37.21573
2016    1       3       0.1428755       37.54701
2016    1       4       0.1465231       38.28099
2016    1       5       0.1509579       39.211
2016    1       6       0.166685        42.45562
2016    1       7       0.1678471       42.76178
2016    2       0       0.1581792       40.73926
2016    2       1       0.1542652       39.95178
2016    2       2       0.1508434       39.26721
2016    2       3       0.1397133       36.98841
2016    2       4       0.1373749       36.53756
2016    2       5       0.1446801       38.0004
2016    2       6       0.1542867       39.90623
2016    2       7       0.156088        40.40154
2016    3       0       0.1469271       38.63516
2016    3       1       0.1383652       36.86292
2016    3       2       0.1407793       37.3369
2016    3       3       0.1634715       41.7927
2016    3       4       0.1710367       43.25058
2016    3       5       0.1717094       43.38279
2016    3       6       0.1712259       43.26298
2016    3       7       0.1707062       43.15098
2016    4       0       0.1735969       43.79146
2016    4       1       0.1744317       43.95067
2016    4       2       0.173912        43.86784
2016    4       3       0.1643947       41.96524
2016    4       4       0.1591289       40.94146
2016    4       5       0.1562455       40.39894
2016    4       6       0.1558569       40.34583
2016    4       7       0.1597063       41.18591
2016    5       0       0.1564429       40.58607
2016    5       1       0.1464076       38.54846
2016    5       2       0.1456011       38.39414
2016    5       3       0.1432934       37.94511
2016    5       4       0.1375937       36.82717
2016    5       5       0.1329649       35.89271
2016    5       6       0.1323605       35.73799
2016    5       7       0.1331591       35.8824
2016    6       0       0.1325995       35.73878
2016    6       1       0.1311608       35.375
2016    6       2       0.1298773       35.06807
2016    6       3       0.1317101       35.40953
2016    6       4       0.1348184       36.05824
2016    6       5       0.1419681       37.54271
2016    6       6       0.154465        39.99997
2016    6       7       0.1610441       41.3209
2016    7       0       0.1509984       39.29625
2016    7       1       0.1317824       35.36634
2016    7       2       0.1400506       37.08287
2016    7       3       0.1629055       41.7041
2016    7       4       0.1787734       44.93922
2016    7       5       0.1694201       42.93501
2016    7       6       0.1675649       42.53327
2016    7       7       0.1701163       43.03601
2016    8       0       0.1636152       41.68428
2016    8       1       0.15923         40.7484
2016    8       2       0.1568073       40.23255
2016    8       3       0.1495345       38.704
2016    8       4       0.1492793       38.66641
2016    8       5       0.1415247       37.04474
2016    8       6       0.1406073       36.82655
2016    8       7       0.1412059       37.01533
2016    9       0       0.146307        38.07615
2016    9       1       0.1586451       40.63982
2016    9       2       0.1579172       40.56865
2016    9       3       0.1678748       42.61458
2016    9       4       0.1771513       44.45124
2016    9       5       0.1560973       40.12147
2016    9       6       0.1462367       38.08826
2016    9       7       0.136987        36.03321
2016    10      0       0.1252422       33.60306
2016    10      1       0.1223593       32.94852
2016    10      2       0.1196126       32.36931
2016    10      3       0.1120175       30.7408
2016    10      4       0.1026572       28.68922
2016    10      5       0.09404332      26.87155
2016    10      6       0.09175148      26.38032
2016    10      7       0.09202979      26.47137
2016    11      0       0.08917583      25.88932
2016    11      1       0.08623157      25.27952
2016    11      2       0.08981117      26.04574
2016    11      3       0.09882903      27.97424
2016    11      4       0.1023098       28.72376
2016    11      5       0.1012311       28.52414
2016    11      6       0.09761639      27.79763
2016    11      7       0.09650125      27.61028
2016    12      0       0.09130735      26.51011
2016    12      1       0.08717361      25.66191
2016    12      2       0.08391447      25.00309
2016    12      3       0.08709502      25.67636
2016    12      4       0.08743331      25.72963
2016    12      5       0.09793117      28.01284
2016    12      6       0.1211429       32.9671
2016    12      7       0.1581839       40.70064
2016    13      0       0.1996755       49.09069
2016    13      1       0.2136262       51.91482
2016    13      2       0.2282008       54.74849
2016    13      3       0.2622721       61.23875
2016    13      4       0.2686216       62.44119
2016    13      5       0.2796159       64.42878
2016    13      6       0.2458637       58.10261
2016    13      7       0.2045208       50.18868
2016    14      0       0.2382485       56.79983
2016    14      1       0.1847705       46.58259
2016    14      2       0.1622208       41.98506
2016    14      3       0.1406726       37.56376
2016    14      4       0.1393392       37.22487
2016    14      5       0.1450015       38.44138
2016    14      6       0.1829788       45.99649
2016    14      7       0.222982        53.61333
2016    15      0       0.2300212       55.04211
2016    15      1       0.2539866       59.69193
2016    15      2       0.2271991       54.56878
2016    15      3       0.2196827       53.15893
2016    15      4       0.1910849       47.62835
2016    15      5       0.183353        46.20621
2016    15      6       0.171534        44.01173
2016    15      7       0.1622858       42.05143
2016    16      0       0.1981144       48.99116
2016    16      1       0.2023586       49.8262
2016    16      2       0.1851944       46.38115
2016    16      3       0.1963673       48.55098
2016    16      4       0.2133836       51.76872
2016    16      5       0.2030813       49.78055
2016    16      6       0.2035073       49.96428
2016    16      7       0.2092225       51.01493
2016    17      0       0.2039641       49.94064
2016    17      1       0.1956157       48.2648
2016    17      2       0.1866512       46.44772
2016    17      3       0.1766398       44.50609
2016    17      4       0.1754138       44.36176
2016    17      5       0.1821507       45.68433
2016    17      6       0.1860839       46.49306
2016    17      7       0.1830824       46.00728
2016    18      0       0.1850198       46.40696
2016    18      1       0.185772        46.55108
2016    18      2       0.1854917       46.49605
2016    18      3       0.1949276       48.19713
2016    18      4       0.1784742       45.05425
2016    18      5       0.1764807       44.68439
2016    18      6       0.192714        47.71508
2016    18      7       0.1922654       47.55729
2016    19      0       0.1878872       46.64176
2016    19      1       0.1765061       44.34962
2016    19      2       0.1773968       44.50964
2016    19      3       0.1692068       42.85304
2016    19      4       0.1693375       42.86449
2016    19      5       0.1666361       42.29009
2016    19      6       0.1604106       40.95424
2016    19      7       0.1494953       38.73947
2016    20      0       0.1477618       38.40027
2016    20      1       0.1484404       38.49554
2016    20      2       0.1523001       39.34778
2016    20      3       0.1584299       40.66427
2016    20      4       0.1635846       41.71557
2016    20      5       0.1660716       42.17382
2016    20      6       0.1697834       42.93509
2016    20      7       0.1683879       42.69444
2016    21      0       0.1736901       43.67388
2016    21      1       0.164273        41.7971
2016    21      2       0.152407        39.44783
2016    21      3       0.1413627       37.20061
2016    21      4       0.1200147       32.80086
2016    21      5       0.1315645       35.14034
2016    21      6       0.1620414       41.42233
2016    21      7       0.2201654       52.98416
2016    22      0       0.2623569       61.0724
2016    22      1       0.278989        64.22327
2016    22      2       0.3042638       68.8736
2016    22      3       0.3093394       69.8394
2016    22      4       0.2940806       67.1518
2016    22      5       0.2854774       65.63986
2016    22      6       0.290432        66.6937
2016    22      7       0.3164356       71.56088
2016    23      0       0.3403817       75.80433
2016    23      1       0.3399615       75.75576
2016    23      2       0.3291203       74.23322
2016    23      3       0.3639076       80.52322
2016    23      4       0.3923905       85.33429
2016    23      5       0.3991823       86.53907
2016    23      6       0.283887        66.0897
2016    23      7       0.2201961       53.88648
2016    24      0       0.1874703       47.4644
2016    24      1       0.2256477       55.03241
2016    24      2       0.25265         60.43175
2016    24      3       0.2511419       59.80889
2016    24      4       0.2917352       67.24714
2016    24      5       0.3209808       72.70784
2016    24      6       0.3532731       78.48567
2016    24      7       0.3414827       76.42434
2016    25      0       0.2567943       61.09398
2016    25      1       0.2263754       55.40474
2016    25      2       0.2610807       61.91241
2016    25      3       0.2325918       56.45226
2016    25      4       0.2039249       51.04131
2016    25      5       0.1836974       47.13637
2016    25      6       0.2013411       50.54321
2016    25      7       0.2119818       52.54847
2016    26      0       0.2030205       50.60217
2016    26      1       0.2042759       50.7224
2016    26      2       0.2149285       52.73322
2016    26      3       0.2099469       51.7301
2016    26      4       0.2135226       52.45016
2016    26      5       0.2355859       56.8606
2016    26      6       0.238414        57.61729
2016    26      7       0.2182559       53.86492
2016    27      0       0.1990202       50.0686
2016    27      1       0.1938926       48.94487
2016    27      2       0.1905499       48.26373
2016    27      3       0.2350635       56.89872
2016    27      4       0.2303412       55.74999
2016    27      5       0.1497077       39.75884
2016    27      6       0.234869        56.34253
2016    27      7       0.2707857       62.81155
2016    28      0       0.2738858       63.35599
2016    28      1       0.2589282       60.57379
2016    28      2       0.2674123       62.22509
2016    28      3       0.2855156       65.65427
2016    28      4       0.2841411       65.39226
2016    28      5       0.298291        68.02318
2016    28      6       0.3034547       69.06089
2016    28      7       0.3012701       68.62667
2016    29      0       0.3008458       68.59771
2016    29      1       0.2821095       65.29665
2016    29      2       0.2814259       65.22181
2016    29      3       0.2745935       63.95573
2016    29      4       0.26496         62.23648
2016    29      5       0.2669602       62.52092
2016    29      6       0.2729948       63.49677
2016    29      7       0.2602016       61.17599
2017    1       0       0.3672728       80.53692
2017    1       1       0.3540982       78.28918
2017    1       2       0.3369379       75.49262
2017    1       3       0.3290495       74.13736
2017    1       4       0.3231938       73.02857
2017    1       5       0.3142177       71.42099
2017    1       6       0.3072491       70.28304
2017    1       7       0.314308        71.54892
2017    2       0       0.3117979       71.08264
2017    2       1       0.296364        68.2721
2017    2       2       0.301669        69.07872
2017    2       3       0.3190112       72.02055
2017    2       4       0.3018401       68.99803
2017    2       5       0.2984935       68.3978
2017    2       6       0.278001        64.75306
2017    2       7       0.2550107       60.72534
2017    3       0       0.2502216       59.82401
2017    3       1       0.254114        60.3815
2017    3       2       0.2608822       61.60398
2017    3       3       0.2685275       63.02914
2017    3       4       0.3002139       68.72965
2017    3       5       0.3257364       73.19055
2017    3       6       0.2849055       65.98806
2017    3       7       0.3157245       71.37643
2017    4       0       0.3720082       81.02104
2017    4       1       0.3700559       80.86378
2017    4       2       0.3644189       80.11326
2017    4       3       0.3573823       78.90158
2017    4       4       0.355           78.40301
2017    4       5       0.3499728       77.5612
2017    4       6       0.3595895       79.25258
2017    4       7       0.3546692       78.54065
2017    5       0       0.3650551       80.3613
2017    5       1       0.3746061       82.01815
2017    5       2       0.3507036       77.93319
2017    5       3       0.3342059       75.02112
2017    5       4       0.2480907       59.83574
2017    5       5       0.2469833       59.32859
2017    5       6       0.2602304       61.85688
2017    5       7       0.2813587       65.52874
2017    6       0       0.358263        79.00897
2017    6       1       0.352789        77.88679
2017    6       2       0.3035203       69.18963
2017    6       3       0.265095        62.05384
2017    6       4       0.2466086       58.50827
2017    6       5       0.2394192       57.1358
2017    6       6       0.2128309       52.15757
2017    6       7       0.1963173       48.97626
2017    7       0       0.1680839       43.44787
2017    7       1       0.1585771       41.56476
2017    7       2       0.1988551       49.75059
2017    7       3       0.3285938       73.90552
2017    7       4       0.3502751       77.57005
2017    7       5       0.3495101       77.38024
2017    7       6       0.3338585       74.57985
2017    7       7       0.2820489       65.46689
2017    8       0       0.2705739       63.14159
2017    8       1       0.2529286       60.06815
2017    8       2       0.2513111       59.50939
2017    8       3       0.2216345       53.83107
2017    8       4       0.2595842       61.44214
2017    8       5       0.2487721       59.56334
2017    8       6       0.2405865       58.10784
2017    8       7       0.3406902       76.30178
2017    9       0       0.3173115       72.31204
2017    9       1       0.3197645       72.51871
2017    9       2       0.2981402       68.06743
2017    9       3       0.2190907       53.1139
2017    9       4       0.1924762       48.15335
2017    9       5       0.2286336       54.96017
2017    9       6       0.2259476       54.38899
2017    9       7       0.2218029       53.61782
2017    10      0       0.2060799       50.44735
2017    10      1       0.2011386       49.36332
2017    10      2       0.1843931       46.1264
2017    10      3       0.1927776       47.73076
2017    10      4       0.1901541       47.26342
2017    10      5       0.2059519       50.36771
2017    10      6       0.2103823       51.24669
2017    10      7       0.2006794       49.37932
2017    11      0       0.1917534       47.56645
2017    11      1       0.1991117       48.91126
2017    11      2       0.2509036       59.14184
2017    11      3       0.3639292       79.80559
2017    11      4       0.3337529       74.30633
2017    11      5       0.2745938       63.62116
2017    11      6       0.2279476       54.94227
2017    11      7       0.2223355       53.78128
2017    12      0       0.2253866       54.3497
2017    12      1       0.2542523       59.68771
2017    12      2       0.2924304       66.71101
2017    12      3       0.2958889       67.34004
2017    12      4       0.2976985       67.82802
2017    12      5       0.2953739       67.62492
2017    12      6       0.2918147       66.87075
2017    12      7       0.1638921       42.04861
2017    13      0       0.1305392       35.04414
2017    13      1       0.1292233       34.72105
2017    13      2       0.1366719       36.3674
2017    13      3       0.1408136       37.29121
2017    13      4       0.1308705       35.25907
2017    13      5       0.1412189       37.48656
2017    13      6       0.1716574       43.63997
2017    13      7       0.2141544       51.86995
2017    14      0       0.230034        54.83468
2017    14      1       0.2285771       54.59027
2017    14      2       0.241643        57.18044
2017    14      3       0.2426661       57.48231
2017    14      4       0.2296925       54.98009
2017    14      5       0.22377         53.77301
2017    14      6       0.2172466       52.59987
2017    14      7       0.2149991       52.18055
2017    15      0       0.2126435       51.72354
2017    15      1       0.2032567       49.86056
2017    15      2       0.1912866       47.53031
2017    15      3       0.1752333       44.34767
2017    15      4       0.1321763       35.56257
2017    15      5       0.1171915       32.27111
2017    15      6       0.1161103       32.03868
2017    15      7       0.1295487       34.8481
2017    16      0       0.1305541       35.00108
2017    16      1       0.1268239       34.14878
2017    16      2       0.1149547       31.63879
2017    16      3       0.1174744       32.10786
2017    16      4       0.1149751       31.58988
2017    16      5       0.1110136       30.76927
2017    16      6       0.1061444       29.8238
2017    16      7       0.1028379       29.20243
2017    17      0       0.09876651      28.43328
2017    17      1       0.09308186      27.31927
2017    17      2       0.09625108      28.05894
2017    17      3       0.1110049       31.21955
2017    17      4       0.1442577       38.17989
2017    17      5       0.1851151       46.52947
2017    17      6       0.1904216       47.67117
2017    17      7       0.2064633       50.86288
2017    18      0       0.2034951       50.27474
2017    18      1       0.1889749       47.42261
2017    18      2       0.1623596       42.04849
2017    18      3       0.1444544       38.41613
2017    18      4       0.1113073       31.55237
2017    18      5       0.09830876      28.65299
2017    18      6       0.1240216       34.03707
2017    18      7       0.1297656       35.35323
2017    19      0       0.1278706       35.09494
2017    19      1       0.1257644       34.75575
2017    19      2       0.1183775       33.17798
2017    19      3       0.11994         33.46003
2017    19      4       0.1235163       34.23826
2017    19      5       0.1168776       32.87965
2017    19      6       0.1106844       31.54016
2017    19      7       0.1104453       31.44527
2017    20      0       0.1139203       32.16919
2017    20      1       0.1224306       33.92265
2017    20      2       0.1320776       35.82155
2017    20      3       0.1607979       41.67861
2017    20      4       0.1712676       43.69258
2017    20      5       0.1668545       42.73796
2017    20      6       0.1608637       41.49843
2017    20      7       0.151178        39.5163
2017    21      0       0.139579        37.0719
2017    21      1       0.1249818       33.99325
2017    21      2       0.1153372       31.93963
2017    21      3       0.1030027       29.3325
2017    21      4       0.09275165      27.15483
2017    21      5       0.08729244      25.98247
2017    21      6       0.08663058      25.82932
2017    21      7       0.08701555      25.89628
2017    22      0       0.0912841       26.80334
2017    22      1       0.0953098       27.65873
2017    22      2       0.09708711      28.0271
2017    22      3       0.1019005       29.00188
2017    22      4       0.1045549       29.46686
2017    22      5       0.1025898       29.00818
2017    22      6       0.1018068       28.85015
2017    22      7       0.1062143       29.76938
2017    23      0       0.1137781       31.36368
2017    23      1       0.1189464       32.4575
2017    23      2       0.123393        33.40504
2017    23      3       0.1278004       34.33432
2017    23      4       0.1336304       35.55781
2017    23      5       0.1406661       37.05199
2017    23      6       0.1415352       37.23878
2017    23      7       0.1392063       36.75775
2017    24      0       0.137941        36.5223
2017    24      1       0.1333391       35.56117
2017    24      2       0.1365062       36.2233
2017    24      3       0.1322139       35.30647
2017    24      4       0.1295173       34.73276
2017    24      5       0.1249948       33.76664
2017    24      6       0.125829        33.93126
2017    24      7       0.1307218       34.97258
2017    25      0       0.137077        36.32003
2017    25      1       0.1751708       44.2765
2017    25      2       0.1743833       44.10242
2017    25      3       0.1750997       44.18475
2017    25      4       0.1679923       42.85497
2017    25      5       0.1683601       43.013
2017    25      6       0.1764797       44.68683
2017    25      7       0.1757829       44.51985
2017    26      0       0.1755514       44.47284
2017    26      1       0.1736896       44.02592
2017    26      2       0.1609831       41.41954
2017    26      3       0.1540432       40.08932
2017    26      4       0.1566567       40.57624
2017    26      5       0.1555861       40.43892
2017    26      6       0.1703189       43.40275
2017    26      7       0.1848785       46.22765
2017    27      0       0.1876012       46.81954
2017    27      1       0.1916869       47.66718
2017    27      2       0.1653689       42.54064
2017    27      3       0.1855393       46.64022
2017    27      4       0.2858786       65.79582
2017    27      5       0.4372246       91.69003
2017    27      6       0.4887086       100.1709
2017    27      7       0.4677584       97.23214
2017    28      0       0.4251379       90.78509
2017    28      1       0.4202284       90.10733
2017    28      2       0.4369945       92.69943
2017    28      3       0.4087796       88.17904
2017    28      4       0.4044576       87.32127
2017    28      5       0.4350732       92.07938
2017    28      6       0.4115075       88.80432
2017    28      7       0.4073382       88.38963
2018    1       0       0.1331565       35.35263
2018    1       1       0.1328527       35.3493
2018    1       2       0.1368747       36.25778
2018    1       3       0.1613686       41.16688
2018    1       4       0.1976116       48.39356
2018    1       5       0.1998015       48.83681
2018    1       6       0.1861812       46.11648
2018    1       7       0.1885859       46.68124
2018    2       0       0.1786273       44.67188
2018    2       1       0.1705834       43.04888
2018    2       2       0.1665464       42.27338
2018    2       3       0.1709894       43.13799
2018    2       4       0.1797966       44.88165
2018    2       5       0.1907973       47.12533
2018    2       6       0.1901156       46.95066
2018    2       7       0.1886117       46.61058
2018    3       0       0.1820882       45.32771
2018    3       1       0.1775846       44.4384
2018    3       2       0.1749037       43.9008
2018    3       3       0.1697486       42.85537
2018    3       4       0.1451344       37.73295
2018    3       5       0.1176601       32.08701
2018    3       6       0.1071086       29.95522
2018    3       7       0.1218241       33.12143
2018    4       0       0.1776751       44.55519
2018    4       1       0.2769753       63.70784
2018    4       2       0.2587891       60.36754
2018    4       3       0.1894907       46.92413
2018    4       4       0.1744184       43.8377
2018    4       5       0.1455828       37.82315
2018    4       6       0.1354238       35.70539
2018    4       7       0.129929        34.50483
2018    5       0       0.1267752       33.80488
2018    5       1       0.1186341       32.07428
2018    5       2       0.1116271       30.61289
2018    5       3       0.1091788       30.08006
2018    5       4       0.1034358       28.78274
2018    5       5       0.1032329       28.729
2018    5       6       0.1014616       28.33679
2018    5       7       0.100223        28.08466
2018    6       0       0.09733681      27.46152
2018    6       1       0.09777568      27.56986
2018    6       2       0.09810998      27.6831
2018    6       3       0.09613953      27.34148
2018    6       4       0.09115485      26.44164
2018    6       5       0.08491003      25.23972
2018    6       6       0.08923493      26.20174
2018    6       7       0.1799139       45.03238
2018    7       0       0.2058046       50.12489
2018    7       1       0.1988662       48.9042
2018    7       2       0.1912454       47.36783
2018    7       3       0.1837879       45.87146
2018    7       4       0.1812532       45.32494
2018    7       5       0.1710129       43.19362
2018    7       6       0.1597106       40.83799
2018    7       7       0.1482449       38.55088
2018    8       0       0.136616        36.0296
2018    8       1       0.1285433       34.39755
2018    8       2       0.1270741       33.99868
2018    8       3       0.1357014       35.8377
2018    8       4       0.1353029       35.78079
2018    8       5       0.1219947       32.95121
2018    8       6       0.1171521       31.93467
2018    8       7       0.1128653       31.01321
2018    9       0       0.1200378       32.61269
2018    9       1       0.1159536       31.73528
2018    9       2       0.1186203       32.2817
2018    9       3       0.1175573       32.02384
2018    9       4       0.1173372       32.03205
2018    9       5       0.1081323       30.10844
2018    9       6       0.1071077       29.88357
2018    9       7       0.1046908       29.36127
2018    10      0       0.1077665       29.92101
2018    10      1       0.1092075       30.23945
2018    10      2       0.1085402       30.10801
2018    10      3       0.1044385       29.24843
2018    10      4       0.1117782       30.77422
2018    10      5       0.1148953       31.41438
2018    10      6       0.1138048       31.20594
2018    10      7       0.113848        31.31466
2018    11      0       0.1193692       32.50164
2018    11      1       0.1278936       34.27108
2018    11      2       0.136633        36.14928
2018    11      3       0.1443649       37.748
2018    11      4       0.1520281       39.38136
2018    11      5       0.1592173       40.91784
2018    11      6       0.1622808       41.61528
2018    11      7       0.146204        38.41445
2018    12      0       0.1518965       39.49306
2018    12      1       0.1508594       39.16527
2018    12      2       0.1390002       36.65968
2018    12      3       0.1265998       34.04134
2018    12      4       0.1185248       32.38096
2018    12      5       0.116809        32.03492
2018    12      6       0.1229722       33.42183
2018    12      7       0.1307749       35.04326
2018    13      0       0.1410736       37.10815
2018    13      1       0.1326751       35.42449
2018    13      2       0.1246198       33.78484
2018    13      3       0.1278786       34.5102
2018    13      4       0.1305777       35.01376
2018    13      5       0.1305958       34.99476
2018    13      6       0.1442839       37.93837
2018    13      7       0.1542934       40.2032
2018    14      0       0.1644205       42.22926
2018    14      1       0.1567866       40.87639
2018    14      2       0.147919        38.88257
2018    14      3       0.1510211       39.32759
2018    14      4       0.146151        38.30826
2018    14      5       0.1484898       38.78062
2018    14      6       0.144593        38.00045
2018    14      7       0.1455893       38.2929
2018    15      0       0.1710764       43.55288
2018    15      1       0.1717576       43.97821
2018    15      2       0.1764514       44.75675
2018    15      3       0.1718056       43.778
2018    15      4       0.1584964       41.15987
2018    15      5       0.1897621       47.42469
2018    15      6       0.202357        49.94341
2018    15      7       0.2072002       50.96522
2018    16      0       0.2093012       51.33523
2018    16      1       0.2210805       53.75514
2018    16      2       0.2450413       58.36395
2018    16      3       0.2561131       60.35129
2018    16      4       0.2416446       57.66582
2018    16      5       0.2123866       52.06952
2018    16      6       0.2205747       53.52116
2018    16      7       0.2059423       50.75325
2018    17      0       0.2142355       52.36183
2018    17      1       0.2196782       53.46649
2018    17      2       0.2344986       56.24213
2018    17      3       0.2185798       53.16249
2018    17      4       0.2054922       50.56796
2018    17      5       0.1981317       49.06265
2018    17      6       0.197017        48.7095
2018    17      7       0.1819295       45.74144
2018    18      0       0.1799282       45.41246
2018    18      1       0.1930184       48.06263
2018    18      2       0.1887329       47.0701
2018    18      3       0.1745997       44.19894
2018    18      4       0.1733556       43.95699
2018    18      5       0.1802494       45.41516
2018    18      6       0.1769407       44.89851
2018    18      7       0.1584545       41.31218
2018    19      0       0.1571708       41.12704
2018    19      1       0.1753284       44.76057
2018    19      2       0.2408212       57.5006
2018    19      3       0.2822659       65.07697
2018    19      4       0.2790833       64.53475
2018    19      5       0.2686015       62.57798
2018    19      6       0.255119        60.17604
2018    19      7       0.2407829       57.46692
2018    20      0       0.2192355       53.25267
2018    20      1       0.2232404       53.98251
2018    20      2       0.2221259       53.7716
2018    20      3       0.226267        54.68325
2018    20      4       0.2236398       54.26212
2018    20      5       0.2173055       53.08944
2018    20      6       0.2268502       54.92639
2018    20      7       0.1963102       48.72998
2018    21      0       0.1677279       42.84289
2018    21      1       0.1413208       37.29458
2018    21      2       0.1055132       29.80084
2018    21      3       0.08176418      24.72592
2018    21      4       0.07568511      23.45749
2018    21      5       0.08171523      24.77108
2018    21      6       0.08595657      25.70165
2018    21      7       0.1484243       38.8509
2018    22      0       0.1623298       41.69116
2018    22      1       0.1401563       37.40252
2018    22      2       0.1654222       42.29985
2018    22      3       0.1589702       40.98076
2018    22      4       0.1559509       40.32628
2018    22      5       0.1500221       39.12161
2018    22      6       0.1278686       34.73168
2018    22      7       0.1644236       42.20519
2018    23      0       0.1651617       42.25352
2018    23      1       0.1439906       37.78243
2018    23      2       0.1225639       33.24541
2018    23      3       0.1102339       30.5886
2018    23      4       0.115783        31.7874
2018    23      5       0.1095092       30.52952
2018    23      6       0.1093667       30.54969
2018    23      7       0.1781251       44.70052
2018    24      0       0.2142349       51.90661
2018    24      1       0.2940007       67.17053
2018    24      2       0.3096306       70.36564
2018    24      3       0.3157784       71.33085
2018    24      4       0.3082488       69.98221
2018    24      5       0.2337072       56.53521
2018    24      6       0.1886855       47.53762
2018    24      7       0.2056471       50.81243
2018    25      0       0.2132024       52.31859
2018    25      1       0.1688495       43.28153
2018    25      2       0.1350936       36.17214
2018    25      3       0.1227246       33.39652
2018    25      4       0.1043561       29.60175
2018    25      5       0.1156109       31.97622
2018    25      6       0.1246649       33.9103
2018    25      7       0.1359094       36.20189
2018    26      0       0.1508211       39.28789
2018    26      1       0.1664996       42.4792
2018    26      2       0.1843644       46.14967
2018    26      3       0.1863283       46.77503
2018    26      4       0.1861313       46.89017
2018    26      5       0.2186263       53.31466
2018    26      6       0.2838527       65.57707
2018    26      7       0.3403581       75.67459
2018    27      0       0.3355123       74.9847
2018    27      1       0.2815956       65.26911
2018    27      2       0.1874556       47.48337
2018    27      3       0.1247382       34.7004
2018    27      4       0.1381989       37.53386
2018    27      5       0.1513561       40.28095
2018    27      6       0.1280783       35.30149
2018    27      7       0.1124857       31.92823
2018    28      0       0.1155841       32.60116
2018    28      1       0.1167888       32.88273
2018    28      2       0.1199001       33.5648
2018    28      3       0.12017         33.53751
2018    28      4       0.1166722       32.79641
2018    28      5       0.1415494       38.08027
2018    28      6       0.2345691       56.74008
2018    28      7       0.2162244       53.4135
