####################################################################################################
# Month: 12Dec                                                                                     #
# Station: FLWO                                                                                    #
# Frequency: 345 GHz                                                                               #
# Columns are: year    day     segment         tau     Tb (K)                                      #
####################################################################################################
2009    1       0       1.053149        173.9914
2009    1       1       1.115235        178.9031
2009    1       2       0.8464468       153.302
2009    1       3       0.8422935       153.1511
2009    1       4       0.7842258       147.4584
2009    1       5       0.6199967       127.3841
2009    1       6       0.4170852       95.85317
2009    1       7       0.3412064       81.71381
2009    2       0       0.2593647       65.68168
2009    2       1       0.2541366       64.08135
2009    2       2       0.4040178       92.02846
2009    2       3       0.4973177       107.4986
2009    2       4       0.5401163       113.9924
2009    2       5       0.5790382       119.7028
2009    2       6       0.5842013       120.3278
2009    2       7       0.5949715       122.1016
2009    3       0       0.5879366       121.1818
2009    3       1       0.5144348       109.9477
2009    3       2       0.4721907       103.5316
2009    3       3       0.435455        97.89007
2009    3       4       0.396784        91.44993
2009    3       5       0.3711396       86.95746
2009    3       6       0.3614917       85.23499
2009    3       7       0.4488559       100.3745
2009    4       0       0.3641282       85.83993
2009    4       1       0.199269        53.33452
2009    4       2       0.1535946       43.42868
2009    4       3       0.1098644       33.12536
2009    4       4       0.1256694       36.36355
2009    4       5       0.1697057       46.18397
2009    4       6       0.170775        46.67425
2009    4       7       0.1798265       48.99151
2009    5       0       0.2098354       55.63621
2009    5       1       0.2037932       54.64592
2009    5       2       0.2006937       54.01915
2009    5       3       0.2133481       56.77295
2009    5       4       0.2400664       61.9503
2009    5       5       0.3501356       81.81727
2009    5       6       0.2300624       58.90485
2009    5       7       0.3284505       75.88992
2009    6       0       0.4401626       94.9733
2009    6       1       0.5256327       109.1903
2009    6       2       0.3008473       72.70471
2009    6       3       0.3425695       81.69181
2009    6       4       0.3081237       75.86877
2009    6       5       0.2772469       69.69819
2009    6       6       0.2539944       64.63474
2009    6       7       0.2939965       72.07506
2009    7       0       0.3424692       80.91387
2009    7       1       0.4230658       94.22072
2009    7       2       0.5117638       108.7789
2009    7       3       0.7109511       137.2388
2009    7       4       0.8773182       156.1548
2009    7       5       1.048971        173.8608
2009    7       6       1.219956        188.2809
2009    7       7       1.207384        186.5392
2009    8       0       1.313202        196.4497
2009    8       1       1.229238        191.6352
2009    8       2       1.105782        181.8054
2009    8       3       0.9763703       168.9741
2009    8       4       0.3929278       91.37431
2009    8       5       0.1409943       40.55503
2009    8       6       0.1027566       31.65054
2009    8       7       0.1191496       35.21286
2009    9       0       0.1453258       41.12005
2009    9       1       0.2121131       55.50806
2009    9       2       0.3458764       81.0501
2009    9       3       0.4596212       100.4812
2009    9       4       0.6714818       131.4819
2009    9       5       0.9345063       161.9647
2009    9       6       0.892318        158.4535
2009    9       7       0.8479046       153.7997
2009    10      0       0.7110035       137.4058
2009    10      1       0.5154616       110.4373
2009    10      2       0.5378778       113.9885
2009    10      3       0.5957851       122.6016
2009    10      4       0.6262174       126.8819
2009    10      5       0.7738523       145.7012
2009    10      6       0.7879812       147.8321
2009    10      7       0.7729465       146.0181
2009    11      0       0.8258108       152.1003
2009    11      1       0.9051051       161.8756
2009    11      2       0.8756498       159.045
2009    11      3       0.9103201       162.2251
2009    11      4       0.9509114       166.2494
2009    11      5       1.047271        175.5708
2009    11      6       1.132334        183.0974
2009    11      7       1.15503         184.455
2009    12      0       1.012029        171.9412
2009    12      1       0.874999        157.9939
2009    12      2       0.9300325       163.2288
2009    12      3       1.008027        170.5498
2009    12      4       0.8635863       156.6249
2009    12      5       0.61498         126.1192
2009    12      6       0.4995965       108.8216
2009    12      7       0.6170945       126.5192
2009    13      0       0.4975554       109.237
2009    13      1       0.3302534       79.78073
2009    13      2       0.387701        89.73279
2009    13      3       0.4092317       93.00165
2009    13      4       0.5784305       118.9197
2009    13      5       0.6833119       132.6787
2009    13      6       0.6057143       123.6185
2009    13      7       0.7564496       143.6505
2009    14      0       1.123993        180.372
2009    14      1       1.356895        198.4668
2009    14      2       1.092229        178.6284
2009    14      3       0.9489817       164.9668
2009    14      4       1.051581        174.1709
2009    14      5       1.392017        200.2774
2009    14      6       1.513299        209.6955
2009    14      7       0.7009176       138.5142
2009    15      0       0.3052344       74.96964
2009    15      1       0.1121196       33.64842
2009    15      2       0.1017411       31.20678
2009    15      3       0.09959488      30.84494
2009    15      4       0.1072674       32.58918
2009    15      5       0.1124449       33.68158
2009    15      6       0.1152722       34.21642
2009    15      7       0.1209327       35.54914
2009    16      0       0.1534144       42.94807
2009    16      1       0.1851289       49.79901
2009    16      2       0.2148743       55.73098
2009    16      3       0.2739772       67.16203
2009    16      4       0.3866014       87.46666
2009    16      5       0.3945528       89.28407
2009    16      6       0.3899082       88.35122
2009    16      7       0.542837        112.0523
2009    17      0       0.6305777       126.0902
2009    17      1       0.6179252       125.8851
2009    17      2       0.6476111       130.6972
2009    17      3       0.6252771       128.5408
2009    17      4       0.586397        124.1586
2009    17      5       0.5407572       117.5922
2009    17      6       0.4975392       110.4539
2009    17      7       0.4307344       99.00391
2009    18      0       0.3674623       87.72619
2009    18      1       0.322913        78.52462
2009    18      2       0.4012798       91.54906
2009    18      3       0.3853209       88.98246
2009    18      4       0.310176        75.87739
2009    18      5       0.3424394       80.96196
2009    18      6       0.4519984       100.1183
2009    18      7       0.4748618       105.4706
2009    19      0       0.5635559       118.7854
2009    19      1       0.6485943       130.6138
2009    19      2       0.6798928       135.2506
2009    19      3       0.6688468       133.9356
2009    19      4       0.4990144       109.7745
2009    19      5       0.3753728       88.78441
2009    19      6       0.2891991       72.63907
2009    19      7       0.2576562       66.47544
2009    20      0       0.2408119       62.69925
2009    20      1       0.1692544       46.48871
2009    20      2       0.1612948       44.35412
2009    20      3       0.183545        48.76278
2009    20      4       0.2304228       57.9513
2009    20      5       0.2900393       69.4122
2009    20      6       0.3647002       83.19413
2009    20      7       0.4205607       92.94496
2009    21      0       0.4136398       91.97053
2009    21      1       0.3475544       80.03653
2009    21      2       0.3751943       84.36756
2009    21      3       0.4277781       93.17957
2009    21      4       0.5249914       108.848
2009    21      5       0.6103595       121.5978
2009    21      6       0.5578901       114.9374
2009    21      7       0.6292277       125.1855
2009    22      0       0.6927433       133.5145
2009    22      1       0.6508241       127.9928
2009    22      2       0.6442839       127.2621
2009    22      3       0.7320675       138.5727
2009    22      4       0.8408889       151.8328
2009    22      5       0.804593        147.6288
2009    22      6       0.6610466       129.777
2009    22      7       0.4645752       103.0447
2009    23      0       0.4213606       96.16857
2009    23      1       0.4653204       103.2874
2009    23      2       0.2953788       72.77325
2009    23      3       0.2738433       68.03478
2009    23      4       0.3756078       86.1864
2009    23      5       0.4979555       105.4056
2009    23      6       0.6526734       127.4874
2009    23      7       0.6109116       123.7088
2009    24      0       0.3647253       85.4521
2009    24      1       0.2976505       73.77386
2009    24      2       0.1776062       49.0203
2009    24      3       0.1775356       48.90705
2009    24      4       0.2347312       60.84645
2009    24      5       0.2850662       71.02108
2009    24      6       0.2586906       65.9062
2009    24      7       0.2256295       58.93805
2009    25      0       0.1964947       52.63637
2009    25      1       0.1920743       51.50441
2009    25      2       0.2175567       56.48466
2009    25      3       0.2291404       58.65589
2009    25      4       0.2264128       58.24458
2009    25      5       0.2231016       57.80376
2009    25      6       0.2314374       59.62189
2009    25      7       0.2796718       69.19688
2009    26      0       0.3126883       75.46947
2009    26      1       0.3269797       78.14614
2009    26      2       0.3352984       79.78636
2009    26      3       0.365691        85.39006
2009    26      4       0.3971406       91.31107
2009    26      5       0.4017813       92.2791
2009    26      6       0.4196446       94.9522
2009    26      7       0.4733297       103.1965
2009    27      0       0.5853324       119.3908
2009    27      1       0.63586         126.7472
2009    27      2       0.6662197       131.013
2009    27      3       0.6513853       129.1354
2009    27      4       0.5231462       111.1367
2009    27      5       0.4411224       98.05795
2009    27      6       0.320124        77.00898
2009    27      7       0.2765512       68.82688
2009    28      0       0.2906875       70.88947
2009    28      1       0.295253        70.51284
2009    28      2       0.3462451       79.3053
2009    28      3       0.3783961       84.78649
2009    28      4       0.4942043       103.6149
2009    28      5       0.9501628       161.7729
2009    28      6       1.215542        186.108
2009    28      7       0.803703        146.4011
2009    29      0       0.7880864       144.4483
2009    29      1       0.917864        158.7527
2009    29      2       1.134141        178.528
2009    29      3       1.237469        186.4788
2009    29      4       1.143206        179.1619
2009    29      5       0.9064622       158.2593
2009    29      6       0.9563655       163.4545
2009    29      7       1.093404        175.7423
2009    30      0       1.011721        168.8675
2009    30      1       0.8169073       149.6531
2009    30      2       0.601417        123.2279
2009    30      3       0.49227         106.8808
2009    30      4       0.5002229       107.6302
2009    30      5       0.6157267       124.4004
2009    30      6       0.8855767       157.2973
2009    30      7       1.236949        190.4923
2009    31      0       1.510907        209.1546
2009    31      1       1.588387        213.7333
2009    31      2       1.228891        191.4785
2009    31      3       0.8380753       155.1533
2009    31      4       0.5599933       118.3734
2009    31      5       0.2785694       69.71965
2009    31      6       0.1839415       49.51232
2009    31      7       0.2114362       55.30769
2010    1       0       0.3238122       78.19265
2010    1       1       0.3941642       91.00671
2010    1       2       0.4586464       101.9205
2010    1       3       0.5087919       110.4597
2010    1       4       0.4830527       106.1723
2010    1       5       0.4590288       102.3511
2010    1       6       0.4174287       95.43953
2010    1       7       0.4474849       100.0529
2010    2       0       0.4827923       105.9231
2010    2       1       0.5176727       111.2296
2010    2       2       0.6073579       124.0311
2010    2       3       0.5917774       122.2907
2010    2       4       0.535895        114.2489
2010    2       5       0.5455143       116.2152
2010    2       6       0.6390841       130.1375
2010    2       7       0.7746408       147.6996
2010    3       0       0.7548199       145.3206
2010    3       1       0.7040424       138.8883
2010    3       2       0.7389409       143.3548
2010    3       3       0.7087203       139.5665
2010    3       4       0.6980453       138.189
2010    3       5       0.7474665       144.5896
2010    3       6       0.7127446       140.321
2010    3       7       0.5674244       119.0019
2010    4       0       0.5092386       109.7306
2010    4       1       0.4119764       94.91309
2010    4       2       0.3898057       90.6079
2010    4       3       0.3870125       89.19764
2010    4       4       0.4149777       93.57197
2010    4       5       0.4544416       99.94811
2010    4       6       0.5202258       110.1501
2010    4       7       0.7143063       137.4104
2010    5       0       0.9494687       165.5737
2010    5       1       1.368016        201.2995
2010    5       2       1.487854        210.7197
2010    5       3       1.371203        204.431
2010    5       4       1.278509        197.6429
2010    5       5       1.232892        194.2294
2010    5       6       1.544412        215.2845
2010    5       7       1.646165        220.8195
2010    6       0       1.671266        222.6516
2010    6       1       1.613059        220.1615
2010    6       2       1.559003        217.1987
2010    6       3       1.601279        218.438
2010    6       4       1.678886        222.094
2010    6       5       1.479589        211.251
2010    6       6       1.69579         222.4201
2010    6       7       1.851101        229.6186
2010    7       0       1.570558        216.2482
2010    7       1       1.30225         199.0019
2010    7       2       0.8208397       153.3833
2010    7       3       0.2925036       72.71654
2010    7       4       0.1684175       46.79061
2010    7       5       0.165525        46.29117
2010    7       6       0.1934284       52.57265
2010    7       7       0.2593442       66.60374
2010    8       0       0.3220075       79.47288
2010    8       1       0.2975129       74.84062
2010    8       2       0.2470626       64.49626
2010    8       3       0.2219711       59.39808
2010    8       4       0.2063025       55.88766
2010    8       5       0.1998637       54.34694
2010    8       6       0.2218315       59.11561
2010    8       7       0.2730665       69.94544
2010    9       0       0.2765155       70.69998
2010    9       1       0.2495414       64.80426
2010    9       2       0.2461101       63.76399
2010    9       3       0.2703526       68.51198
2010    9       4       0.3467125       82.81673
2010    9       5       0.4457387       99.93169
2010    9       6       0.5977717       123.9022
2010    9       7       0.7924275       150.0878
2010    10      0       0.904221        163.4461
2010    10      1       0.9799324       172.0547
2010    10      2       1.20649         193.3045
2010    10      3       1.073282        182.7921
2010    10      4       0.8732623       162.6799
2010    10      5       0.6789221       138.691
2010    10      6       0.7594038       148.3654
2010    10      7       0.9885678       173.2826
2010    11      0       0.9327588       167.8834
2010    11      1       0.8697853       161.5644
2010    11      2       1.086016        182.8415
2010    11      3       1.246491        196.8565
2010    11      4       1.158355        190.7419
2010    11      5       1.189487        194.142
2010    11      6       1.564572        220.0482
2010    11      7       1.399374        210.1563
2010    12      0       1.099396        186.4933
2010    12      1       0.86038         161.8079
2010    12      2       0.9651642       173.2538
2010    12      3       1.020463        178.9096
2010    12      4       0.7780886       151.8527
2010    12      5       0.5472283       119.5717
2010    12      6       0.4443208       102.7428
2010    12      7       0.3743373       90.24259
2010    13      0       0.2961411       74.88206
2010    13      1       0.220108        59.46574
2010    13      2       0.1733436       49.10777
2010    13      3       0.1478983       43.00453
2010    13      4       0.1588002       45.36814
2010    13      5       0.1772834       49.5571
2010    13      6       0.1889322       52.16908
2010    13      7       0.1988171       54.24713
2010    14      0       0.2071104       55.89067
2010    14      1       0.203219        54.90041
2010    14      2       0.1944252       53.19393
2010    14      3       0.1919018       52.68221
2010    14      4       0.191473        52.64821
2010    14      5       0.1966282       53.48439
2010    14      6       0.2173414       57.84558
2010    14      7       0.2390006       62.57624
2010    15      0       0.2192753       58.58939
2010    15      1       0.2006433       54.5505
2010    15      2       0.2046239       55.43111
2010    15      3       0.2175269       57.99158
2010    15      4       0.2416182       62.91355
2010    15      5       0.3096461       76.7318
2010    15      6       0.462981        104.5559
2010    15      7       0.7037469       140.5332
2010    16      0       0.927205        166.8975
2010    16      1       1.262601        196.7579
2010    16      2       1.267418        197.2532
2010    16      3       1.035373        177.7319
2010    16      4       1.197579        190.5207
2010    16      5       1.259437        194.9495
2010    16      6       1.381801        203.0893
2010    16      7       1.542057        211.2974
2010    17      0       1.523173        209.2083
2010    17      1       1.199855        187.9828
2010    17      2       1.040877        174.8112
2010    17      3       0.9287406       164.2963
2010    17      4       0.800005        149.2869
2010    17      5       0.7403347       142.0676
2010    17      6       0.9420808       164.7555
2010    17      7       1.232796        190.8003
2010    18      0       1.322126        197.4341
2010    18      1       1.325784        197.7921
2010    18      2       1.469322        207.421
2010    18      3       1.6145          216.9306
2010    18      4       1.858444        228.7968
2010    18      5       2.115127        238.5242
2010    18      6       2.087485        238.6797
2010    18      7       1.994213        235.5647
2010    19      0       1.783981        227.4974
2010    19      1       1.461251        211.2624
2010    19      2       1.197864        193.0347
2010    19      3       1.001545        175.4158
2010    19      4       0.7890602       152.0061
2010    19      5       0.7052759       140.7612
2010    19      6       0.6772341       136.6843
2010    19      7       0.7472701       145.7096
2010    20      0       0.7669462       147.9264
2010    20      1       0.73273         143.5474
2010    20      2       0.7341999       143.6255
2010    20      3       0.5762814       121.2074
2010    20      4       0.4657311       103.6476
2010    20      5       0.3409828       81.69889
2010    20      6       0.3744123       87.85971
2010    20      7       0.5155502       111.7078
2010    21      0       0.6342775       129.3894
2010    21      1       0.6888144       136.8117
2010    21      2       0.6502787       132.0812
2010    21      3       0.7706337       148.4066
2010    21      4       0.9216976       165.4234
2010    21      5       1.124046        184.4454
2010    21      6       1.467872        209.5788
2010    21      7       1.888065        230.465
2010    22      0       1.48996         210.1636
2010    22      1       1.094535        180.8564
2010    22      2       1.105639        180.2198
2010    22      3       1.06401         176.3132
2010    22      4       0.9560614       166.085
2010    22      5       1.169609        184.5051
2010    22      6       1.050097        175.3912
2010    22      7       1.17408         186.2322
2010    23      0       1.267819        195.689
2010    23      1       1.224274        193.4126
2010    23      2       1.17268         188.9168
2010    23      3       1.418999        206.2148
2010    23      4       1.051209        177.2788
2010    23      5       0.2864571       71.83643
2010    23      6       0.2903398       71.96796
2010    23      7       0.4338315       98.68007
2010    24      0       0.3748174       88.9155
2010    24      1       0.3383837       82.17302
2010    24      2       0.356199        85.71655
2010    24      3       0.2651117       67.60942
2010    24      4       0.2447265       63.20411
2010    24      5       0.2544285       65.35567
2010    24      6       0.2404042       62.53557
2010    24      7       0.23923         62.13447
2010    25      0       0.2303019       60.10368
2010    25      1       0.2110172       55.7451
2010    25      2       0.2353041       60.44962
2010    25      3       0.2872967       70.64324
2010    25      4       0.3111926       75.41865
2010    25      5       0.3009019       73.40092
2010    25      6       0.2955193       72.3575
2010    25      7       0.3548942       84.66843
2010    26      0       0.4161168       96.19212
2010    26      1       0.3905454       91.6086
2010    26      2       0.3039182       74.60894
2010    26      3       0.253029        64.01609
2010    26      4       0.3044822       74.96255
2010    26      5       0.4354691       99.41988
2010    26      6       0.8430805       157.2417
2010    26      7       0.87885         161.1312
2010    27      0       0.7273419       142.8979
2010    27      1       0.5234953       112.0142
2010    27      2       0.681217        134.2126
2010    27      3       0.9738016       167.3211
2010    27      4       0.986266        167.6811
2010    27      5       1.09895         177.5286
2010    27      6       1.542783        209.0959
2010    27      7       1.639825        214.6875
2010    28      0       1.091692        179.1029
2010    28      1       0.6510286       129.8823
2010    28      2       0.6795734       132.3898
2010    28      3       0.6583766       129.215
2010    28      4       0.4339163       96.6732
2010    28      5       0.3618923       84.90641
2010    28      6       0.3830809       88.6627
2010    28      7       0.5048642       108.9866
2010    29      0       0.4710402       103.0265
2010    29      1       0.547123        114.5327
2010    29      2       0.7090744       137.4541
2010    29      3       0.7816039       146.7345
2010    29      4       0.9206098       161.9968
2010    29      5       1.353202        198.4109
2010    29      6       1.968905        231.2638
2010    29      7       1.788448        221.9223
2010    30      0       1.939085        228.3527
2010    30      1       0.9590709       166.548
2010    30      2       0.5816501       120.6684
2010    30      3       0.9745326       167.387
2010    30      4       1.229706        189.1156
2010    30      5       0.8999346       158.5034
2010    30      6       0.6547057       128.4419
2010    30      7       0.4831683       103.3775
2010    31      0       0.3231737       76.25807
2010    31      1       0.1800175       48.04557
2010    31      2       0.2382133       59.74406
2010    31      3       0.3305874       77.23159
2010    31      4       0.3393383       79.40069
2010    31      5       0.3114854       74.53011
2010    31      6       0.32258         76.53999
2010    31      7       0.3291985       77.7204
2011    1       0       0.4458242       100.3971
2011    1       1       0.3951474       90.8947
2011    1       2       0.3247057       78.88411
2011    1       3       0.2790988       70.6029
2011    1       4       0.2431347       63.76702
2011    1       5       0.1598427       45.54959
2011    1       6       0.2773805       70.26746
2011    1       7       0.4547474       101.9981
2011    2       0       0.5958392       123.2055
2011    2       1       0.5049257       109.141
2011    2       2       0.4904102       107.2117
2011    2       3       0.276881        69.14225
2011    2       4       0.2202041       57.61869
2011    2       5       0.2434362       62.40632
2011    2       6       0.4027172       92.32218
2011    2       7       0.5851357       120.6935
2011    3       0       0.6118698       123.8431
2011    3       1       0.5507575       114.443
2011    3       2       0.6287548       125.1777
2011    3       3       0.6167363       123.5603
2011    3       4       0.6122684       122.9098
2011    3       5       0.5965908       121.1002
2011    3       6       0.7749746       143.9741
2011    3       7       0.8703589       154.2709
2011    4       0       0.8963553       157.3683
2011    4       1       0.7373581       139.5662
2011    4       2       0.6992457       134.503
2011    4       3       0.7113851       135.1714
2011    4       4       0.5889917       118.0582
2011    4       5       0.4619993       99.15486
2011    4       6       0.4762785       102.6902
2011    4       7       0.3372953       79.43222
2011    5       0       0.2912404       70.85195
2011    5       1       0.3646222       84.44531
2011    5       2       0.4421076       97.7764
2011    5       3       0.4636977       101.3219
2011    5       4       0.4565358       99.75681
2011    5       5       0.3887351       88.16949
2011    5       6       0.2878661       70.02984
2011    5       7       0.2832023       69.12471
2011    6       0       0.2105418       54.92455
2011    6       1       0.1402433       39.89149
2011    6       2       0.09317481      28.96269
2011    6       3       0.09551296      29.56591
2011    6       4       0.1061156       32.20302
2011    6       5       0.09500799      29.89827
2011    6       6       0.1057477       32.41123
2011    6       7       0.1329406       38.75502
2011    7       0       0.1535093       43.55659
2011    7       1       0.1751332       48.36369
2011    7       2       0.1711931       47.45349
2011    7       3       0.1604281       44.93202
2011    7       4       0.1468835       41.28418
2011    7       5       0.18157         47.6009
2011    7       6       0.1919841       50.11319
2011    7       7       0.2210372       56.15422
2011    8       0       0.2243992       57.19324
2011    8       1       0.231495        59.01918
2011    8       2       0.1968366       52.34903
2011    8       3       0.2125603       55.36812
2011    8       4       0.2754465       67.45613
2011    8       5       0.3348721       78.90986
2011    8       6       0.4836599       104.9843
2011    8       7       0.4953506       107.0388
2011    9       0       0.3798108       88.0811
2011    9       1       0.3133445       76.28101
2011    9       2       0.2841308       70.46973
2011    9       3       0.2488433       63.31376
2011    9       4       0.2056551       54.06228
2011    9       5       0.1588813       43.65372
2011    9       6       0.148077        41.4456
2011    9       7       0.1762671       47.80195
2011    10      0       0.1934176       51.25612
2011    10      1       0.1951844       51.07269
2011    10      2       0.225236        56.763
2011    10      3       0.3044166       71.71876
2011    10      4       0.3264482       75.71256
2011    10      5       0.2569096       62.98805
2011    10      6       0.2656459       64.93534
2011    10      7       0.3026855       73.32409
2011    11      0       0.278937        69.11493
2011    11      1       0.2666119       66.43607
2011    11      2       0.3156369       75.58439
2011    11      3       0.3555985       82.52183
2011    11      4       0.3505577       81.78676
2011    11      5       0.2966913       72.09216
2011    11      6       0.3191197       76.11867
2011    11      7       0.4117928       91.55602
2011    12      0       0.5252299       109.7223
2011    12      1       0.7717069       143.0812
2011    12      2       1.366412        198.3489
2011    12      3       1.50039         206.753
2011    12      4       1.474956        204.4802
2011    12      5       1.759854        219.9403
2011    12      6       2.037527        230.882
2011    12      7       1.834431        223.8897
2011    13      0       0.9226509       162.5994
2011    13      1       0.8326832       152.7953
2011    13      2       0.9247083       162.3886
2011    13      3       0.9522679       164.7319
2011    13      4       1.128519        180.7561
2011    13      5       1.175804        184.4719
2011    13      6       1.185374        184.2872
2011    13      7       1.438289        200.6049
2011    14      0       1.192374        183.5884
2011    14      1       0.7845099       144.9353
2011    14      2       0.5249849       110.7577
2011    14      3       0.446049        98.4665
2011    14      4       0.4015965       91.05385
2011    14      5       0.3476112       81.7992
2011    14      6       0.3548882       82.58139
2011    14      7       0.4242621       93.82827
2011    15      0       0.4326385       95.07851
2011    15      1       0.3468598       80.76022
2011    15      2       0.3254855       77.46482
2011    15      3       0.2569125       64.68441
2011    15      4       0.1761942       47.91834
2011    15      5       0.1590651       44.11379
2011    15      6       0.1677528       45.92326
2011    15      7       0.2841984       69.90067
2011    16      0       0.3473828       82.36543
2011    16      1       0.3516188       83.08177
2011    16      2       0.2997921       73.27223
2011    16      3       0.3331369       79.41341
2011    16      4       0.293979        71.81816
2011    16      5       0.3034646       73.19832
2011    16      6       0.3235205       77.05584
2011    16      7       0.4167967       94.18186
2011    17      0       0.5294593       112.6231
2011    17      1       0.5032136       108.4177
2011    17      2       0.3515466       82.13131
2011    17      3       0.3997128       91.41787
2011    17      4       0.7311291       142.1004
2011    17      5       0.9938765       171.8635
2011    17      6       0.917403        164.3352
2011    17      7       0.9916429       171.8985
2011    18      0       0.9503744       167.5793
2011    18      1       0.8559591       158.1535
2011    18      2       0.7844623       149.4313
2011    18      3       0.666969        134.0999
2011    18      4       0.5333211       113.9292
2011    18      5       0.4890271       106.2537
2011    18      6       0.8448529       153.7984
2011    18      7       1.230023        187.8376
2011    19      0       1.271017        188.7682
2011    19      1       1.037405        169.2069
2011    19      2       0.798364        145.2887
2011    19      3       0.6927156       133.074
2011    19      4       0.624959        124.5651
2011    19      5       0.705013        135.8753
2011    19      6       0.6756383       133.3366
2011    19      7       0.5525794       116.2498
2011    20      0       0.4961867       107.6306
2011    20      1       0.4566421       101.0065
2011    20      2       0.6077574       123.4274
2011    20      3       0.7995941       147.4127
2011    20      4       0.7244468       139.1313
2011    20      5       0.6310893       126.8017
2011    20      6       0.6038456       122.9648
2011    20      7       0.7752043       146.1002
2011    21      0       0.8029522       149.1175
2011    21      1       0.7349721       141.3068
2011    21      2       0.7554456       143.1212
2011    21      3       0.8042853       148.442
2011    21      4       0.7892896       146.1356
2011    21      5       0.7275412       138.8746
2011    21      6       0.7369282       140.5556
2011    21      7       0.9385626       163.0722
2011    22      0       0.6200142       126.2108
2011    22      1       0.5459953       115.5985
2011    22      2       0.5291144       113.0814
2011    22      3       0.488784        106.542
2011    22      4       0.516115        110.6117
2011    22      5       0.5940946       121.8307
2011    22      6       0.5803563       120.1233
2011    22      7       0.622139        126.0968
2011    23      0       0.6248415       125.7122
2011    23      1       0.5526085       114.7769
2011    23      2       0.2593826       64.62585
2011    23      3       0.1766971       47.38959
2011    23      4       0.252543        62.46801
2011    23      5       0.2712315       66.04447
2011    23      6       0.2845798       68.48796
2011    23      7       0.5660128       115.5898
2011    24      0       0.4884995       104.8365
2011    24      1       0.3841507       88.1324
2011    24      2       0.3383584       80.04048
2011    24      3       0.3243397       77.54352
2011    24      4       0.282291        69.81196
2011    24      5       0.2605864       65.51853
2011    24      6       0.2442755       62.19168
2011    24      7       0.2622828       65.88264
2011    25      0       0.3123729       75.69461
2011    25      1       0.3090119       75.03527
2011    25      2       0.2704954       67.70647
2011    25      3       0.2562826       64.8294
2011    25      4       0.258439        65.16763
2011    25      5       0.2627441       65.48381
2011    25      6       0.275652        67.8259
2011    25      7       0.2794591       68.72849
2011    26      0       0.2961731       72.44131
2011    26      1       0.2789714       69.52495
2011    26      2       0.2624212       66.42935
2011    26      3       0.3247175       78.91676
2011    26      4       0.4096429       94.67531
2011    26      5       0.4316003       98.90234
2011    26      6       0.3722894       88.71672
2011    26      7       0.3313428       80.55821
2011    27      0       0.262436        67.11928
2011    27      1       0.2630547       66.60703
2011    27      2       0.2543909       64.56004
2011    27      3       0.2305093       59.59165
2011    27      4       0.2188739       57.19373
2011    27      5       0.2211591       57.59131
2011    27      6       0.2254037       58.15704
2011    27      7       0.246686        61.99576
2011    28      0       0.2652071       65.45029
2011    28      1       0.2875361       70.28105
2011    28      2       0.238768        61.19152
2011    28      3       0.1437118       40.45079
2011    28      4       0.1833546       50.29181
2011    28      5       0.1538542       44.21712
2011    28      6       0.202071        55.29464
2011    28      7       0.3149796       78.71854
2011    29      0       0.409178        96.27939
2011    29      1       0.4824982       108.6083
2011    29      2       0.5473167       118.4796
2011    29      3       0.5523761       118.9419
2011    29      4       0.5987523       125.7754
2011    29      5       0.7459818       146.2361
2011    29      6       0.8262145       155.9396
2011    29      7       0.8214039       155.2432
2011    30      0       0.7671764       149.0321
2011    30      1       0.6936566       140.2076
2011    30      2       0.7177621       143.6079
2011    30      3       0.6581275       135.2597
2011    30      4       0.6085636       127.7746
2011    30      5       0.5280545       115.3892
2011    30      6       0.5288696       115.4329
2011    30      7       0.5751639       122.7517
2011    31      0       0.5558937       120.1137
2011    31      1       0.5355114       116.939
2011    31      2       0.5228683       114.6635
2011    31      3       0.4780145       107.1805
2011    31      4       0.3997294       93.65186
2011    31      5       0.4215452       97.49614
2011    31      6       0.3785847       89.68966
2011    31      7       0.3572595       85.43383
2012    1       0       0.314037        78.00868
2012    1       1       0.3165874       78.05537
2012    1       2       0.3642281       87.02254
2012    1       3       0.3628283       86.54335
2012    1       4       0.3708238       86.95826
2012    1       5       0.323199        79.01315
2012    1       6       0.3529853       84.94098
2012    1       7       0.4294412       98.74748
2012    2       0       0.4693156       105.2913
2012    2       1       0.480311        106.6927
2012    2       2       0.4687156       103.987
2012    2       3       0.5230489       111.5103
2012    2       4       0.5651412       118.3471
2012    2       5       0.6831993       135.7145
2012    2       6       0.7836853       149.4349
2012    2       7       0.75938         147.3253
2012    3       0       0.6744068       136.4588
2012    3       1       0.6499272       133.069
2012    3       2       0.804732        153.0061
2012    3       3       0.949197        169.2721
2012    3       4       1.084389        180.9002
2012    3       5       1.020399        175.0107
2012    3       6       0.8508324       158.7248
2012    3       7       0.9078461       165.4972
2012    4       0       0.8110879       154.8753
2012    4       1       0.5971225       125.9686
2012    4       2       0.5408509       117.5749
2012    4       3       0.5444046       118.0154
2012    4       4       0.5695568       120.6509
2012    4       5       0.6785733       136.5266
2012    4       6       0.8726146       160.2629
2012    4       7       0.924185        165.8086
2012    5       0       0.8272312       155.147
2012    5       1       0.8050982       152.7618
2012    5       2       0.9007529       163.8196
2012    5       3       0.9416793       168.7648
2012    5       4       0.851416        159.6771
2012    5       5       0.7804653       151.7962
2012    5       6       0.863414        160.9822
2012    5       7       0.8802034       162.7838
2012    6       0       0.8288029       157.1555
2012    6       1       0.7643632       149.5698
2012    6       2       0.7551503       147.9557
2012    6       3       0.7225733       143.5265
2012    6       4       0.6470326       133.0959
2012    6       5       0.609379        127.1624
2012    6       6       0.6346117       130.5676
2012    6       7       0.6934188       138.4978
2012    7       0       0.7378993       144.1983
2012    7       1       0.772812        148.3388
2012    7       2       0.9165171       164.223
2012    7       3       1.007289        173.1945
2012    7       4       1.002025        173.2321
2012    7       5       0.6673542       135.7451
2012    7       6       0.4604122       105.0023
2012    7       7       0.571904        122.4753
2012    8       0       0.5894291       125.1295
2012    8       1       0.4500531       102.671
2012    8       2       0.3312026       80.75524
2012    8       3       0.2851868       71.84197
2012    8       4       0.2903084       72.51558
2012    8       5       0.3063057       75.27495
2012    8       6       0.3280004       79.31773
2012    8       7       0.470367        104.8468
2012    9       0       0.4781312       105.6835
2012    9       1       0.336819        80.2793
2012    9       2       0.4050477       91.91861
2012    9       3       0.5310289       112.2077
2012    9       4       0.5240121       111.49
2012    9       5       0.4517891       100.6158
2012    9       6       0.4297956       97.813
2012    9       7       0.5050332       110.1026
2012    10      0       0.5892938       123.072
2012    10      1       0.563128        119.5622
2012    10      2       0.4862372       107.7635
2012    10      3       0.4615094       103.1814
2012    10      4       0.4902215       107.313
2012    10      5       0.5684901       119.168
2012    10      6       0.5851888       121.2888
2012    10      7       0.4660262       103.7601
2012    11      0       0.3668051       86.94594
2012    11      1       0.265656        67.24904
2012    11      2       0.3148513       75.89226
2012    11      3       0.4380732       97.17839
2012    11      4       0.4479613       99.37823
2012    11      5       0.3175997       77.11339
2012    11      6       0.2709019       67.80285
2012    11      7       0.2728879       67.85676
2012    12      0       0.306652        74.26509
2012    12      1       0.3642929       85.24611
2012    12      2       0.3623744       85.56845
2012    12      3       0.3614266       85.57043
2012    12      4       0.3182504       77.72774
2012    12      5       0.2841515       71.02448
2012    12      6       0.2639043       67.00114
2012    12      7       0.3014171       74.50044
2012    13      0       0.3154944       77.14423
2012    13      1       0.314195        76.93332
2012    13      2       0.2686462       67.5473
2012    13      3       0.2294433       59.38037
2012    13      4       0.2743094       68.30585
2012    13      5       0.3719245       86.75059
2012    13      6       0.4821664       105.1673
2012    13      7       1.233556        192.2873
2012    14      0       1.696159        220.0346
2012    14      1       1.303375        197.3284
2012    14      2       1.197171        188.7044
2012    14      3       1.262758        190.9049
2012    14      4       1.448276        201.8323
2012    14      5       1.074544        172.2337
2012    14      6       1.181245        183.2531
2012    14      7       0.9768022       167.0324
2012    15      0       0.8079763       148.7693
2012    15      1       0.6419345       129.1486
2012    15      2       0.6529964       130.6014
2012    15      3       0.8120942       150.2256
2012    15      4       0.7401605       141.5643
2012    15      5       0.541386        114.4723
2012    15      6       0.7989621       148.7841
2012    15      7       1.258036        190.6982
2012    16      0       1.15002         183.2581
2012    16      1       0.8253994       152.1539
2012    16      2       0.8001466       150.1153
2012    16      3       0.8095078       150.4435
2012    16      4       1.385632        199.4317
2012    16      5       1.341146        196.9456
2012    16      6       0.7291995       141.5074
2012    16      7       0.534241        113.468
2012    17      0       0.4404436       97.7778
2012    17      1       0.3933788       89.40191
2012    17      2       0.500593        107.5428
2012    17      3       0.6556116       131.9892
2012    17      4       0.6632119       134.2816
2012    17      5       0.5770791       122.719
2012    17      6       0.5298249       115.4493
2012    17      7       0.4659309       104.958
2012    18      0       0.3875747       91.13731
2012    18      1       0.3873013       90.97306
2012    18      2       0.4014261       94.15069
2012    18      3       0.3967632       93.4862
2012    18      4       0.4381224       100.4759
2012    18      5       0.4678662       105.5283
2012    18      6       0.6029798       126.282
2012    18      7       0.7286842       141.8486
2012    19      0       1.086481        177.4499
2012    19      1       1.278001        193.2192
2012    19      2       1.477111        206.0145
2012    19      3       1.303135        196.0145
2012    19      4       0.7043          137.5188
2012    19      5       0.1736807       46.76814
2012    19      6       0.1331406       37.88597
2012    19      7       0.1323833       38.1263
2012    20      0       0.100615        30.85633
2012    20      1       0.1219837       35.80251
2012    20      2       0.1495164       42.35882
2012    20      3       0.1621127       45.46357
2012    20      4       0.1774668       48.90401
2012    20      5       0.2017984       54.01031
2012    20      6       0.2066689       54.6052
2012    20      7       0.2276237       58.76022
2012    21      0       0.2699264       66.60932
2012    21      1       0.286787        69.60015
2012    21      2       0.2425176       61.49804
2012    21      3       0.2173282       56.74301
2012    21      4       0.3607037       84.67634
2012    21      5       0.5605599       118.1779
2012    21      6       0.5414041       116.4585
2012    21      7       0.5833052       122.9968
2012    22      0       0.6895236       137.813
2012    22      1       0.8058427       151.5804
2012    22      2       0.938662        165.4116
2012    22      3       1.313434        195.7773
2012    22      4       1.716488        219.26
2012    22      5       1.342304        197.4962
2012    22      6       0.9951303       170.1503
2012    22      7       0.7559124       144.2472
2012    23      0       0.5427452       115.7244
2012    23      1       0.4842576       107.1187
2012    23      2       0.4200136       96.64979
2012    23      3       0.375243        88.77532
2012    23      4       0.2845742       70.92577
2012    23      5       0.2504024       63.63797
2012    23      6       0.2533855       64.38168
2012    23      7       0.323202        78.53846
2012    24      0       0.3979131       91.48074
2012    24      1       0.3877028       89.40084
2012    24      2       0.4154909       94.99952
2012    24      3       0.8651824       155.9655
2012    24      4       1.145           183.939
2012    24      5       1.285252        194.4426
2012    24      6       0.9473983       165.6479
2012    24      7       0.454257        102.491
2012    25      0       0.2847743       70.88509
2012    25      1       0.3157486       76.79978
2012    25      2       0.442959        99.97961
2012    25      3       0.3829567       88.97897
2012    25      4       0.4378075       97.45837
2012    25      5       0.5362546       113.1058
2012    25      6       0.7368841       140.2312
2012    25      7       0.8725839       155.9346
2012    26      0       0.966632        165.2115
2012    26      1       1.026568        171.5243
2012    26      2       1.159376        182.9559
2012    26      3       1.130631        181.1052
2012    26      4       0.8478376       153.218
2012    26      5       0.7533725       141.0941
2012    26      6       0.6511869       129.1095
2012    26      7       0.517191        110.4384
2012    27      0       0.358269        83.84926
2012    27      1       0.2956249       72.43033
2012    27      2       0.3473248       82.71986
2012    27      3       0.3084855       74.90577
2012    27      4       0.278564        68.39148
2012    27      5       0.3758197       86.08856
2012    27      6       0.5146714       109.0919
2012    27      7       0.655755        128.5778
2012    28      0       0.4971363       106.325
2012    28      1       0.3340164       78.92203
2012    28      2       0.272293        67.18056
2012    28      3       0.2045615       53.74662
2012    28      4       0.1508852       42.36498
2012    28      5       0.175743        47.69849
2012    28      6       0.1814849       49.07279
2012    28      7       0.1832664       49.3469
2012    29      0       0.1467105       41.58977
2012    29      1       0.1560113       43.17157
2012    29      2       0.2221852       56.98657
2012    29      3       0.2535542       63.82206
2012    29      4       0.2766112       68.72993
2012    29      5       0.3516963       82.95882
2012    29      6       0.4218748       95.09286
2012    29      7       0.4284522       96.24467
2012    30      0       0.456749        100.4884
2012    30      1       0.4898294       105.4314
2012    30      2       0.552091        114.4355
2012    30      3       0.5797488       118.721
2012    30      4       0.6545176       128.6347
2012    30      5       0.6911229       133.4522
2012    30      6       0.6084533       123.4765
2012    30      7       0.7467507       141.1454
2012    31      0       1.246435        187.8363
2012    31      1       1.095664        175.1703
2012    31      2       0.966803        162.2802
2012    31      3       0.9095096       156.6236
2012    31      4       1.060762        170.1905
2012    31      5       0.9542073       161.6948
2012    31      6       0.7510827       140.3509
2012    31      7       0.7403044       138.9901
2013    1       0       1.666104        220.1193
2013    1       1       2.009773        234.706
2013    1       2       2.123349        238.8809
2013    1       3       2.184689        241.2519
2013    1       4       2.038681        236.5291
2013    1       5       1.902217        230.5726
2013    1       6       2.222455        242.0074
2013    1       7       1.853768        228.9937
2013    2       0       1.262016        194.4295
2013    2       1       0.7634385       145.9354
2013    2       2       0.4357634       98.52088
2013    2       3       0.259037        65.90263
2013    2       4       0.1957983       52.79391
2013    2       5       0.1481598       42.35468
2013    2       6       0.1520484       43.36188
2013    2       7       0.218584        57.97659
2013    3       0       0.2883437       71.6458
2013    3       1       0.4082516       93.13034
2013    3       2       0.4518772       100.5217
2013    3       3       0.4781382       104.262
2013    3       4       0.465766        102.1595
2013    3       5       0.4742895       104.7522
2013    3       6       0.4996525       109.0339
2013    3       7       0.5753041       120.298
2013    4       0       0.561443        117.8374
2013    4       1       0.5556704       117.0215
2013    4       2       0.5857651       122.0297
2013    4       3       0.6236115       127.3536
2013    4       4       0.7454723       143.4968
2013    4       5       0.6022119       124.0541
2013    4       6       0.7626616       145.3581
2013    4       7       1.361007        199.656
2013    5       0       1.406447        201.7296
2013    5       1       1.164592        184.4931
2013    5       2       1.062305        175.6579
2013    5       3       1.089559        177.4643
2013    5       4       1.186465        184.6738
2013    5       5       0.9953323       167.6514
2013    5       6       0.4545038       100.8238
2013    5       7       0.3629199       84.68265
2013    6       0       0.3512149       81.93949
2013    6       1       0.1771785       48.23969
2013    6       2       0.1137648       33.91228
2013    6       3       0.1336494       38.59284
2013    6       4       0.1729901       47.31889
2013    6       5       0.197325        52.67735
2013    6       6       0.2180289       57.12197
2013    6       7       0.2440245       62.34931
2013    7       0       0.2544641       64.69812
2013    7       1       0.2171211       57.24533
2013    7       2       0.2225614       58.05795
2013    7       3       0.2513627       63.63763
2013    7       4       0.3821718       88.21476
2013    7       5       0.582757        120.5191
2013    7       6       0.4912232       107.5332
2013    7       7       0.3725624       87.92684
2013    8       0       0.2505968       64.46403
2013    8       1       0.2564452       65.20082
2013    8       2       0.2803145       68.23824
2013    8       3       0.2818704       68.75611
2013    8       4       0.247112        62.65278
2013    8       5       0.3239122       76.76488
2013    8       6       0.4590394       99.21789
2013    8       7       0.4846381       103.9075
2013    9       0       0.4880887       104.8375
2013    9       1       0.8325838       150.4479
2013    9       2       0.9404012       162.5759
2013    9       3       0.9146106       160.3428
2013    9       4       0.7615233       142.6207
2013    9       5       0.3713027       84.6521
2013    9       6       0.1586517       43.38784
2013    9       7       0.1275634       36.28175
2013    10      0       0.1251569       35.70646
2013    10      1       0.1352862       37.8557
2013    10      2       0.2159615       54.48684
2013    10      3       0.4234803       91.94158
2013    10      4       0.7242572       135.0953
2013    10      5       0.8507312       151.5992
2013    10      6       0.8180095       148.7495
2013    10      7       0.8246327       150.2248
2013    11      0       0.8007109       148.346
2013    11      1       0.8192863       151.279
2013    11      2       0.8734987       157.7465
2013    11      3       0.9550201       166.7846
2013    11      4       0.862255        157.5998
2013    11      5       0.7668612       146.8531
2013    11      6       0.7394839       143.7286
2013    11      7       0.8449127       156.6565
2013    12      0       0.89475         162.5327
2013    12      1       0.9413857       167.7257
2013    12      2       0.9762605       171.6117
2013    12      3       0.9177877       165.7103
2013    12      4       0.9530668       169.2664
2013    12      5       0.8280459       155.3839
2013    12      6       0.7445499       144.9401
2013    12      7       0.6508599       132.2688
2013    13      0       0.4028443       93.56336
2013    13      1       0.344719        82.70522
2013    13      2       0.4372968       98.88426
2013    13      3       0.5542437       116.8632
2013    13      4       0.3887501       90.16602
2013    13      5       0.2697721       68.11821
2013    13      6       0.2552873       65.04241
2013    13      7       0.3332572       80.46292
2013    14      0       0.3810597       89.19535
2013    14      1       0.3200358       77.91781
2013    14      2       0.2641897       67.06312
2013    14      3       0.2238285       58.83386
2013    14      4       0.1956408       52.96603
2013    14      5       0.2180785       57.751
2013    14      6       0.2802538       69.99652
2013    14      7       0.2854757       71.04693
2013    15      0       0.1822284       50.37292
2013    15      1       0.1579945       45.1367
2013    15      2       0.1576738       44.94742
2013    15      3       0.167293        46.99978
2013    15      4       0.2044754       55.31677
2013    15      5       0.3149018       78.34145
2013    15      6       0.4925246       110.5343
2013    15      7       0.5661585       122.4108
2013    16      0       0.4896514       110.5456
2013    16      1       0.409825        96.60901
2013    16      2       0.3859261       91.99545
2013    16      3       0.3638118       87.75797
2013    16      4       0.3451394       84.06729
2013    16      5       0.3248306       80.29961
2013    16      6       0.3385594       82.50781
2013    16      7       0.3746083       88.97201
2013    17      0       0.4276133       98.21524
2013    17      1       0.4236974       97.90909
2013    17      2       0.3931041       92.06685
2013    17      3       0.3969091       91.90847
2013    17      4       0.3882957       90.11618
2013    17      5       0.3619492       85.05315
2013    17      6       0.3539398       83.38995
2013    17      7       0.3679951       86.16169
2013    18      0       0.3622185       85.34694
2013    18      1       0.3501558       82.63218
2013    18      2       0.371198        86.16958
2013    18      3       0.3832436       88.20395
2013    18      4       0.4315301       96.18518
2013    18      5       0.4852497       105.0546
2013    18      6       0.5104308       109.0304
2013    18      7       0.6904513       133.7079
2013    19      0       0.9369912       163.73
2013    19      1       0.933312        164.5363
2013    19      2       0.6239873       126.3106
2013    19      3       0.4952323       108.117
2013    19      4       0.4250597       95.64687
2013    19      5       0.3540615       83.42217
2013    19      6       0.3784696       88.13299
2013    19      7       0.3189288       77.68833
2013    20      0       0.4818317       106.3037
2013    20      1       0.7190262       139.7975
2013    20      2       0.9131996       161.6548
2013    20      3       1.245265        190.3888
2013    20      4       1.355596        196.7667
2013    20      5       1.149584        180.2935
2013    20      6       0.9608217       162.9817
2013    20      7       0.9346782       160.3069
2013    21      0       0.8149683       147.3318
2013    21      1       0.6818667       131.5311
2013    21      2       0.7208505       137.0403
2013    21      3       0.8826895       156.334
2013    21      4       0.8152196       148.4474
2013    21      5       0.8346887       150.8264
2013    21      6       0.8429964       152.4733
2013    21      7       0.9449739       163.8403
2013    22      0       0.7957641       147.864
2013    22      1       0.6086804       124.3383
2013    22      2       0.5833633       120.5281
2013    22      3       0.3983264       91.46786
2013    22      4       0.275656        68.44731
2013    22      5       0.2336942       59.53365
2013    22      6       0.260269        65.06076
2013    22      7       0.2906739       71.30414
2013    23      0       0.3438188       81.78037
2013    23      1       0.4212335       95.97688
2013    23      2       0.4409066       99.84132
2013    23      3       0.3492011       84.0321
2013    23      4       0.2553789       65.81244
2013    23      5       0.2020414       54.29025
2013    23      6       0.1825396       49.71008
2013    23      7       0.1826995       49.63464
2013    24      0       0.1741538       47.59978
2013    24      1       0.1679222       46.0796
2013    24      2       0.1632209       45.0568
2013    24      3       0.1630039       45.17913
2013    24      4       0.1643436       45.60819
2013    24      5       0.1920265       51.87555
2013    24      6       0.2359616       61.47693
2013    24      7       0.2884195       72.21854
2013    25      0       0.3816824       89.72847
2013    25      1       0.5282349       113.9178
2013    25      2       0.6057597       125.1177
2013    25      3       0.564073        119.0601
2013    25      4       0.3536692       84.85923
2013    25      5       0.1556908       44.15163
2013    25      6       0.1252617       36.93376
2013    25      7       0.129223        37.8172
2013    26      0       0.139311        40.07958
2013    26      1       0.1554015       43.75305
2013    26      2       0.1745157       48.06528
2013    26      3       0.1889715       51.28242
2013    26      4       0.1918033       51.95305
2013    26      5       0.179149        49.25975
2013    26      6       0.168507        46.8316
2013    26      7       0.1935676       52.18334
2013    27      0       0.1938917       52.18833
2013    27      1       0.1710669       47.36467
2013    27      2       0.1752706       48.12508
2013    27      3       0.2295106       59.21565
2013    27      4       0.3140019       76.05509
2013    27      5       0.3085906       75.57914
2013    27      6       0.2715711       68.32426
2013    27      7       0.2619224       66.38594
2013    28      0       0.2277745       59.625
2013    28      1       0.1947581       52.69306
2013    28      2       0.1715074       47.64499
2013    28      3       0.1754307       48.30861
2013    28      4       0.1892557       51.01995
2013    28      5       0.2156158       56.18862
2013    28      6       0.2773752       68.69278
2013    28      7       0.3697581       85.39866
2013    29      0       0.4761334       102.8948
2013    29      1       0.5563976       114.4017
2013    29      2       0.8249705       148.3941
2013    29      3       1.009801        168.162
2013    29      4       0.6513273       128.6238
2013    29      5       0.5493184       114.3782
2013    29      6       0.6083602       122.7942
2013    29      7       0.7666005       143.4597
2013    30      0       0.7171094       138.1694
2013    30      1       0.5723367       119.4162
2013    30      2       0.3691075       86.92162
2013    30      3       0.2568532       65.3949
2013    30      4       0.2444534       62.767
2013    30      5       0.2551548       64.36535
2013    30      6       0.3399364       81.13265
2013    30      7       0.3907151       90.85471
2013    31      0       0.3846005       89.97791
2013    31      1       0.3522597       84.2361
2013    31      2       0.3337804       80.68921
2013    31      3       0.364763        85.96415
2013    31      4       0.4242942       96.25145
2013    31      5       0.4663054       103.272
2013    31      6       0.4829366       105.942
2013    31      7       0.4699421       104.2375
2014    1       0       0.4485315       101.4825
2014    1       1       0.4477283       102.7688
2014    1       2       0.3153452       78.75054
2014    1       3       0.216345        57.87835
2014    1       4       0.1665483       46.15616
2014    1       5       0.1711726       46.54322
2014    1       6       0.2193148       56.36258
2014    1       7       0.2804572       68.20017
2014    2       0       0.3659161       83.21127
2014    2       1       0.4603641       98.96877
2014    2       2       0.3325756       77.46198
2014    2       3       0.4319166       94.53221
2014    2       4       0.5583971       114.7719
2014    2       5       0.8834073       156.3709
2014    2       6       1.139414        182.4278
2014    2       7       1.847852        227.208
2014    3       0       2.548061        250.3686
2014    3       1       3.200437        262.0316
2014    3       2       2.427226        248.7716
2014    3       3       1.809464        229.373
2014    3       4       1.782656        228.3575
2014    3       5       1.443767        210.5631
2014    3       6       1.78648         229.8657
2014    3       7       1.950011        235.7985
2014    4       0       1.644933        222.1528
2014    4       1       1.484624        212.1992
2014    4       2       1.715667        224.5804
2014    4       3       2.058077        238.1761
2014    4       4       2.704374        253.4051
2014    4       5       2.560814        250.2631
2014    4       6       2.320873        245.6834
2014    4       7       1.8215          228.4667
2014    5       0       1.408753        206.6509
2014    5       1       0.4464666       101.8851
2014    5       2       0.290837        72.90098
2014    5       3       0.3234404       79.29327
2014    5       4       0.3554874       84.39361
2014    5       5       0.4186657       94.16734
2014    5       6       0.4234528       95.19812
2014    5       7       0.432071        96.68352
2014    6       0       0.3583164       83.90683
2014    6       1       0.3567886       82.97752
2014    6       2       0.3481741       82.21356
2014    6       3       0.3689267       86.32586
2014    6       4       0.5487266       114.7644
2014    6       5       0.9503287       163.8099
2014    6       6       1.665137        216.666
2014    6       7       1.828434        227.225
2014    7       0       1.185143        189.1532
2014    7       1       0.8895751       162.0058
2014    7       2       0.8545465       158.449
2014    7       3       0.8074929       153.1714
2014    7       4       0.5232184       115.0217
2014    7       5       0.2947747       74.9201
2014    7       6       0.2077196       56.23093
2014    7       7       0.1895834       51.81352
2014    8       0       0.1835841       49.87898
2014    8       1       0.1832564       49.63659
2014    8       2       0.1941968       52.39165
2014    8       3       0.1859642       50.17354
2014    8       4       0.2160649       56.69008
2014    8       5       0.2699475       68.28712
2014    8       6       0.3935999       91.70222
2014    8       7       0.5271099       115.0638
2014    9       0       0.6681382       134.7457
2014    9       1       0.8399033       154.9613
2014    9       2       0.8921182       159.0572
2014    9       3       1.056458        173.1895
2014    9       4       0.9469113       163.6608
2014    9       5       0.8256679       152.4684
2014    9       6       1.02651         173.599
2014    9       7       1.052749        176.7177
2014    10      0       0.815192        152.6695
2014    10      1       0.6162847       126.512
2014    10      2       0.5685542       118.3812
2014    10      3       0.4996704       107.7211
2014    10      4       0.4508276       100.1027
2014    10      5       0.4310519       97.39564
2014    10      6       0.4034639       92.96809
2014    10      7       0.4982301       109.8151
2014    11      0       0.5256023       114.7706
2014    11      1       0.4517592       103.0853
2014    11      2       0.3464612       84.03524
2014    11      3       0.2847405       71.95675
2014    11      4       0.2652281       67.87341
2014    11      5       0.2747685       69.18509
2014    11      6       0.346886        82.28246
2014    11      7       0.5028291       109.1339
2014    12      0       0.6578304       131.7915
2014    12      1       0.7294124       140.8915
2014    12      2       0.8425582       153.8876
2014    12      3       1.010468        170.9874
2014    12      4       0.9532632       165.1898
2014    12      5       0.7498594       143.2546
2014    12      6       0.6544508       132.4959
2014    12      7       0.8263912       154.5433
2014    13      0       0.6314196       129.4722
2014    13      1       0.5624476       118.4957
2014    13      2       0.5716118       119.0669
2014    13      3       0.5139371       111.1696
2014    13      4       0.7547366       145.747
2014    13      5       0.9259637       165.6898
2014    13      6       0.9515826       167.9754
2014    13      7       1.045922        176.6417
2014    14      0       0.5865017       122.413
2014    14      1       0.282973        70.47518
2014    14      2       0.1931558       51.74515
2014    14      3       0.2293366       58.68713
2014    14      4       0.2690629       66.52625
2014    14      5       0.3563046       82.40285
2014    14      6       0.520085        109.9817
2014    14      7       0.5392287       113.892
2014    15      0       0.4729235       104.145
2014    15      1       0.4875178       106.965
2014    15      2       0.6578215       132.618
2014    15      3       0.8428661       155.7454
2014    15      4       0.9192348       164.394
2014    15      5       0.9516834       167.5599
2014    15      6       1.009133        172.1582
2014    15      7       0.7577993       143.9057
2014    16      0       0.5104434       107.6807
2014    16      1       0.493621        104.6787
2014    16      2       0.6374209       125.8534
2014    16      3       0.7871049       145.2352
2014    16      4       0.8502923       152.6859
2014    16      5       0.7969892       147.4497
2014    16      6       0.9240123       161.7032
2014    16      7       0.8769034       157.1939
2014    17      0       0.8086284       150.0797
2014    17      1       0.8727351       155.88
2014    17      2       0.8821004       155.198
2014    17      3       1.287027        191.4385
2014    17      4       1.066954        174.4811
2014    17      5       0.9763956       167.0495
2014    17      6       1.283315        193.0138
2014    17      7       1.275609        193.5623
2014    18      0       1.080769        177.3693
2014    18      1       0.6871038       133.6249
2014    18      2       0.7822215       145.3028
2014    18      3       1.222386        187.3837
2014    18      4       1.396173        198.7322
2014    18      5       1.261618        188.4952
2014    18      6       1.675929        215.5732
2014    18      7       1.4113          200.8633
2014    19      0       1.077018        176.503
2014    19      1       0.5446656       115.3977
2014    19      2       0.3345209       80.48266
2014    19      3       0.2710269       67.64299
2014    19      4       0.2957829       72.23379
2014    19      5       0.3106426       74.91402
2014    19      6       0.3272023       77.92716
2014    19      7       0.3620054       84.31884
2014    20      0       0.344789        81.50451
2014    20      1       0.3766656       87.4411
2014    20      2       0.4236488       96.15571
2014    20      3       0.4743485       104.7845
2014    20      4       0.5879384       120.8946
2014    20      5       0.6955494       135.0071
2014    20      6       0.5207345       112.2471
2014    20      7       0.50269         109.8153
2014    21      0       0.6323721       128.5671
2014    21      1       0.9731635       168.6102
2014    21      2       1.163105        186.454
2014    21      3       1.221417        191.9371
2014    21      4       1.072527        180.4158
2014    21      5       0.9543958       169.5021
2014    21      6       0.7870532       151.6193
2014    21      7       0.8343318       157.1975
2014    22      0       0.7640429       149.7874
2014    22      1       0.7884894       151.0065
2014    22      2       0.8031568       152.8023
2014    22      3       0.8934192       163.5729
2014    22      4       0.944394        169.2514
2014    22      5       0.7821774       150.9303
2014    22      6       0.6165152       129.1315
2014    22      7       0.6535869       134.2101
2014    23      0       0.6557445       134.3394
2014    23      1       0.6048157       127.0426
2014    23      2       0.5933667       125.1458
2014    23      3       0.5532178       118.6372
2014    23      4       0.3720786       88.27124
2014    23      5       0.2931366       72.75929
2014    23      6       0.3066001       75.39647
2014    23      7       0.3303394       79.89845
2014    24      0       0.3715464       87.53567
2014    24      1       0.2960877       73.73986
2014    24      2       0.2727999       69.27151
2014    24      3       0.2718313       69.00686
2014    24      4       0.2958911       73.14942
2014    24      5       0.3163708       76.6499
2014    24      6       0.2820034       70.20182
2014    24      7       0.2421056       62.34665
2014    25      0       0.2888857       71.57972
2014    25      1       0.5726528       120.548
2014    25      2       0.8113009       150.9838
2014    25      3       0.719078        138.6666
2014    25      4       0.8328826       152.3978
2014    25      5       0.6998213       137.9925
2014    25      6       0.5326501       114.414
2014    25      7       0.9899952       171.0249
2014    26      0       1.295538        195.9768
2014    26      1       1.208882        188.7062
2014    26      2       1.049442        174.0273
2014    26      3       0.8831458       156.7741
2014    26      4       0.5013337       107.4908
2014    26      5       0.2556411       64.17721
2014    26      6       0.2068665       53.75686
2014    26      7       0.2493627       62.49875
2014    27      0       0.2138461       55.52999
2014    27      1       0.1626949       44.62106
2014    27      2       0.1564771       43.14452
2014    27      3       0.1583608       43.53657
2014    27      4       0.1742456       46.91014
2014    27      5       0.1765966       47.40138
2014    27      6       0.1527614       42.34647
2014    27      7       0.168631        46.24637
2014    28      0       0.1495403       41.82714
2014    28      1       0.1696778       45.81824
2014    28      2       0.2955563       71.47467
2014    28      3       0.383539        87.7724
2014    28      4       0.367654        85.16368
2014    28      5       0.4252122       95.28467
2014    28      6       0.5930242       120.8274
2014    28      7       0.7261212       138.1807
2014    29      0       0.8581721       153.1436
2014    29      1       0.8598576       154.0766
2014    29      2       0.7859246       146.7003
2014    29      3       0.6618527       132.144
2014    29      4       0.468359        105.1944
2014    29      5       0.2686316       69.20478
2014    29      6       0.109088        33.1022
2014    29      7       0.1019444       31.06775
2014    30      0       0.1089525       32.87923
2014    30      1       0.1159242       34.58223
2014    30      2       0.1197536       35.66861
2014    30      3       0.1672888       46.88828
2014    30      4       0.2522913       64.13863
2014    30      5       0.2847311       69.82902
2014    30      6       0.2598842       64.81372
2014    30      7       0.397066        90.87367
2014    31      0       0.5406385       113.5724
2014    31      1       0.7073833       136.8636
2014    31      2       0.787563        146.6228
2014    31      3       0.7460476       141.9082
2014    31      4       0.7673142       144.9871
2014    31      5       0.7027568       136.6241
2014    31      6       0.5927872       122.4908
2014    31      7       0.9765278       169.7436
2015    1       0       0.2522347       62.81623
2015    1       1       0.2756217       68.17242
2015    1       2       0.3435192       80.85875
2015    1       3       0.3540042       83.47972
2015    1       4       0.3082233       76.10825
2015    1       5       0.2222181       58.58636
2015    1       6       0.2647036       67.41549
2015    1       7       0.2313827       60.63655
2015    2       0       0.200555        54.07763
2015    2       1       0.2191629       57.82281
2015    2       2       0.21509         56.94957
2015    2       3       0.194858        52.60126
2015    2       4       0.1504755       42.82753
2015    2       5       0.1341847       39.20806
2015    2       6       0.1234853       36.68517
2015    2       7       0.1298244       37.55495
2015    3       0       0.1236247       36.06837
2015    3       1       0.1506808       42.14286
2015    3       2       0.2029574       53.52732
2015    3       3       0.2878399       70.38769
2015    3       4       0.3187392       76.83007
2015    3       5       0.3172512       77.05215
2015    3       6       0.2915094       72.39408
2015    3       7       0.2773832       69.48857
2015    4       0       0.3010333       74.09105
2015    4       1       0.3808293       89.00522
2015    4       2       0.5098922       110.5129
2015    4       3       0.5958556       123.9711
2015    4       4       0.6228098       128.0895
2015    4       5       0.5092255       111.9984
2015    4       6       0.517424        113.4525
2015    4       7       0.595506        125.0128
2015    5       0       0.5512965       118.197
2015    5       1       0.4805432       106.5607
2015    5       2       0.4595013       102.6059
2015    5       3       0.5925359       121.9353
2015    5       4       0.3713859       87.90817
2015    5       5       0.1912334       52.26442
2015    5       6       0.1441918       41.09079
2015    5       7       0.1421559       40.97433
2015    6       0       0.1449794       41.89117
2015    6       1       0.1441507       41.47783
2015    6       2       0.1673291       46.71932
2015    6       3       0.1651533       46.06893
2015    6       4       0.1453577       41.62496
2015    6       5       0.1268934       37.2683
2015    6       6       0.135893        39.24516
2015    6       7       0.1599577       44.74684
2015    7       0       0.1630257       45.33408
2015    7       1       0.1410137       39.98802
2015    7       2       0.1531959       42.38568
2015    7       3       0.1698024       45.93532
2015    7       4       0.2020318       52.75253
2015    7       5       0.2137821       55.12539
2015    7       6       0.2109475       54.79982
2015    7       7       0.2367686       61.24241
2015    8       0       0.2200556       58.47029
2015    8       1       0.1649385       45.91326
2015    8       2       0.1483985       42.24659
2015    8       3       0.1226988       36.33035
2015    8       4       0.1421722       40.15238
2015    8       5       0.2692312       66.97112
2015    8       6       0.4438366       99.95771
2015    8       7       0.6089485       126.8791
2015    9       0       0.6350702       131.9117
2015    9       1       0.6479715       133.9321
2015    9       2       0.7129583       142.5132
2015    9       3       0.8056525       154.2084
2015    9       4       0.9387698       169.1776
2015    9       5       1.098428        185.6817
2015    9       6       1.027395        179.2686
2015    9       7       0.9415727       170.9896
2015    10      0       0.7202479       144.9069
2015    10      1       0.4470138       103.1547
2015    10      2       0.3256411       80.55776
2015    10      3       0.3273028       80.69301
2015    10      4       0.3367973       82.31568
2015    10      5       0.3160138       78.34585
2015    10      6       0.3426127       83.77658
2015    10      7       0.4064501       95.78614
2015    11      0       0.3829456       91.4195
2015    11      1       0.3744943       89.75252
2015    11      2       0.3712311       89.08655
2015    11      3       0.359571        86.42951
2015    11      4       0.4590335       103.2396
2015    11      5       0.4416709       100.3645
2015    11      6       0.5508214       116.9697
2015    11      7       0.7941673       148.2887
2015    12      0       1.09988         179.9219
2015    12      1       1.380495        200.1926
2015    12      2       1.851682        225.9581
2015    12      3       1.547758        210.0794
2015    12      4       0.5931352       120.9265
2015    12      5       0.506481        107.126
2015    12      6       0.901485        156.764
2015    12      7       0.9577379       162.1499
2015    13      0       0.856502        152.3255
2015    13      1       0.6589618       129.1824
2015    13      2       0.3630003       84.77121
2015    13      3       0.1906565       51.16257
2015    13      4       0.2148496       56.57457
2015    13      5       0.3609569       85.88444
2015    13      6       0.5131958       112.5703
2015    13      7       0.6023317       126.5489
2015    14      0       0.499059        110.8966
2015    14      1       0.3138866       77.90018
2015    14      2       0.2270499       59.79071
2015    14      3       0.3160394       77.56074
2015    14      4       0.4539212       102.44
2015    14      5       0.6193602       127.5223
2015    14      6       1.0088          172.3925
2015    14      7       0.5734349       119.7763
2015    15      0       0.3168267       76.27859
2015    15      1       0.2033077       53.75497
2015    15      2       0.2164972       56.31232
2015    15      3       0.2671429       66.41456
2015    15      4       0.2535159       63.48628
2015    15      5       0.1688588       46.04315
2015    15      6       0.1428816       40.33453
2015    15      7       0.1903821       50.68619
2015    16      0       0.1632331       45.10918
2015    16      1       0.1270917       36.916
2015    16      2       0.1206106       35.41614
2015    16      3       0.1406109       39.93307
2015    16      4       0.1639464       45.08028
2015    16      5       0.151749        42.43864
2015    16      6       0.1161046       34.39502
2015    16      7       0.1303537       37.52433
2015    17      0       0.176436        47.19643
2015    17      1       0.2269885       57.9519
2015    17      2       0.2262175       58.73969
2015    17      3       0.227772        59.14388
2015    17      4       0.2013047       53.40579
2015    17      5       0.2957484       72.21931
2015    17      6       0.3418402       80.6788
2015    17      7       0.4166781       94.0546
2015    18      0       0.4999191       109.2618
2015    18      1       0.5436918       117.0674
2015    18      2       0.5816737       123.0839
2015    18      3       0.5976948       125.6784
2015    18      4       0.6183462       128.6617
2015    18      5       0.5135103       113.8006
2015    18      6       0.4427819       102.5299
2015    18      7       0.4304636       100.4112
2015    19      0       0.3199245       79.9304
2015    19      1       0.2240689       59.78403
2015    19      2       0.28745         72.62012
2015    19      3       0.3842785       90.77277
2015    19      4       0.4560926       102.4384
2015    19      5       0.3932297       90.07651
2015    19      6       0.5190124       108.2989
2015    19      7       0.7090924       135.1657
2015    20      0       1.248086        190.2811
2015    20      1       0.7013487       138.3954
2015    20      2       0.5158648       111.1735
2015    20      3       0.392191        89.83771
2015    20      4       0.3264974       77.61244
2015    20      5       0.3299616       78.76605
2015    20      6       0.3581795       84.57252
2015    20      7       0.3709904       87.95647
2015    21      0       0.4505977       102.1174
2015    21      1       0.4145196       95.82678
2015    21      2       0.5987525       124.0607
2015    21      3       0.7551146       146.563
2015    21      4       0.4645707       105.1177
2015    21      5       0.3817544       89.58191
2015    21      6       0.3005735       73.73092
2015    21      7       0.377327        87.86765
2015    22      0       0.6688972       132.7234
2015    22      1       0.8163425       152.1949
2015    22      2       0.7828966       148.4063
2015    22      3       0.9188093       163.4747
2015    22      4       1.129503        183.1778
2015    22      5       1.607826        216.6606
2015    22      6       1.955231        232.3943
2015    22      7       1.851491        228.7541
2015    23      0       1.640953        219.5749
2015    23      1       1.499626        212.3689
2015    23      2       1.61643         218.1021
2015    23      3       1.486235        210.5914
2015    23      4       1.295322        197.9447
2015    23      5       0.920099        165.2032
2015    23      6       0.7621641       147.1601
2015    23      7       0.8432403       156.7908
2015    24      0       0.8934975       161.8546
2015    24      1       0.9331389       165.9959
2015    24      2       0.9141752       163.8325
2015    24      3       0.7136717       141.2302
2015    24      4       0.4666647       105.7283
2015    24      5       0.4677788       105.4068
2015    24      6       0.3934728       92.37515
2015    24      7       0.3472734       83.26605
2015    25      0       0.3095593       74.74075
2015    25      1       0.2908473       70.44318
2015    25      2       0.2525849       63.05832
2015    25      3       0.1600237       44.05286
2015    25      4       0.1179419       34.52839
2015    25      5       0.07945812      25.89318
2015    25      6       0.1077108       32.4858
2015    25      7       0.1515237       42.76115
2015    26      0       0.1591541       43.9308
2015    26      1       0.182486        49.42139
2015    26      2       0.2325548       60.19589
2015    26      3       0.3258106       77.28264
2015    26      4       0.3516424       80.99899
2015    26      5       0.3984193       88.26683
2015    26      6       0.2761142       66.8789
2015    26      7       0.2051014       53.17152
2015    27      0       0.2982769       71.1908
2015    27      1       0.3443064       79.41583
2015    27      2       0.3962867       88.78347
2015    27      3       0.4744045       101.9932
2015    27      4       0.4155044       93.83304
2015    27      5       0.4469597       99.61629
2015    27      6       0.4617185       103.1181
2015    27      7       0.4171218       96.39439
2015    28      0       0.4384458       100.0946
2015    28      1       0.4399419       100.1395
2015    28      2       0.4968952       108.6869
2015    28      3       0.5612242       117.3286
2015    28      4       0.4506562       101.0284
2015    28      5       0.3087696       75.61792
2015    28      6       0.2323606       59.65814
2015    28      7       0.2653223       65.53449
2015    29      0       0.3058768       73.1377
2015    29      1       0.3306902       77.95722
2015    29      2       0.3505838       81.96275
2015    29      3       0.4102767       91.94781
2015    29      4       0.7214565       135.5744
2015    29      5       0.9646224       162.5419
2015    29      6       0.6576126       128.9679
2015    29      7       0.4367642       97.34511
2015    30      0       0.2153175       56.3685
2015    30      1       0.2302843       59.54132
2015    30      2       0.2804107       69.65234
2015    30      3       0.2990935       73.42287
2015    30      4       0.2625573       66.63765
2015    30      5       0.247033        63.34119
2015    30      6       0.2418328       62.25899
2015    30      7       0.2434041       62.38545
2015    31      0       0.2517995       63.95794
2015    31      1       0.2611893       65.61162
2015    31      2       0.339596        79.89175
2015    31      3       0.4233365       94.56448
2015    31      4       0.4725924       102.831
2015    31      5       0.4737732       102.887
2015    31      6       0.4608623       100.638
2015    31      7       0.4093643       91.90587
2016    1       0       0.533821        114.6277
2016    1       1       0.6204348       126.5328
2016    1       2       0.4976295       108.974
2016    1       3       0.4025735       93.25741
2016    1       4       0.5709735       118.4651
2016    1       5       0.5540533       117.0421
2016    1       6       0.5162919       111.3897
2016    1       7       0.7101265       138.3696
2016    2       0       0.8640263       156.2975
2016    2       1       0.8567731       155.0225
2016    2       2       0.8779383       156.3823
2016    2       3       0.874063        155.8274
2016    2       4       0.6578087       130.4353
2016    2       5       0.5552644       115.9382
2016    2       6       0.6297734       126.178
2016    2       7       0.9734941       165.2628
2016    3       0       1.281998        190.9493
2016    3       1       1.296223        192.9246
2016    3       2       1.190503        185.4914
2016    3       3       1.105913        178.648
2016    3       4       1.037164        172.4246
2016    3       5       0.954154        165.0382
2016    3       6       1.143489        183.3534
2016    3       7       1.224054        190.5426
2016    4       0       0.9761859       169.7329
2016    4       1       0.8162903       152.6494
2016    4       2       0.668484        134.7266
2016    4       3       0.4391797       100.0617
2016    4       4       0.3046555       75.31922
2016    4       5       0.220688        57.77303
2016    4       6       0.2688716       67.32435
2016    4       7       0.3556449       83.9903
2016    5       0       0.4106611       94.10715
2016    5       1       0.4565738       102.3791
2016    5       2       0.5712532       120.4944
2016    5       3       0.8123637       152.0426
2016    5       4       0.8337141       153.8686
2016    5       5       0.8510268       155.0696
2016    5       6       0.8281829       153.3345
2016    5       7       0.9402971       165.7014
2016    6       0       1.039359        175.1151
2016    6       1       1.228572        190.8746
2016    6       2       1.273283        194.706
2016    6       3       1.31055         197.3454
2016    6       4       1.116554        181.3671
2016    6       5       1.104962        180.2905
2016    6       6       1.212437        188.4575
2016    6       7       1.45294         205.3446
2016    7       0       1.492853        208.6116
2016    7       1       1.386975        202.8351
2016    7       2       1.347028        200.9681
2016    7       3       1.637684        216.8181
2016    7       4       1.640876        217.006
2016    7       5       1.283287        195.8005
2016    7       6       1.322932        197.8146
2016    7       7       1.509238        208.4024
2016    8       0       1.562906        210.9156
2016    8       1       1.325786        196.4548
2016    8       2       1.010048        170.5538
2016    8       3       0.7702856       145.1673
2016    8       4       0.7449202       143.133
2016    8       5       0.7789325       149.0788
2016    8       6       0.8359467       156.78
2016    8       7       0.8868397       162.5018
2016    9       0       0.7909707       151.2375
2016    9       1       0.6457468       132.2004
2016    9       2       0.6656643       134.911
2016    9       3       0.7329189       144.2045
2016    9       4       0.6782334       136.7366
2016    9       5       0.641738        130.6682
2016    9       6       0.6609138       133.226
2016    9       7       0.5432213       116.6219
2016    10      0       0.4415635       100.2046
2016    10      1       0.4557689       101.8243
2016    10      2       0.5016679       108.9601
2016    10      3       0.5382874       114.42
2016    10      4       0.4396558       99.8861
2016    10      5       0.3806799       89.97028
2016    10      6       0.4526517       102.614
2016    10      7       0.517209        113.2989
2016    11      0       0.470626        106.1621
2016    11      1       0.6995926       139.8049
2016    11      2       1.259232        196.9302
2016    11      3       1.425164        208.9934
2016    11      4       1.409289        207.6621
2016    11      5       1.655738        221.2083
2016    11      6       2.071341        239.0197
2016    11      7       1.761088        225.8845
2016    12      0       1.376971        204.4804
2016    12      1       1.183594        190.6709
2016    12      2       1.347242        203.0612
2016    12      3       1.609455        219.0334
2016    12      4       1.651089        221.0141
2016    12      5       1.560157        217.0063
2016    12      6       1.217629        194.6353
2016    12      7       1.198743        192.6948
2016    13      0       1.194055        191.7674
2016    13      1       1.417051        206.9043
2016    13      2       0.8943658       160.8669
2016    13      3       0.7549839       144.9052
2016    13      4       0.7836503       148.7413
2016    13      5       0.7440778       144.5918
2016    13      6       0.6728062       135.7852
2016    13      7       0.7428231       144.9545
2016    14      0       0.7828498       149.9726
2016    14      1       0.8915425       162.7213
2016    14      2       0.9722447       172.2612
2016    14      3       0.9534534       170.8251
2016    14      4       1.001749        175.9502
2016    14      5       1.03246         178.827
2016    14      6       0.959082        172.0838
2016    14      7       0.814678        156.456
2016    15      0       0.6323859       132.6954
2016    15      1       0.4819714       109.1319
2016    15      2       0.4687373       106.5449
2016    15      3       0.4470704       102.6975
2016    15      4       0.4699072       106.1974
2016    15      5       0.4727653       106.4111
2016    15      6       0.5108985       111.7792
2016    15      7       0.6509286       132.3391
2016    16      0       0.7102347       140.2908
2016    16      1       0.7441164       143.6908
2016    16      2       0.8826423       159.2755
2016    16      3       0.9607568       166.4938
2016    16      4       2.088644        236.1496
2016    16      5       1.457151        209.9323
2016    16      6       1.274995        196.9446
2016    16      7       1.462359        210.2082
2016    17      0       0.9335902       167.6198
2016    17      1       0.7768941       148.5665
2016    17      2       0.8349681       155.9083
2016    17      3       1.735107        224.1521
2016    17      4       1.553692        213.5865
2016    17      5       0.09680812      30.22465
2016    17      6       0.09884926      30.61624
2016    17      7       0.1143178       34.01277
2016    18      0       0.1109996       32.77983
2016    18      1       0.136245        38.04685
2016    18      2       0.1521462       41.50349
2016    18      3       0.1579677       42.6808
2016    18      4       0.1461912       40.18337
2016    18      5       0.1437014       39.72387
2016    18      6       0.156649        42.58351
2016    18      7       0.2804636       69.20111
2016    19      0       0.4612887       101.8006
2016    19      1       0.5030864       107.9006
2016    19      2       0.5879166       118.9557
2016    19      3       0.7390002       139.1997
2016    19      4       0.6809508       132.6213
2016    19      5       0.6879318       134.4188
2016    19      6       0.9322213       163.7447
2016    19      7       1.150198        184.5186
2016    20      0       1.112504        182.5129
2016    20      1       1.038089        175.5442
2016    20      2       1.039           175.7589
2016    20      3       0.9035251       161.4408
2016    20      4       0.8236491       152.7976
2016    20      5       0.9487754       166.8361
2016    20      6       1.098593        182.017
2016    20      7       1.210522        190.742
2016    21      0       1.779772        224.7989
2016    21      1       2.569309        252.096
2016    21      2       3.227551        263.388
2016    21      3       3.672737        268.5433
2016    21      4       3.089961        262.2048
2016    21      5       3.502352        266.0605
2016    21      6       3.323329        265.0685
2016    21      7       2.63367         255.6027
2016    22      0       1.738723        226.7031
2016    22      1       1.639225        221.0175
2016    22      2       2.593204        251.7123
2016    22      3       3.127885        261.0668
2016    22      4       2.974589        259.5305
2016    22      5       3.161808        262.0357
2016    22      6       2.046513        237.451
2016    22      7       1.835049        228.8421
2016    23      0       0.8885056       160.7058
2016    23      1       0.5173604       112.3319
2016    23      2       0.5168284       112.6553
2016    23      3       0.7462387       144.6199
2016    23      4       0.7698317       147.2127
2016    23      5       0.5611675       119.8634
2016    23      6       0.4561995       103.0127
2016    23      7       0.6448523       130.9243
2016    24      0       0.7074011       137.932
2016    24      1       0.6643749       133.0082
2016    24      2       0.5812746       122.029
2016    24      3       0.3607692       85.67449
2016    24      4       0.3446833       83.14474
2016    24      5       0.3857006       90.63651
2016    24      6       0.3671688       87.10901
2016    24      7       0.6438564       131.4398
2016    25      0       1.393161        201.5952
2016    25      1       0.9716666       165.0982
2016    25      2       0.7496557       139.4222
2016    25      3       0.8504589       150.314
2016    25      4       0.7771203       144.1064
2016    25      5       0.6682375       131.0036
2016    25      6       0.4631765       102.4463
2016    25      7       0.4434242       99.75156
2016    26      0       0.5472311       116.6714
2016    26      1       0.6088939       126.4805
2016    26      2       0.4841791       107.6985
2016    26      3       0.5701411       120.5578
2016    26      4       0.6459029       131.4257
2016    26      5       0.7094434       139.9694
2016    26      6       0.7607298       146.5779
2016    26      7       0.7374993       143.5425
2016    27      0       0.5567195       118.0933
2016    27      1       0.5227323       112.9474
2016    27      2       0.5961338       124.3944
2016    27      3       0.6317844       129.5926
2016    27      4       0.5329259       115.3429
2016    27      5       0.4520354       102.3364
2016    27      6       0.4264186       98.24101
2016    27      7       0.4758811       106.759
2016    28      0       0.4128364       96.29771
2016    28      1       0.3050336       75.47291
2016    28      2       0.3528667       84.02266
2016    28      3       0.4950533       107.2162
2016    28      4       0.658627        130.5101
2016    28      5       0.7287507       139.8419
2016    28      6       0.7841195       147.2216
2016    28      7       0.9702629       167.7303
2016    29      0       1.129676        183.1338
2016    29      1       1.177941        187.5786
2016    29      2       1.393779        203.2928
2016    29      3       1.817267        226.2456
2016    29      4       2.229356        241.2151
2016    29      5       2.455219        247.536
2016    29      6       2.764357        254.1789
2016    29      7       2.788406        255.7634
2016    30      0       2.378916        248.2276
2016    30      1       1.94503         235.0888
2016    30      2       1.611407        220.6954
2016    30      3       1.392493        208.0409
2016    30      4       1.349619        204.9115
2016    30      5       1.33746         203.3305
2016    30      6       1.113139        185.4718
2016    30      7       1.439554        209.7447
2016    31      0       1.630541        220.3843
2016    31      1       1.107158        184.3327
2016    31      2       0.9881776       172.6184
2016    31      3       1.246289        193.7581
2016    31      4       1.279154        195.147
2016    31      5       1.06386         177.0393
2016    31      6       1.362731        200.9803
2016    31      7       1.445169        206.8403
2017    1       0       1.873008        229.0081
2017    1       1       1.682648        220.0627
2017    1       2       1.658816        219.1727
2017    1       3       1.621304        217.2143
2017    1       4       1.408106        204.2328
2017    1       5       1.258706        193.2612
2017    1       6       1.398982        202.2877
2017    1       7       1.624231        215.5879
2017    2       0       1.697424        219.5956
2017    2       1       1.757377        222.7802
2017    2       2       1.793015        224.6772
2017    2       3       1.826504        226.1261
2017    2       4       1.949525        230.7732
2017    2       5       2.001029        232.7712
2017    2       6       2.039861        234.1507
2017    2       7       2.028849        233.333
2017    3       0       1.860812        226.8747
2017    3       1       1.612516        216.0113
2017    3       2       1.45835         207.8646
2017    3       3       1.174528        188.6702
2017    3       4       0.9673941       170.1315
2017    3       5       0.8380408       156.4054
2017    3       6       0.921104        166.3676
2017    3       7       1.469931        210.78
2017    4       0       1.31005         199.9548
2017    4       1       0.9337832       167.7086
2017    4       2       0.6777851       137.063
2017    4       3       0.8005001       151.6873
2017    4       4       0.8168452       152.7061
2017    4       5       0.6965937       136.9721
2017    4       6       0.5520286       116.8693
2017    4       7       0.6616084       132.7204
2017    5       0       0.8199158       151.2715
2017    5       1       0.7699662       144.921
2017    5       2       1.080506        176.6305
2017    5       3       1.585727        211.2927
2017    5       4       1.412954        200.7015
2017    5       5       1.302814        192.7932
2017    5       6       1.489551        205.6829
2017    5       7       1.576704        211.6201
2017    6       0       1.567792        211.3347
2017    6       1       1.304907        195.6299
2017    6       2       1.057669        176.348
2017    6       3       1.10966         180.5187
2017    6       4       1.045817        175.2981
2017    6       5       1.004335        171.879
2017    6       6       1.127882        183.1394
2017    6       7       1.228943        190.8472
2017    7       0       1.06391         177.0489
2017    7       1       0.7899886       148.8924
2017    7       2       0.5566829       117.3893
2017    7       3       0.3896685       89.79744
2017    7       4       0.2081824       55.00983
2017    7       5       0.1273603       36.7685
2017    7       6       0.1263332       36.49864
2017    7       7       0.2168609       55.86342
2017    8       0       0.2951761       71.31237
2017    8       1       0.2906322       70.56791
2017    8       2       0.296501        72.11536
2017    8       3       0.3829123       88.73713
2017    8       4       0.3996987       92.31357
2017    8       5       0.4106599       94.81907
2017    8       6       0.4616854       103.6423
2017    8       7       0.4794713       106.6137
2017    9       0       0.4894455       108.508
2017    9       1       0.4796209       107.3229
2017    9       2       0.4086251       95.44769
2017    9       3       0.3861863       91.34799
2017    9       4       0.3782288       89.83813
2017    9       5       0.36506         87.3026
2017    9       6       0.3474242       84.06943
2017    9       7       0.3421053       82.87152
2017    10      0       0.3644769       86.85904
2017    10      1       0.3455999       83.17789
2017    10      2       0.3295632       79.7954
2017    10      3       0.3299896       79.71759
2017    10      4       0.3323824       79.94404
2017    10      5       0.3183234       77.00925
2017    10      6       0.3195453       76.76854
2017    10      7       0.3579835       83.42436
2017    11      0       0.3838639       87.7774
2017    11      1       0.398857        90.06798
2017    11      2       0.4570333       99.43141
2017    11      3       0.5730378       116.699
2017    11      4       0.629438        124.7953
2017    11      5       0.6629928       129.624
2017    11      6       0.6855326       133.3358
2017    11      7       0.7719264       144.2141
2017    12      0       0.7095343       136.4916
2017    12      1       0.5088225       108.4637
2017    12      2       0.5410153       112.6401
2017    12      3       0.8264349       150.7502
2017    12      4       1.172226        185.5529
2017    12      5       1.34044         198.8183
2017    12      6       1.384632        202.7149
2017    12      7       1.569453        214.7418
2017    13      0       1.322603        198.4812
2017    13      1       1.106323        182.0432
2017    13      2       1.025672        174.8459
2017    13      3       1.074597        179.73
2017    13      4       1.174599        188.9263
2017    13      5       1.164741        188.2502
2017    13      6       1.051587        178.5344
2017    13      7       1.038409        176.7652
2017    14      0       0.9862366       171.8631
2017    14      1       0.8119713       153.691
2017    14      2       0.768592        148.9159
2017    14      3       0.9197766       165.5129
2017    14      4       0.7929321       151.1991
2017    14      5       0.8159147       152.1086
2017    14      6       0.6504657       130.2626
2017    14      7       0.6598796       131.0829
2017    15      0       0.6393753       128.4505
2017    15      1       0.5682925       119.2262
2017    15      2       0.4822944       106.7117
2017    15      3       0.3375589       82.0022
2017    15      4       0.2701957       68.38618
2017    15      5       0.2396689       61.54369
2017    15      6       0.275584        68.50875
2017    15      7       0.3284131       78.63384
2017    16      0       0.3539867       83.76883
2017    16      1       0.3922156       91.17379
2017    16      2       0.4276243       97.45124
2017    16      3       0.4668119       103.7356
2017    16      4       0.482227        105.8153
2017    16      5       0.5004669       107.3773
2017    16      6       0.5174284       107.8789
2017    16      7       0.6047127       119.8141
2017    17      0       0.6127571       121.6576
2017    17      1       0.7571727       140.7542
2017    17      2       0.651239        128.816
2017    17      3       0.9705351       165.4593
2017    17      4       1.381634        195.1528
2017    17      5       1.230109        185.4967
2017    17      6       1.465215        202.4265
2017    17      7       1.633892        211.8095
2017    18      0       1.309171        192.89
2017    18      1       1.146467        180.6646
2017    18      2       1.123244        178.6003
2017    18      3       0.9545762       163.7878
2017    18      4       0.9092196       159.3983
2017    18      5       1.103455        177.4755
2017    18      6       1.278327        191.1861
2017    18      7       1.470112        204.6471
2017    19      0       1.278842        192.4251
2017    19      1       1.00304         169.8439
2017    19      2       0.8056072       149.6734
2017    19      3       0.6575337       131.0359
2017    19      4       0.5772128       119.4373
2017    19      5       0.6805586       133.8131
2017    19      6       0.7040029       137.1333
2017    19      7       0.6160086       125.6406
2017    20      0       0.5848329       121.3283
2017    20      1       0.6626443       132.8122
2017    20      2       0.6845509       136.3575
2017    20      3       0.5998494       124.8763
2017    20      4       0.5511046       117.4476
2017    20      5       0.5378845       115.2102
2017    20      6       0.5627716       118.7607
2017    20      7       0.5988815       124.1551
2017    21      0       0.6099319       125.4428
2017    21      1       0.604306        124.162
2017    21      2       0.7295499       139.8271
2017    21      3       0.5779427       120.7602
2017    21      4       0.4002236       93.30188
2017    21      5       0.3839709       90.54501
2017    21      6       0.1442562       41.54359
2017    21      7       0.1176859       35.25297
2017    22      0       0.125416        36.88218
2017    22      1       0.117383        34.99632
2017    22      2       0.1722213       47.11249
2017    22      3       0.2817216       69.42023
2017    22      4       0.2747847       68.46498
2017    22      5       0.2640845       66.20941
2017    22      6       0.3840681       88.03287
2017    22      7       0.4971869       107.1644
2017    23      0       0.5290106       113.2242
2017    23      1       0.5699826       120.7816
2017    23      2       0.7695131       147.8618
2017    23      3       0.9120654       163.9706
2017    23      4       0.9858618       170.951
2017    23      5       1.013844        174.3415
2017    23      6       1.058775        178.8698
2017    23      7       1.137266        185.3175
2017    24      0       1.117581        182.9672
2017    24      1       1.049504        176.737
2017    24      2       0.999108        172.559
2017    24      3       1.000429        172.4163
2017    24      4       1.064976        178.3889
2017    24      5       1.04643         177.2922
2017    24      6       1.011332        173.7405
2017    24      7       1.143419        185.5494
2017    25      0       1.117919        183.1105
2017    25      1       1.02483         174.7431
2017    25      2       0.9942756       171.974
2017    25      3       1.078352        179.1259
2017    25      4       1.109646        182.0632
2017    25      5       1.011548        173.0042
2017    25      6       1.028623        175.9563
2017    25      7       0.8633525       158.4947
2017    26      0       0.6870675       136.8585
2017    26      1       0.569048        120.2867
2017    26      2       0.5176954       112.1844
2017    26      3       0.5021195       109.2734
2017    26      4       0.4826812       105.0455
2017    26      5       0.4509259       98.79682
2017    26      6       0.4687039       101.3293
2017    26      7       0.5810899       117.9229
2017    27      0       0.6648445       130.0689
2017    27      1       0.6475314       128.7644
2017    27      2       0.8118599       148.8722
2017    27      3       0.8774451       156.1832
2017    27      4       0.8707575       155.6063
2017    27      5       0.8079867       149.0553
2017    27      6       0.8166295       150.3305
2017    27      7       0.8775076       157.472
2017    28      0       0.7679239       146.2484
2017    28      1       0.6127937       126.9563
2017    28      2       0.5022393       110.5442
2017    28      3       0.4227972       97.69359
2017    28      4       0.3651912       87.56085
2017    28      5       0.2901097       73.18379
2017    28      6       0.2228939       59.07685
2017    28      7       0.2904284       72.7661
2017    29      0       0.3462759       83.34145
2017    29      1       0.3081709       76.1531
2017    29      2       0.2808089       71.15004
2017    29      3       0.2655473       68.29248
2017    29      4       0.2823049       71.63022
2017    29      5       0.3002028       75.08744
2017    29      6       0.3186111       78.40794
2017    29      7       0.4370798       99.78468
2017    30      0       0.4256944       97.80335
2017    30      1       0.3670361       87.12983
2017    30      2       0.3648619       86.7902
2017    30      3       0.3654148       87.05921
2017    30      4       0.3763293       89.03754
2017    30      5       0.3814504       89.926
2017    30      6       0.358412        85.78889
2017    30      7       0.4451838       102.1028
2017    31      0       0.4483572       102.9725
2017    31      1       0.4134168       96.72561
2017    31      2       0.380289        90.84955
2017    31      3       0.4061528       95.64109
2017    31      4       0.8925961       163.8342
2017    31      5       1.231025        194.3153
2017    31      6       1.677377        221.6512
2017    31      7       2.098624        238.359
2018    1       0       0.5431146       115.0532
2018    1       1       0.6047781       123.5802
2018    1       2       0.583954        121.328
2018    1       3       0.5934302       122.4303
2018    1       4       0.6101547       125.1128
2018    1       5       0.5036857       110.0855
2018    1       6       0.6135572       126.1147
2018    1       7       0.9184215       163.5167
2018    2       0       0.9957162       171.7651
2018    2       1       0.9277303       164.7611
2018    2       2       0.778511        147.7972
2018    2       3       0.6462608       130.6023
2018    2       4       0.6432706       129.7804
2018    2       5       0.3596143       84.52739
2018    2       6       0.380719        88.3385
2018    2       7       0.4286074       96.45898
2018    3       0       0.343942        80.96731
2018    3       1       0.2893048       69.897
2018    3       2       0.418692        92.36896
2018    3       3       0.5968861       120.4411
2018    3       4       0.6455867       128.0252
2018    3       5       0.6546226       129.5819
2018    3       6       0.7374676       140.4215
2018    3       7       0.6268364       128.0297
2018    4       0       0.5922996       124.7799
2018    4       1       0.6936732       138.7168
2018    4       2       0.8275172       154.8425
2018    4       3       0.9186641       164.4214
2018    4       4       0.8966845       161.3526
2018    4       5       0.8461812       155.0971
2018    4       6       0.8873675       160.9313
2018    4       7       0.7486875       144.9211
2018    5       0       0.5976217       124.0002
2018    5       1       0.486399        106.0211
2018    5       2       0.5056727       108.3103
2018    5       3       0.5757276       118.7153
2018    5       4       0.7978556       146.8608
2018    5       5       0.7115528       136.9832
2018    5       6       0.6657402       132.0794
2018    5       7       0.7177824       140.2014
2018    6       0       0.7720839       147.2207
2018    6       1       0.6295051       129.1612
2018    6       2       0.6222669       127.8643
2018    6       3       0.6327552       129.2761
2018    6       4       0.6580919       132.3969
2018    6       5       0.7167024       139.6513
2018    6       6       0.7324953       141.4534
2018    6       7       0.9583251       167.3601
2018    7       0       1.352595        200.0088
2018    7       1       1.367748        201.1405
2018    7       2       1.051523        175.8894
2018    7       3       0.9029171       160.6768
2018    7       4       1.0612          175.6608
2018    7       5       1.189005        186.479
2018    7       6       1.244363        190.3309
2018    7       7       1.285074        191.8853
2018    8       0       0.9544039       163.2294
2018    8       1       0.78029         145.1863
2018    8       2       0.6722377       133.1597
2018    8       3       0.5107478       111.3751
2018    8       4       0.4104795       95.28827
2018    8       5       0.3964296       92.54556
2018    8       6       0.3401891       81.99503
2018    8       7       0.3400773       81.81445
2018    9       0       0.3488917       83.45409
2018    9       1       0.2966352       73.49469
2018    9       2       0.2148993       56.77985
2018    9       3       0.1892373       50.33827
2018    9       4       0.1823117       48.40476
2018    9       5       0.1914585       50.27452
2018    9       6       0.2264125       57.38202
2018    9       7       0.2660399       65.69764
2018    10      0       0.298972        72.52107
2018    10      1       0.3793218       87.27444
2018    10      2       0.463082        101.1176
2018    10      3       0.5329062       111.8676
2018    10      4       0.5457028       113.8582
2018    10      5       0.5597157       115.471
2018    10      6       0.5607679       115.3823
2018    10      7       0.5631973       115.4856
2018    11      0       0.6160286       121.9593
2018    11      1       0.4629679       99.37156
2018    11      2       0.362286        83.03966
2018    11      3       0.5454431       113.4527
2018    11      4       0.6199769       124.2501
2018    11      5       0.7726093       142.7508
2018    11      6       1.011383        169.938
2018    11      7       0.7599013       142.1415
2018    12      0       0.8711712       154.2398
2018    12      1       0.6703104       131.883
2018    12      2       0.6804483       134.8215
2018    12      3       0.7631831       146.3207
2018    12      4       0.7437957       144.0608
2018    12      5       0.5741824       121.2059
2018    12      6       0.5031084       109.8497
2018    12      7       0.5469154       116.185
2018    13      0       0.5543406       117.6069
2018    13      1       0.2381525       61.59272
2018    13      2       0.175594        47.58751
2018    13      3       0.24177         60.72836
2018    13      4       0.3474052       81.96412
2018    13      5       0.4837507       106.0325
2018    13      6       0.3924348       90.84124
2018    13      7       0.2934241       71.71757
2018    14      0       0.2592974       64.8039
2018    14      1       0.2513667       63.35305
2018    14      2       0.2442162       62.39992
2018    14      3       0.2608642       65.72194
2018    14      4       0.2669182       66.91686
2018    14      5       0.2796428       69.36704
2018    14      6       0.3110447       74.8496
2018    14      7       0.3542342       82.14721
2018    15      0       0.3759747       85.69876
2018    15      1       0.3829132       86.70086
2018    15      2       0.4932839       104.3351
2018    15      3       0.5289198       109.3099
2018    15      4       0.5708221       115.2605
2018    15      5       0.5157106       107.4011
2018    15      6       0.6049929       120.2957
2018    15      7       0.6784993       129.7221
2018    16      0       0.7496067       139.001
2018    16      1       0.8395608       150.2746
2018    16      2       0.8115032       147.9523
2018    16      3       0.9160214       160.0613
2018    16      4       1.159819        183.8991
2018    16      5       1.336508        196.5506
2018    16      6       1.279161        192.0143
2018    16      7       1.474051        206.1363
2018    17      0       1.704107        218.7698
2018    17      1       1.637087        215.6308
2018    17      2       1.689298        217.875
2018    17      3       1.498598        208.5773
2018    17      4       1.232849        192.068
2018    17      5       1.081415        179.5032
2018    17      6       1.067347        177.4545
2018    17      7       1.012735        171.6827
2018    18      0       0.9528727       164.8769
2018    18      1       1.016175        170.44
2018    18      2       0.8454427       153.1281
2018    18      3       0.7930194       147.3271
2018    18      4       0.7667825       144.9967
2018    18      5       0.6891444       136.2478
2018    18      6       0.6119534       126.2378
2018    18      7       0.5677416       119.7722
2018    19      0       0.5532849       117.1434
2018    19      1       0.6080791       126.4355
2018    19      2       0.5491205       118.8694
2018    19      3       0.3757189       89.55714
2018    19      4       0.3531801       84.89234
2018    19      5       0.3348156       81.20001
2018    19      6       0.4133563       95.22745
2018    19      7       0.4308274       98.36882
2018    20      0       0.4298296       98.61244
2018    20      1       0.4571463       103.3913
2018    20      2       0.4016487       93.93607
2018    20      3       0.3269123       79.95741
2018    20      4       0.265749        67.54653
2018    20      5       0.2660897       67.34608
2018    20      6       0.2746458       69.28722
2018    20      7       0.2911282       72.39967
2018    21      0       0.3158086       77.07399
2018    21      1       0.3449809       82.61736
2018    21      2       0.3170055       77.61418
2018    21      3       0.3038893       75.12994
2018    21      4       0.3320433       79.68387
2018    21      5       0.3289533       79.07717
2018    21      6       0.3593571       84.50795
2018    21      7       0.3869478       88.98244
2018    22      0       0.4532006       99.45621
2018    22      1       0.5386611       112.2534
2018    22      2       0.8282014       150.9334
2018    22      3       1.281061        194.9948
2018    22      4       1.108447        182.2844
2018    22      5       0.9152278       164.6108
2018    22      6       0.8838499       160.763
2018    22      7       0.8552137       156.9846
2018    23      0       0.8357317       154.2702
2018    23      1       0.8146673       151.9236
2018    23      2       0.8646868       158.043
2018    23      3       0.9036703       162.004
2018    23      4       0.9234364       163.1506
2018    23      5       0.8569727       156.4144
2018    23      6       0.87513         158.9735
2018    23      7       0.9750022       169.7295
2018    24      0       0.9300728       165.0099
2018    24      1       1.0184          173.1887
2018    24      2       1.139857        184.911
2018    24      3       1.314452        199.1535
2018    24      4       1.256731        195.5343
2018    24      5       1.215384        192.5737
2018    24      6       1.256839        196.4681
2018    24      7       1.268423        197.1975
2018    25      0       1.284847        198.5156
2018    25      1       0.95576         168.6428
2018    25      2       0.8772841       159.5915
2018    25      3       0.8346597       154.3208
2018    25      4       0.773934        147.1016
2018    25      5       0.5816188       121.6969
2018    25      6       0.4858718       107.0561
2018    25      7       0.7398748       144.0197
2018    26      0       1.230585        190.5507
2018    26      1       1.177281        183.157
2018    26      2       1.324203        193.1947
2018    26      3       1.373701        196.9999
2018    26      4       1.053479        171.9003
2018    26      5       0.4998177       106.4106
2018    26      6       0.9060526       158.2877
2018    26      7       0.8284626       151.1622
2018    27      0       0.4693029       103.3208
2018    27      1       0.4530715       100.5498
2018    27      2       0.4114604       93.26987
2018    27      3       0.3131336       74.66655
2018    27      4       0.3558659       83.08683
2018    27      5       0.3999801       89.99369
2018    27      6       0.5472375       112.5249
2018    27      7       0.7030199       134.7656
2018    28      0       0.9785721       165.858
2018    28      1       1.13265         179.6241
2018    28      2       0.9710089       164.8374
2018    28      3       0.722474        136.7791
2018    28      4       0.4530469       98.59237
2018    28      5       0.2675451       65.6794
2018    28      6       0.2318707       58.53284
2018    28      7       0.2680043       65.64538
2018    29      0       0.2216784       56.63285
2018    29      1       0.1694994       45.6393
2018    29      2       0.223393        56.50425
2018    29      3       0.2630064       64.25079
2018    29      4       0.2704961       65.54659
2018    29      5       0.2649838       64.54296
2018    29      6       0.4293829       93.27869
2018    29      7       0.7095231       133.0648
2018    30      0       0.5012436       105.6564
2018    30      1       0.4276774       94.43563
2018    30      2       0.3802107       86.77227
2018    30      3       0.4007277       90.85463
2018    30      4       0.3821642       87.98484
2018    30      5       0.2570913       64.40192
2018    30      6       0.2980588       71.44486
2018    30      7       0.562266        114.8348
2018    31      0       0.6393108       127.1432
2018    31      1       0.735129        140.454
2018    31      2       0.6448685       129.8812
2018    31      3       0.3966331       91.51379
2018    31      4       0.4596016       101.6555
2018    31      5       0.7041374       136.6406
2018    31      6       0.7240456       138.3767
2018    31      7       0.7707441       144.955
