####################################################################################################
# Month: 10Oct                                                                                     #
# Station: PIKE                                                                                    #
# Frequency: 345 GHz                                                                               #
# Columns are: year    day     segment         tau     Tb (K)                                      #
####################################################################################################
2009    1       0       0.1724079       46.94565
2009    1       1       0.08737921      27.67236
2009    1       2       0.06705095      22.78567
2009    1       3       0.04616765      17.51171
2009    1       4       0.04778165      17.88399
2009    1       5       0.09386329      28.63
2009    1       6       0.1348256       37.66099
2009    1       7       0.1415529       39.32167
2009    2       0       0.1124604       33.02021
2009    2       1       0.09040315      27.81366
2009    2       2       0.191896        49.42248
2009    2       3       0.2020073       51.46023
2009    2       4       0.1855015       48.23505
2009    2       5       0.1482348       41.09305
2009    2       6       0.1148298       33.70532
2009    2       7       0.1559758       42.8357
2009    3       0       0.2164315       55.48235
2009    3       1       0.2899561       69.43632
2009    3       2       0.3859916       85.98254
2009    3       3       0.3000402       71.06252
2009    3       4       0.2367986       59.20921
2009    3       5       0.2303602       57.787
2009    3       6       0.2802819       67.08722
2009    3       7       0.3568717       81.11613
2009    4       0       0.4454647       95.53607
2009    4       1       0.4801053       100.7937
2009    4       2       0.4072981       89.45473
2009    4       3       0.3971745       88.20549
2009    4       4       0.3936372       87.71215
2009    4       5       0.2503475       62.23192
2009    4       6       0.2405771       59.91395
2009    4       7       0.556325        114.2101
2009    5       0       0.6762357       130.4261
2009    5       1       0.5324248       110.7882
2009    5       2       0.3935922       89.21487
2009    5       3       0.2780945       68.60417
2009    5       4       0.2463752       62.3934
2009    5       5       0.2485344       62.67533
2009    5       6       0.3104558       74.43467
2009    5       7       0.4370608       95.74824
2009    6       0       0.4251394       93.36052
2009    6       1       0.1916641       50.32317
2009    6       2       0.08019985      25.76511
2009    6       3       0.08609777      26.98733
2009    6       4       0.111148        32.60655
2009    6       5       0.08721667      27.42162
2009    6       6       0.06441066      22.02549
2009    6       7       0.0898815       28.1721
2009    7       0       0.08280291      26.50355
2009    7       1       0.07918754      25.66127
2009    7       2       0.06807013      23.01133
2009    7       3       0.0680225       23.00011
2009    7       4       0.150295        41.82464
2009    7       5       0.5359024       111.1821
2009    7       6       0.5591302       114.5688
2009    7       7       0.6180898       122.6928
2009    8       0       0.2936086       71.31802
2009    8       1       0.09482048      29.12814
2009    8       2       0.1062929       32.1233
2009    8       3       0.1745481       46.88081
2009    8       4       0.2970863       71.39253
2009    8       5       0.2072385       53.63944
2009    8       6       0.360427        81.75656
2009    8       7       0.4042945       88.82049
2009    9       0       0.4909898       102.039
2009    9       1       0.3007373       70.66993
2009    9       2       0.1583153       43.09619
2009    9       3       0.1192185       34.39996
2009    9       4       0.2229616       56.62087
2009    9       5       0.243723        60.70497
2009    9       6       0.2461545       61.23481
2009    9       7       0.2724928       66.27948
2009    10      0       0.2556358       62.86174
2009    10      1       0.2605326       63.43988
2009    10      2       0.2987869       71.10521
2009    10      3       0.2580339       63.97669
2009    10      4       0.2094888       54.46799
2009    10      5       0.1759803       47.3347
2009    10      6       0.2008867       52.5306
2009    10      7       0.288935        69.66953
2009    11      0       0.2595129       63.87551
2009    11      1       0.1713282       45.77788
2009    11      2       0.1880497       49.19726
2009    11      3       0.2577949       63.41058
2009    11      4       0.254439        62.85835
2009    11      5       0.2222551       56.56784
2009    11      6       0.1743119       46.59512
2009    11      7       0.3279735       76.31003
2009    12      0       0.2990358       71.1919
2009    12      1       0.1815282       48.13991
2009    12      2       0.142063        39.77841
2009    12      3       0.1481854       41.13722
2009    12      4       0.1662092       44.95558
2009    12      5       0.1804238       48.0551
2009    12      6       0.2268079       57.8979
2009    12      7       0.3078612       74.10119
2009    13      0       0.3442811       80.48728
2009    13      1       0.3702586       84.58836
2009    13      2       0.3469495       79.45656
2009    13      3       0.6860394       130.3473
2009    13      4       0.7142881       134.4335
2009    13      5       0.4273328       93.44088
2009    13      6       0.4219695       92.9783
2009    13      7       0.2606114       64.73964
2009    14      0       0.3008391       72.54163
2009    14      1       0.5806768       117.6874
2009    14      2       0.650417        128.4688
2009    14      3       0.7722662       142.9228
2009    14      4       0.6557331       128.8211
2009    14      5       0.5995989       121.5797
2009    14      6       0.5153144       109.1799
2009    14      7       0.2968118       71.82658
2009    15      0       0.2007776       52.49192
2009    15      1       0.2427321       60.62775
2009    15      2       0.3041587       72.44618
2009    15      3       0.2719372       66.72485
2009    15      4       0.2271302       57.73085
2009    15      5       0.1739654       46.63197
2009    15      6       0.1734455       46.2851
2009    15      7       0.2427127       60.84156
2009    16      0       0.2513628       61.98042
2009    16      1       0.2625437       64.0996
2009    16      2       0.273375        66.4319
2009    16      3       0.2996036       71.79714
2009    16      4       0.2739747       67.04569
2009    16      5       0.3296298       77.04988
2009    16      6       0.3895256       87.95129
2009    16      7       0.5124241       107.4944
2009    17      0       0.5207092       108.9406
2009    17      1       0.4042887       90.56147
2009    17      2       0.239025        60.19065
2009    17      3       0.2059721       53.19313
2009    17      4       0.2319238       58.55541
2009    17      5       0.2628926       65.07563
2009    17      6       0.2632911       65.67715
2009    17      7       0.2219025       57.81397
2009    18      0       0.226958        58.86355
2009    18      1       0.1712976       46.97497
2009    18      2       0.1221725       35.95294
2009    18      3       0.1262186       36.76701
2009    18      4       0.2020087       53.164
2009    18      5       0.2612944       65.01445
2009    18      6       0.2581242       64.18662
2009    18      7       0.2989337       72.08407
2009    19      0       0.39815         89.63166
2009    19      1       0.406906        91.26208
2009    19      2       0.3695014       84.23557
2009    19      3       0.4529953       98.4123
2009    19      4       0.4226764       93.28362
2009    19      5       0.564592        115.2054
2009    19      6       0.2475068       62.15251
2009    19      7       0.2903195       71.13745
2009    20      0       0.3064772       74.03559
2009    20      1       0.3376872       79.06649
2009    20      2       0.3184777       75.4465
2009    20      3       0.2930391       71.13667
2009    20      4       0.3782928       86.18483
2009    20      5       0.6219576       122.0453
2009    20      6       0.551142        111.8728
2009    20      7       0.6806678       130.0127
2009    21      0       0.7403469       137.3577
2009    21      1       0.8538668       150.1577
2009    21      2       0.9576354       161.2542
2009    21      3       0.9346548       158.8844
2009    21      4       0.9664953       162.1567
2009    21      5       0.9644235       161.9168
2009    21      6       0.9144534       156.3449
2009    21      7       0.8392314       148.0496
2009    22      0       0.8141756       145.3154
2009    22      1       0.8502276       149.1206
2009    22      2       0.779747        141.264
2009    22      3       0.6137829       121.1425
2009    22      4       0.4495506       97.28631
2009    22      5       0.1805159       47.92675
2009    22      6       0.08781598      27.39694
2009    22      7       0.1107781       32.54165
2009    23      0       0.2134583       54.17072
2009    23      1       0.3653702       82.01163
2009    23      2       0.430679        93.21134
2009    23      3       0.1397276       39.12015
2009    23      4       0.1267104       36.17389
2009    23      5       0.1332297       37.43062
2009    23      6       0.126884        36.05631
2009    23      7       0.211638        53.99901
2009    24      0       0.3228815       75.33485
2009    24      1       0.3699376       83.83873
2009    24      2       0.397289        88.72102
2009    24      3       0.4847826       102.7732
2009    24      4       0.7742603       141.1629
2009    24      5       0.274746        66.65281
2009    24      6       0.1474743       40.77789
2009    24      7       0.3116846       73.28718
2009    25      0       0.4259994       91.83532
2009    25      1       0.4520486       95.60564
2009    25      2       0.592512        116.4324
2009    25      3       0.5624081       112.1635
2009    25      4       0.5150984       105.0102
2009    25      5       0.415937        89.71269
2009    25      6       0.4587488       96.55102
2009    25      7       0.4221663       90.97442
2009    26      0       0.3877932       84.58962
2009    26      1       0.3193127       72.61302
2009    26      2       0.1869616       47.88706
2009    26      3       0.1033973       30.4218
2009    26      4       0.06119347      20.84461
2009    26      5       0.08132658      25.53099
2009    26      6       0.1735885       45.93344
2009    26      7       0.2531528       62.84034
2009    27      0       0.3058917       72.91736
2009    27      1       0.3682988       83.99775
2009    27      2       0.5068894       105.9163
2009    27      3       0.370613        83.96473
2009    27      4       0.3256806       75.35419
2009    27      5       0.3689911       82.15517
2009    27      6       0.5894209       116.2633
2009    27      7       0.5941382       116.6678
2009    28      0       0.3620607       81.68172
2009    28      1       0.2895035       68.08435
2009    28      2       0.3402585       76.95192
2009    28      3       0.521753        105.729
2009    28      4       0.55262         110.6539
2009    28      5       0.4954466       101.8272
2009    28      6       0.4363019       92.69681
2009    28      7       0.3763563       83.06487
2009    29      0       0.3314696       75.18695
2009    29      1       0.3050336       70.24465
2009    29      2       0.2513823       60.53232
2009    29      3       0.2384227       58.05502
2009    29      4       0.2178443       53.91179
2009    29      5       0.1660239       43.54402
2009    29      6       0.1705128       44.5407
2009    29      7       0.1921978       48.72457
2009    30      0       0.2500978       59.64525
2009    30      1       0.2344051       56.7543
2009    30      2       0.2403446       58.07729
2009    30      3       0.2603587       62.19077
2009    30      4       0.2156049       53.78167
2009    30      5       0.4065445       88.40206
2009    30      6       0.5793635       115.992
2009    30      7       0.4727995       100.9258
2009    31      0       0.4845944       102.8143
2009    31      1       0.4638159       99.67558
2009    31      2       0.3882795       87.746
2009    31      3       0.3785116       86.10673
2009    31      4       0.3406382       79.19339
2009    31      5       0.2000381       52.14187
2009    31      6       0.132893        37.55887
2009    31      7       0.1282793       36.56823
2010    1       0       0.5027071       108.3921
2010    1       1       0.4087947       93.06588
2010    1       2       0.3665898       85.66866
2010    1       3       0.3497686       82.0643
2010    1       4       0.3691012       85.23793
2010    1       5       0.4149213       93.03728
2010    1       6       0.542961        113.164
2010    1       7       0.7103036       135.6821
2010    2       0       0.7729891       143.8459
2010    2       1       0.6408158       127.6525
2010    2       2       0.5497215       114.8678
2010    2       3       0.4320502       96.11407
2010    2       4       0.3205783       76.26577
2010    2       5       0.2580375       64.20139
2010    2       6       0.2377616       60.15011
2010    2       7       0.5138381       109.2253
2010    3       0       0.8362459       150.4402
2010    3       1       0.6206385       123.658
2010    3       2       0.5245027       109.8712
2010    3       3       0.336484        78.95947
2010    3       4       0.2051899       53.63044
2010    3       5       0.2067718       54.06033
2010    3       6       0.3128381       74.912
2010    3       7       0.5542067       114.2279
2010    4       0       0.7094724       134.9174
2010    4       1       0.7687504       141.9363
2010    4       2       0.8029798       145.95
2010    4       3       0.6653627       129.5391
2010    4       4       0.5638536       115.7171
2010    4       5       0.5961851       119.868
2010    4       6       0.6395272       126.0701
2010    4       7       0.7181358       136.6962
2010    5       0       0.7166115       137.0239
2010    5       1       0.657487        129.459
2010    5       2       0.3742572       86.58472
2010    5       3       0.3772491       85.58678
2010    5       4       0.5617511       114.7007
2010    5       5       0.5867907       118.5213
2010    5       6       0.6255257       124.6101
2010    5       7       0.8993683       157.5838
2010    6       0       1.124173        178.3787
2010    6       1       1.096888        176.3779
2010    6       2       0.8963873       157.326
2010    6       3       0.7590011       141.3352
2010    6       4       0.7294066       137.5026
2010    6       5       0.7654136       142.0734
2010    6       6       0.7635206       142.7213
2010    6       7       0.4802109       104.0427
2010    7       0       0.6735027       130.9676
2010    7       1       0.7920219       145.3156
2010    7       2       0.6135743       122.882
2010    7       3       0.4261325       95.28944
2010    7       4       0.2558175       64.42063
2010    7       5       0.2314303       59.31522
2010    7       6       0.2500822       63.03402
2010    7       7       0.5207902       110.3689
2010    8       0       0.7764368       144.1607
2010    8       1       0.4512802       99.19398
2010    8       2       0.2170935       55.67149
2010    8       3       0.2682874       66.35473
2010    8       4       0.5599435       114.8836
2010    8       5       0.4081758       89.6087
2010    8       6       0.2017383       51.80666
2010    8       7       0.4318692       93.82131
2010    9       0       0.2841536       68.04038
2010    9       1       0.1237611       35.59298
2010    9       2       0.1462465       40.49411
2010    9       3       0.173873        46.31037
2010    9       4       0.2101394       53.62867
2010    9       5       0.2311256       57.28514
2010    9       6       0.2376162       59.10608
2010    9       7       0.445342        95.75212
2010    10      0       0.5390022       109.3609
2010    10      1       0.3231683       74.61184
2010    10      2       0.4127237       89.74571
2010    10      3       0.4947813       103.3028
2010    10      4       0.4659697       99.10752
2010    10      5       0.4161643       91.55373
2010    10      6       0.4758399       101.7563
2010    10      7       0.5921196       117.4078
2010    11      0       0.7098288       133.0029
2010    11      1       0.5879231       117.4969
2010    11      2       0.4386183       95.59127
2010    11      3       0.297348        70.98921
2010    11      4       0.2559979       63.00357
2010    11      5       0.2276017       57.59335
2010    11      6       0.2666894       65.4249
2010    11      7       0.2194168       56.17864
2010    12      0       0.22998         58.5091
2010    12      1       0.2301298       58.67344
2010    12      2       0.2066656       53.87408
2010    12      3       0.2315386       58.80139
2010    12      4       0.4075345       90.67535
2010    12      5       0.5236165       108.5093
2010    12      6       0.439369        95.3976
2010    12      7       0.6087921       119.1786
2010    13      0       0.4859391       102.8538
2010    13      1       0.3010417       71.83731
2010    13      2       0.2810229       68.0037
2010    13      3       0.2337703       58.96822
2010    13      4       0.2256945       57.27258
2010    13      5       0.1915569       50.67079
2010    13      6       0.1536024       42.4817
2010    13      7       0.2117315       54.72579
2010    14      0       0.2273241       58.05117
2010    14      1       0.2172759       55.91351
2010    14      2       0.2572059       63.6204
2010    14      3       0.2383049       59.93645
2010    14      4       0.1965504       51.45369
2010    14      5       0.1895363       49.95099
2010    14      6       0.2144649       55.19865
2010    14      7       0.2498273       62.56571
2010    15      0       0.2522487       63.27531
2010    15      1       0.2338445       59.72059
2010    15      2       0.2036033       53.53362
2010    15      3       0.1682507       45.94458
2010    15      4       0.1491409       41.61248
2010    15      5       0.1484424       41.3461
2010    15      6       0.1314765       37.46255
2010    15      7       0.1301769       37.50034
2010    16      0       0.1847242       49.58332
2010    16      1       0.2344784       59.65483
2010    16      2       0.2215125       56.86157
2010    16      3       0.2117815       54.75109
2010    16      4       0.2002875       52.4026
2010    16      5       0.2041137       53.1537
2010    16      6       0.2072626       53.82448
2010    16      7       0.2238877       56.97219
2010    17      0       0.2326257       58.72561
2010    17      1       0.2848056       69.0145
2010    17      2       0.3359354       78.41753
2010    17      3       0.3113574       73.89369
2010    17      4       0.295596        70.91414
2010    17      5       0.3019661       71.86405
2010    17      6       0.3619856       82.59705
2010    17      7       0.5407423       111.0457
2010    18      0       0.5711144       115.4484
2010    18      1       0.6159822       121.351
2010    18      2       0.4963334       104.2009
2010    18      3       0.4450503       96.30019
2010    18      4       0.5305989       109.34
2010    18      5       0.5305567       109.2801
2010    18      6       0.5820341       116.3223
2010    18      7       0.8240181       146.2926
2010    19      0       0.7235453       135.0421
2010    19      1       0.6107497       120.6772
2010    19      2       0.5250877       108.7969
2010    19      3       0.4433569       96.09753
2010    19      4       0.2585904       63.60987
2010    19      5       0.1511335       41.42822
2010    19      6       0.2098282       53.44234
2010    19      7       0.3145325       74.12974
2010    20      0       0.314976        74.47766
2010    20      1       0.2673868       65.68072
2010    20      2       0.2675979       65.91986
2010    20      3       0.2493549       62.60032
2010    20      4       0.2264719       58.15465
2010    20      5       0.2259034       57.97711
2010    20      6       0.1996006       52.4859
2010    20      7       0.2446275       61.91102
2010    21      0       0.286648        70.23825
2010    21      1       0.2624014       65.53719
2010    21      2       0.2239417       57.42408
2010    21      3       0.3101336       73.93272
2010    21      4       0.4455549       97.04174
2010    21      5       0.4522255       97.96071
2010    21      6       0.5618253       114.7992
2010    21      7       0.7350056       137.4644
2010    22      0       0.3717361       83.71396
2010    22      1       0.311167        72.63465
2010    22      2       0.4410699       94.67256
2010    22      3       0.6542879       125.3714
2010    22      4       0.5764291       115.1051
2010    22      5       0.4904815       102.8052
2010    22      6       0.5774162       115.5325
2010    22      7       0.7650215       138.866
2010    23      0       0.6743539       128.132
2010    23      1       0.5973317       118.1154
2010    23      2       0.4314348       93.59849
2010    23      3       0.4166874       91.2144
2010    23      4       0.3986044       88.13845
2010    23      5       0.4644222       98.58193
2010    23      6       0.5796424       115.9283
2010    23      7       0.7012778       131.506
2010    24      0       0.6819139       128.8671
2010    24      1       0.6143384       120.0482
2010    24      2       0.4684304       99.03591
2010    24      3       0.3198818       74.78137
2010    24      4       0.2899127       68.96842
2010    24      5       0.3468441       79.12275
2010    24      6       0.4892942       102.8347
2010    24      7       0.7374772       137.675
2010    25      0       0.7711606       142.2645
2010    25      1       0.6765034       131.7462
2010    25      2       0.6956135       134.3809
2010    25      3       0.5635708       117.0319
2010    25      4       0.6005052       121.6167
2010    25      5       0.4440379       97.05195
2010    25      6       0.6650005       127.5856
2010    25      7       0.2039949       52.19413
2010    26      0       0.1199805       34.24006
2010    26      1       0.08435347      26.21924
2010    26      2       0.08134141      25.61983
2010    26      3       0.07810617      24.99532
2010    26      4       0.06276937      21.4546
2010    26      5       0.07074291      23.40302
2010    26      6       0.0920321       28.3852
2010    26      7       0.1450948       40.00833
2010    27      0       0.1110231       32.51559
2010    27      1       0.09291352      28.36514
2010    27      2       0.09757542      29.44625
2010    27      3       0.08168033      25.88685
2010    27      4       0.07743885      24.94253
2010    27      5       0.06635073      22.39867
2010    27      6       0.05456679      19.54535
2010    27      7       0.0600984       20.89302
2010    28      0       0.0641786       21.84079
2010    28      1       0.0734093       23.99044
2010    28      2       0.1085358       31.94542
2010    28      3       0.1366018       38.14691
2010    28      4       0.1390624       38.64096
2010    28      5       0.1826598       47.76223
2010    28      6       0.2549919       62.89663
2010    28      7       0.2604479       64.31957
2010    29      0       0.2432721       60.6531
2010    29      1       0.2004322       51.98456
2010    29      2       0.1919473       50.42924
2010    29      3       0.2214926       56.52235
2010    29      4       0.2360302       59.20692
2010    29      5       0.2084266       53.96672
2010    29      6       0.1889718       49.83947
2010    29      7       0.2126261       54.04974
2010    30      0       0.200195        51.42368
2010    30      1       0.1912194       49.9453
2010    30      2       0.1873436       49.32606
2010    30      3       0.1973441       51.22976
2010    30      4       0.1855207       48.63551
2010    30      5       0.1694162       45.39786
2010    30      6       0.1690692       45.16772
2010    30      7       0.1856705       48.87931
2010    31      0       0.2455058       61.05686
2010    31      1       0.3901248       87.31794
2010    31      2       0.1819008       48.35668
2010    31      3       0.12168         34.78744
2010    31      4       0.1541769       42.25632
2010    31      5       0.1876563       49.16074
2010    31      6       0.2072417       52.93859
2010    31      7       0.2560906       62.83497
2011    1       0       0.8881917       157.007
2011    1       1       0.8079633       148.3975
2011    1       2       0.6740221       132.1021
2011    1       3       0.6381281       126.867
2011    1       4       0.6546645       128.802
2011    1       5       0.6515981       128.42
2011    1       6       0.7071947       135.7951
2011    1       7       0.8678293       154.8669
2011    2       0       1.057854        173.4866
2011    2       1       1.111733        177.8944
2011    2       2       0.8677681       155.0587
2011    2       3       0.6801796       132.9707
2011    2       4       0.5333454       112.2365
2011    2       5       0.4453159       98.12563
2011    2       6       0.4612406       100.7162
2011    2       7       0.7595298       142.5803
2011    3       0       0.9810464       166.364
2011    3       1       1.092369        176.4493
2011    3       2       0.9224521       160.8443
2011    3       3       0.7502662       141.8177
2011    3       4       0.7308141       139.0541
2011    3       5       0.759803        142.35
2011    3       6       0.738463        139.6493
2011    3       7       0.8124249       148.5112
2011    4       0       0.7837988       145.0071
2011    4       1       0.6984153       134.4245
2011    4       2       0.723893        138.0894
2011    4       3       0.8148321       148.9724
2011    4       4       0.6781209       131.3842
2011    4       5       0.7625895       141.3732
2011    4       6       0.977443        164.5554
2011    4       7       1.018584        168.9986
2011    5       0       1.108278        176.7492
2011    5       1       1.015132        169.1756
2011    5       2       0.8913036       156.7918
2011    5       3       0.7562611       141.5252
2011    5       4       0.6288796       124.6869
2011    5       5       0.6474211       127.6525
2011    5       6       0.5591984       116.2147
2011    5       7       0.4890295       105.7304
2011    6       0       0.5858054       119.3049
2011    6       1       0.8761754       155.7209
2011    6       2       0.8992431       157.5476
2011    6       3       0.6276413       125.7412
2011    6       4       0.5153079       109.4898
2011    6       5       0.4967796       106.218
2011    6       6       0.5372488       110.8874
2011    6       7       0.8276244       148.2206
2011    7       0       0.3298644       77.07705
2011    7       1       0.2205317       56.18541
2011    7       2       0.2388745       59.91444
2011    7       3       0.3052462       72.76836
2011    7       4       0.4050189       90.40476
2011    7       5       0.4288972       94.54569
2011    7       6       0.4401572       96.21147
2011    7       7       0.521729        108.1844
2011    8       0       0.7511836       138.0565
2011    8       1       0.8262896       147.243
2011    8       2       0.8587185       150.8749
2011    8       3       0.7967241       143.4629
2011    8       4       0.4650204       99.14818
2011    8       5       0.5609913       112.3066
2011    8       6       0.381271        84.99736
2011    8       7       0.1971111       51.29226
2011    9       0       0.3010053       71.28327
2011    9       1       0.2478595       61.19328
2011    9       2       0.260901        63.30512
2011    9       3       0.2776435       66.44071
2011    9       4       0.3043585       71.14211
2011    9       5       0.2876009       68.03378
2011    9       6       0.3828889       85.37413
2011    9       7       0.5620271       112.7072
2011    10      0       0.3935121       87.17742
2011    10      1       0.2894807       69.29396
2011    10      2       0.168675        45.55898
2011    10      3       0.1394578       39.04632
2011    10      4       0.1433552       39.60115
2011    10      5       0.1677902       44.76482
2011    10      6       0.2146652       54.7067
2011    10      7       0.2588029       63.35366
2011    11      0       0.3437349       78.72123
2011    11      1       0.3732658       84.1394
2011    11      2       0.4333689       94.03631
2011    11      3       0.7076907       132.657
2011    11      4       0.7665848       139.747
2011    11      5       0.4694917       100.2474
2011    11      6       0.3943991       88.3613
2011    11      7       0.4755706       101.4923
2011    12      0       0.3401447       79.17949
2011    12      1       0.2595182       64.1475
2011    12      2       0.1498636       41.79715
2011    12      3       0.1022243       31.01362
2011    12      4       0.162701        44.30826
2011    12      5       0.213391        54.98164
2011    12      6       0.2240472       57.1746
2011    12      7       0.2440453       61.16071
2011    13      0       0.2136364       55.08216
2011    13      1       0.2367804       59.77081
2011    13      2       0.2962398       71.23901
2011    13      3       0.4185477       92.72976
2011    13      4       0.3895672       88.02587
2011    13      5       0.4019017       89.89901
2011    13      6       0.3762358       85.55124
2011    13      7       0.4231302       93.77386
2011    14      0       0.4144477       92.22986
2011    14      1       0.3199446       75.57857
2011    14      2       0.3673842       83.75916
2011    14      3       0.3510836       80.87265
2011    14      4       0.2573832       63.72036
2011    14      5       0.1851586       49.04006
2011    14      6       0.2031124       52.61395
2011    14      7       0.3271873       77.17196
2011    15      0       0.3659619       84.07015
2011    15      1       0.2065105       53.92339
2011    15      2       0.1224653       35.49645
2011    15      3       0.1624161       44.38043
2011    15      4       0.2185881       55.97366
2011    15      5       0.263234        64.64931
2011    15      6       0.3592147       82.02263
2011    15      7       0.414457        92.49342
2011    16      0       0.3432131       80.14864
2011    16      1       0.2135966       55.1011
2011    16      2       0.1700163       45.97905
2011    16      3       0.1675224       45.19535
2011    16      4       0.1887475       49.53854
2011    16      5       0.2188272       55.85971
2011    16      6       0.2947002       70.38261
2011    16      7       0.4603411       99.48115
2011    17      0       0.5537065       113.204
2011    17      1       0.4638965       99.71345
2011    17      2       0.3883776       87.39024
2011    17      3       0.270058        66.46024
2011    17      4       0.3410068       79.26454
2011    17      5       0.498438        103.6075
2011    17      6       0.409992        89.95286
2011    17      7       0.2393845       60.32663
2011    18      0       0.176973        46.87392
2011    18      1       0.1726707       46.25773
2011    18      2       0.1863326       48.87657
2011    18      3       0.2173603       55.45918
2011    18      4       0.1264542       36.39424
2011    18      5       0.06403071      21.7219
2011    18      6       0.08496095      26.55362
2011    18      7       0.1358226       38.3897
2011    19      0       0.1466281       40.94859
2011    19      1       0.1524966       42.36466
2011    19      2       0.1819634       48.83651
2011    19      3       0.1996147       52.48847
2011    19      4       0.1954145       51.62019
2011    19      5       0.201           52.73678
2011    19      6       0.227498        58.14047
2011    19      7       0.2698441       66.7789
2011    20      0       0.2812719       69.01642
2011    20      1       0.2042334       53.48668
2011    20      2       0.2318432       58.825
2011    20      3       0.2751755       67.10903
2011    20      4       0.2703154       66.1783
2011    20      5       0.1987563       52.17067
2011    20      6       0.1636671       44.76092
2011    20      7       0.2735272       67.14798
2011    21      0       0.3622212       83.87266
2011    21      1       0.2599332       64.9039
2011    21      2       0.1896753       50.21388
2011    21      3       0.1988809       51.60836
2011    21      4       0.2008367       51.99541
2011    21      5       0.1982747       51.42379
2011    21      6       0.1994866       51.57671
2011    21      7       0.2491148       62.05046
2011    22      0       0.2722995       66.71776
2011    22      1       0.2637885       64.80998
2011    22      2       0.2704438       65.421
2011    22      3       0.5205964       107.3112
2011    22      4       0.5107726       106.5109
2011    22      5       0.317327        74.82578
2011    22      6       0.2411368       59.99363
2011    22      7       0.3449404       79.72855
2011    23      0       0.3874381       86.75518
2011    23      1       0.3157648       74.44837
2011    23      2       0.234324        59.35879
2011    23      3       0.1433339       40.29535
2011    23      4       0.1448245       40.39694
2011    23      5       0.1599635       43.77603
2011    23      6       0.1314342       37.46043
2011    23      7       0.1764972       47.30043
2011    24      0       0.226757        57.72111
2011    24      1       0.2156717       55.36383
2011    24      2       0.2066023       53.61389
2011    24      3       0.2021127       52.56709
2011    24      4       0.1831904       48.44702
2011    24      5       0.1275395       36.44928
2011    24      6       0.1249183       35.76882
2011    24      7       0.2462654       61.71295
2011    25      0       0.3163736       75.39744
2011    25      1       0.2441029       61.25847
2011    25      2       0.2615503       64.88286
2011    25      3       0.1877648       49.81805
2011    25      4       0.2101449       53.97771
2011    25      5       0.2888653       68.65359
2011    25      6       0.3874352       85.92615
2011    25      7       0.7084701       132.9416
2011    26      0       0.7916711       142.5546
2011    26      1       0.5974539       118.8656
2011    26      2       0.432096        94.42521
2011    26      3       0.5878898       117.7416
2011    26      4       0.6865324       130.6648
2011    26      5       0.4787821       101.0797
2011    26      6       0.6322121       122.4652
2011    26      7       0.6533299       125.5096
2011    27      0       0.5237125       107.4874
2011    27      1       0.2754139       66.18435
2011    27      2       0.151262        41.44458
2011    27      3       0.1088869       32.40703
2011    27      4       0.08124753      26.02632
2011    27      5       0.08258842      26.06066
2011    27      6       0.1435718       39.35765
2011    27      7       0.2826136       67.2541
2011    28      0       0.3520211       80.45148
2011    28      1       0.2952823       69.9874
2011    28      2       0.2277415       57.04822
2011    28      3       0.1211754       34.7142
2011    28      4       0.07761015      24.88853
2011    28      5       0.05876415      20.40587
2011    28      6       0.09038705      27.82004
2011    28      7       0.1419342       39.56209
2011    29      0       0.2169213       54.71279
2011    29      1       0.2728301       65.00742
2011    29      2       0.276633        65.89574
2011    29      3       0.3042412       71.0279
2011    29      4       0.3847223       85.04776
2011    29      5       0.5276615       107.7008
2011    29      6       0.3715329       84.22687
2011    29      7       0.4138908       90.49048
2011    30      0       0.4169774       91.67856
2011    30      1       0.336593        78.05835
2011    30      2       0.3119204       73.08086
2011    30      3       0.4500773       96.06354
2011    30      4       0.3491312       80.02808
2011    30      5       0.2436487       60.76873
2011    30      6       0.2268384       57.50926
2011    30      7       0.2502032       61.99405
2011    31      0       0.263461        64.9448
2011    31      1       0.210445        54.50936
2011    31      2       0.1620735       44.57168
2011    31      3       0.1619293       44.22608
2011    31      4       0.1410507       39.75363
2011    31      5       0.1608278       43.73756
2011    31      6       0.199674        51.90932
2011    31      7       0.2505619       62.53675
2012    1       0       0.5454118       112.7837
2012    1       1       0.6247176       124.1772
2012    1       2       0.5180863       108.9663
2012    1       3       0.5214112       109.7637
2012    1       4       0.445806        97.87855
2012    1       5       0.3299566       78.25268
2012    1       6       0.1916054       50.76258
2012    1       7       0.2547524       63.63691
2012    2       0       0.3351253       78.83915
2012    2       1       0.3374442       78.85993
2012    2       2       0.3220192       76.07244
2012    2       3       0.2953747       71.45318
2012    2       4       0.2731665       67.19473
2012    2       5       0.2682378       66.24574
2012    2       6       0.2163109       55.91276
2012    2       7       0.2118479       55.42792
2012    3       0       0.2866703       70.39623
2012    3       1       0.2895893       70.9327
2012    3       2       0.2069626       54.45754
2012    3       3       0.1732651       47.2411
2012    3       4       0.1876465       50.198
2012    3       5       0.1660555       45.49337
2012    3       6       0.2328206       59.37933
2012    3       7       0.3478572       81.47151
2012    4       0       0.3058314       73.74748
2012    4       1       0.4496704       98.12629
2012    4       2       0.2656591       65.83235
2012    4       3       0.2492926       62.77569
2012    4       4       0.3419087       79.9055
2012    4       5       0.3810164       86.44198
2012    4       6       0.3495784       80.98626
2012    4       7       0.6226839       123.2136
2012    5       0       0.734798        137.3442
2012    5       1       0.5209384       108.5904
2012    5       2       0.5919294       118.6714
2012    5       3       0.4407787       96.48708
2012    5       4       0.3152502       74.88023
2012    5       5       0.1036898       31.07288
2012    5       6       0.1360008       37.73629
2012    5       7       0.2379855       58.865
2012    6       0       0.2796873       66.84728
2012    6       1       0.3192682       74.07855
2012    6       2       0.4307311       93.67688
2012    6       3       0.3849308       85.68425
2012    6       4       0.13921         38.46667
2012    6       5       0.1167576       33.47807
2012    6       6       0.1341877       37.20256
2012    6       7       0.2110178       52.89613
2012    7       0       0.3032072       70.43717
2012    7       1       0.3385738       77.01674
2012    7       2       0.3065368       71.66738
2012    7       3       0.2186129       55.17423
2012    7       4       0.1277566       36.30258
2012    7       5       0.07950382      25.36085
2012    7       6       0.07705536      24.62534
2012    7       7       0.2044817       51.92262
2012    8       0       0.2077877       53.00254
2012    8       1       0.1923211       50.17998
2012    8       2       0.1864172       49.21773
2012    8       3       0.1613811       44.09522
2012    8       4       0.1521939       42.07575
2012    8       5       0.1709382       45.91771
2012    8       6       0.1624311       44.07687
2012    8       7       0.1443268       40.18316
2012    9       0       0.1118832       32.98058
2012    9       1       0.1047294       31.35632
2012    9       2       0.09007865      28.03426
2012    9       3       0.08262102      26.32893
2012    9       4       0.09818049      29.90958
2012    9       5       0.1779511       47.06547
2012    9       6       0.2487528       61.73103
2012    9       7       0.2709781       66.52067
2012    10      0       0.2530068       63.04623
2012    10      1       0.2110149       54.56535
2012    10      2       0.2066486       53.60606
2012    10      3       0.2132181       54.92186
2012    10      4       0.2222956       56.45078
2012    10      5       0.2625241       64.0174
2012    10      6       0.43143         93.57006
2012    10      7       0.6187465       122.0556
2012    11      0       0.5795365       117.0501
2012    11      1       0.4943902       104.4227
2012    11      2       0.3511474       80.39838
2012    11      3       0.2656611       64.14803
2012    11      4       0.3011668       70.94897
2012    11      5       0.3492086       79.47169
2012    11      6       0.3636664       82.68442
2012    11      7       0.4797458       102.4839
2012    12      0       0.6743183       129.8435
2012    12      1       0.5725432       116.3239
2012    12      2       0.5737094       116.2426
2012    12      3       0.5802171       117.1997
2012    12      4       0.4952782       105.0384
2012    12      5       0.4185317       92.35838
2012    12      6       0.8782464       153.5528
2012    12      7       0.4116926       90.00005
2012    13      0       0.855114        151.6843
2012    13      1       0.5933456       119.2928
2012    13      2       0.2149364       55.04965
2012    13      3       0.1331794       37.74144
2012    13      4       0.1981959       51.38514
2012    13      5       0.2438783       60.4821
2012    13      6       0.373751        83.35324
2012    13      7       0.6526157       126.5055
2012    14      0       0.3308637       77.4572
2012    14      1       0.4742478       100.7942
2012    14      2       0.3475026       80.87176
2012    14      3       0.2121275       54.52418
2012    14      4       0.2302141       57.61114
2012    14      5       0.2259834       57.23438
2012    14      6       0.202953        52.40336
2012    14      7       0.2395218       60.41379
2012    15      0       0.2546855       63.55716
2012    15      1       0.2094137       54.53264
2012    15      2       0.2035622       53.46414
2012    15      3       0.3062839       74.02178
2012    15      4       0.2602895       65.06629
2012    15      5       0.224905        57.91855
2012    15      6       0.2293843       58.86334
2012    15      7       0.3327974       78.70606
2012    16      0       0.4179924       93.20075
2012    16      1       0.3218768       75.58893
2012    16      2       0.4911904       103.2666
2012    16      3       0.1803907       48.52446
2012    16      4       0.1022005       31.06918
2012    16      5       0.1522773       41.96977
2012    16      6       0.4658127       101.2494
2012    16      7       0.5648746       115.8841
2012    17      0       0.5613427       117.6949
2012    17      1       0.2650924       66.22694
2012    17      2       0.673147        131.4738
2012    17      3       0.07198892      24.01647
2012    17      4       0.05369961      19.36866
2012    17      5       0.06576034      22.25646
2012    17      6       0.1204921       34.64544
2012    17      7       0.195036        50.84861
2012    18      0       0.2525649       62.85664
2012    18      1       0.1677027       45.79479
2012    18      2       0.1689109       45.86477
2012    18      3       0.1839013       49.15174
2012    18      4       0.2031094       53.27258
2012    18      5       0.2345176       59.4369
2012    18      6       0.2384699       60.45185
2012    18      7       0.2396077       60.59578
2012    19      0       0.268415        66.07965
2012    19      1       0.2956943       71.40105
2012    19      2       0.2601294       64.85134
2012    19      3       0.2408159       61.09476
2012    19      4       0.2850811       69.13479
2012    19      5       0.1763274       47.14044
2012    19      6       0.1756722       46.29591
2012    19      7       0.1874984       49.22864
2012    20      0       0.2448381       60.41561
2012    20      1       0.3177013       73.97013
2012    20      2       0.6240926       123.8346
2012    20      3       0.6739311       131.2055
2012    20      4       0.671391        131.0363
2012    20      5       0.5970826       121.0722
2012    20      6       0.2924765       70.88443
2012    20      7       0.2105421       54.81126
2012    21      0       0.1687145       46.08949
2012    21      1       0.172243        46.59884
2012    21      2       0.1557697       42.9685
2012    21      3       0.1252934       36.27324
2012    21      4       0.1272336       36.69917
2012    21      5       0.1639461       44.91738
2012    21      6       0.2399015       60.69683
2012    21      7       0.3633762       83.93526
2012    22      0       0.4507359       98.73909
2012    22      1       0.4449207       97.90473
2012    22      2       0.4107817       92.26856
2012    22      3       0.3675969       84.79195
2012    22      4       0.3069487       73.48725
2012    22      5       0.2539096       63.10931
2012    22      6       0.2838971       68.80301
2012    22      7       0.348483        80.73748
2012    23      0       0.2913829       71.41375
2012    23      1       0.1973771       51.84616
2012    23      2       0.1846345       49.33004
2012    23      3       0.1610343       44.447
2012    23      4       0.2363528       60.58061
2012    23      5       0.2010354       53.10909
2012    23      6       0.1282361       36.96643
2012    23      7       0.2040623       52.63507
2012    24      0       0.2304936       58.4892
2012    24      1       0.2267991       57.79793
2012    24      2       0.2266033       57.88728
2012    24      3       0.2369125       59.8881
2012    24      4       0.202307        52.98298
2012    24      5       0.2422045       60.83535
2012    24      6       0.3103533       73.89691
2012    24      7       0.440787        96.24856
2012    25      0       0.5311275       109.7995
2012    25      1       0.2737122       66.16712
2012    25      2       0.2606657       63.35053
2012    25      3       0.1425057       39.30109
2012    25      4       0.1517396       41.09397
2012    25      5       0.1831267       47.48888
2012    25      6       0.2783626       65.92525
2012    25      7       0.3177211       72.79706
2012    26      0       0.3102127       71.42217
2012    26      1       0.222035        54.83815
2012    26      2       0.1678059       43.88794
2012    26      3       0.1905364       48.35388
2012    26      4       0.08822656      27.02727
2012    26      5       0.08356958      25.99834
2012    26      6       0.1197986       34.06977
2012    26      7       0.1280136       36.09346
2012    27      0       0.1687404       44.73696
2012    27      1       0.2436036       59.78982
2012    27      2       0.3585388       80.88095
2012    27      3       0.3535323       80.14514
2012    27      4       0.158671        42.53587
2012    27      5       0.1869677       48.32594
2012    27      6       0.2733303       65.2165
2012    27      7       0.2638748       63.72528
2012    28      0       0.3422548       78.27522
2012    28      1       0.4375833       94.40403
2012    28      2       0.4760976       100.6929
2012    28      3       0.4034648       89.71618
2012    28      4       0.2503252       62.17228
2012    28      5       0.2815673       68.23927
2012    28      6       0.2836229       67.89808
2012    28      7       0.2400525       59.60336
2012    29      0       0.1846959       48.10151
2012    29      1       0.2400137       59.08584
2012    29      2       0.2484777       60.85611
2012    29      3       0.2227007       55.46195
2012    29      4       0.3153439       72.99087
2012    29      5       0.375019        84.15564
2012    29      6       0.3133179       73.31332
2012    29      7       0.3825484       85.53831
2012    30      0       0.5094297       106.014
2012    30      1       0.3718296       85.03174
2012    30      2       0.2303617       58.91854
2012    30      3       0.1685824       45.70043
2012    30      4       0.2002393       51.67854
2012    30      5       0.2355846       58.75624
2012    30      6       0.2760231       66.57375
2012    30      7       0.2649615       64.70385
2012    31      0       0.298528        71.46827
2012    31      1       0.3162621       74.61245
2012    31      2       0.3136287       73.55217
2012    31      3       0.3051897       71.95734
2012    31      4       0.2357696       59.40211
2012    31      5       0.1581476       43.66787
2012    31      6       0.1600438       43.94817
2012    31      7       0.2161015       55.88872
2013    1       0       0.5833344       121.8573
2013    1       1       0.3179018       77.41717
2013    1       2       0.2467157       63.04906
2013    1       3       0.2545877       64.5752
2013    1       4       0.2749174       68.56443
2013    1       5       0.262078        66.14813
2013    1       6       0.2830379       70.46907
2013    1       7       0.2999285       73.86517
2013    2       0       0.4192887       95.48182
2013    2       1       0.5016097       108.2948
2013    2       2       0.4588489       100.94
2013    2       3       0.3018592       73.17325
2013    2       4       0.1933043       51.56869
2013    2       5       0.1525999       42.54936
2013    2       6       0.186996        49.54845
2013    2       7       0.3225704       76.70079
2013    3       0       0.402294        90.91548
2013    3       1       0.4348569       96.57656
2013    3       2       0.3993037       90.58563
2013    3       3       0.3225048       76.99015
2013    3       4       0.2918374       70.92961
2013    3       5       0.3431484       80.39077
2013    3       6       0.3178166       76.29131
2013    3       7       0.3968111       90.5148
2013    4       0       0.4711102       102.4358
2013    4       1       0.4725732       102.1886
2013    4       2       0.5228839       110.1415
2013    4       3       0.392791        89.04104
2013    4       4       0.08580972      27.16524
2013    4       5       0.08264081      26.31959
2013    4       6       0.1128423       33.19355
2013    4       7       0.2344871       58.43031
2013    5       0       0.2796997       66.87147
2013    5       1       0.2236698       56.12266
2013    5       2       0.1888397       49.10305
2013    5       3       0.2958369       69.56134
2013    5       4       0.385331        85.65792
2013    5       5       0.4866647       102.3076
2013    5       6       0.331784        76.76542
2013    5       7       0.1161748       33.38453
2013    6       0       0.1051353       31.57909
2013    6       1       0.1190972       34.76289
2013    6       2       0.2403209       60.39753
2013    6       3       0.3715264       85.32602
2013    6       4       0.3318756       78.66128
2013    6       5       0.3237713       77.04891
2013    6       6       0.3339267       78.80176
2013    6       7       0.3926426       88.86278
2013    7       0       0.3916725       88.91899
2013    7       1       0.3599794       83.36983
2013    7       2       0.2837309       69.28226
2013    7       3       0.2371381       59.98261
2013    7       4       0.2228529       57.00515
2013    7       5       0.2060173       53.75346
2013    7       6       0.1907452       50.7424
2013    7       7       0.2092119       54.78082
2013    8       0       0.2707451       67.26913
2013    8       1       0.2434327       61.83691
2013    8       2       0.1912704       50.64425
2013    8       3       0.2297668       58.47559
2013    8       4       0.240222        60.3813
2013    8       5       0.2605518       64.17487
2013    8       6       0.2683451       65.79991
2013    8       7       0.3241915       77.09605
2013    9       0       0.3523253       82.55522
2013    9       1       0.2966818       71.43491
2013    9       2       0.2750813       66.8592
2013    9       3       0.2989739       71.24602
2013    9       4       0.2578637       63.6619
2013    9       5       0.2492959       62.15568
2013    9       6       0.3486157       80.82296
2013    9       7       0.4816176       103.171
2013    10      0       0.57556         116.8533
2013    10      1       0.3621958       82.9118
2013    10      2       0.4175737       92.55222
2013    10      3       0.4044416       89.68064
2013    10      4       0.5154296       107.1542
2013    10      5       0.5012832       105.113
2013    10      6       0.6003933       118.4355
2013    10      7       0.6987087       130.8939
2013    11      0       0.4298003       92.40306
2013    11      1       0.3315509       75.8637
2013    11      2       0.2660276       64.0549
2013    11      3       0.15595         42.39523
2013    11      4       0.1624403       43.956
2013    11      5       0.2756997       66.46793
2013    11      6       0.3937507       87.20123
2013    11      7       0.5987099       118.0238
2013    12      0       0.5320753       108.6807
2013    12      1       0.3111423       73.16904
2013    12      2       0.263457        64.19938
2013    12      3       0.1691482       45.34019
2013    12      4       0.1546747       42.22829
2013    12      5       0.1739312       46.22664
2013    12      6       0.1261394       36.27737
2013    12      7       0.1580124       43.63802
2013    13      0       0.2264165       57.56347
2013    13      1       0.1554673       42.61894
2013    13      2       0.1155311       33.71666
2013    13      3       0.2244757       57.16449
2013    13      4       0.1546431       42.37438
2013    13      5       0.1913355       50.24858
2013    13      6       0.3231746       76.76581
2013    13      7       0.5735974       116.3753
2013    14      0       0.6063567       120.7426
2013    14      1       0.6003211       119.1167
2013    14      2       0.4498797       97.43632
2013    14      3       0.2841402       68.77912
2013    14      4       0.2207969       56.15137
2013    14      5       0.25379         62.53279
2013    14      6       0.1911341       49.91315
2013    14      7       0.3761411       84.21385
2013    15      0       0.3617102       81.55351
2013    15      1       0.2299604       57.57608
2013    15      2       0.1627906       44.07602
2013    15      3       0.1202294       34.91178
2013    15      4       0.09923118      30.09843
2013    15      5       0.0938121       28.91454
2013    15      6       0.1632783       44.49434
2013    15      7       0.2851445       68.59153
2013    16      0       0.3552734       80.3043
2013    16      1       0.4001001       87.58309
2013    16      2       0.4849711       100.9995
2013    16      3       0.4304068       92.348
2013    16      4       0.3827731       84.45549
2013    16      5       0.2899236       68.09756
2013    16      6       0.2927195       68.64977
2013    16      7       0.3636898       81.26223
2013    17      0       0.2940816       69.67008
2013    17      1       0.1891628       49.68132
2013    17      2       0.182973        48.01594
2013    17      3       0.2380231       58.3662
2013    17      4       0.2893815       67.80137
2013    17      5       0.3132581       73.06845
2013    17      6       0.2937102       69.32886
2013    17      7       0.3018645       71.04612
2013    18      0       0.383379        85.10113
2013    18      1       0.3183748       73.61035
2013    18      2       0.3385385       77.09397
2013    18      3       0.2996622       70.16871
2013    18      4       0.2796438       66.11912
2013    18      5       0.283197        66.36475
2013    18      6       0.200388        51.00655
2013    18      7       0.1566089       42.05378
2013    19      0       0.1749785       46.02574
2013    19      1       0.1988467       50.92101
2013    19      2       0.2541032       62.00824
2013    19      3       0.258389        63.33642
2013    19      4       0.2337468       58.36559
2013    19      5       0.2796402       66.6439
2013    19      6       0.2360025       59.04418
2013    19      7       0.2087609       53.46839
2013    20      0       0.2184163       55.12872
2013    20      1       0.2390772       58.92646
2013    20      2       0.2205891       55.11911
2013    20      3       0.2053524       52.05199
2013    20      4       0.2149382       54.09588
2013    20      5       0.3336159       76.05988
2013    20      6       0.4634381       97.5838
2013    20      7       0.5705251       113.5126
2013    21      0       0.4475202       95.12507
2013    21      1       0.3282693       75.19707
2013    21      2       0.1831295       47.69848
2013    21      3       0.1142568       33.11729
2013    21      4       0.163006        43.59939
2013    21      5       0.1439671       39.80651
2013    21      6       0.1759848       46.45051
2013    21      7       0.3382286       77.8629
2013    22      0       0.3974001       88.24754
2013    22      1       0.3257713       76.09111
2013    22      2       0.3129525       73.78739
2013    22      3       0.3260155       76.3721
2013    22      4       0.2853908       68.64339
2013    22      5       0.2571103       63.34091
2013    22      6       0.2437962       60.71123
2013    22      7       0.2564106       63.48742
2013    23      0       0.2741337       66.82325
2013    23      1       0.233691        58.86382
2013    23      2       0.1853036       48.88839
2013    23      3       0.1788311       47.53748
2013    23      4       0.1593954       43.48472
2013    23      5       0.1350513       38.23818
2013    23      6       0.1198867       34.88096
2013    23      7       0.1522798       42.15689
2013    24      0       0.1837974       48.92153
2013    24      1       0.1753091       47.02657
2013    24      2       0.1405883       39.46287
2013    24      3       0.1289252       36.79735
2013    24      4       0.1643454       44.20767
2013    24      5       0.1986652       50.95637
2013    24      6       0.2350048       58.13024
2013    24      7       0.3253789       75.22797
2013    25      0       0.4662708       99.19165
2013    25      1       0.4985197       104.3068
2013    25      2       0.449844        97.31122
2013    25      3       0.4559318       98.03376
2013    25      4       0.495473        103.7341
2013    25      5       0.6334185       123.1662
2013    25      6       0.6869317       130.1011
2013    25      7       0.7710215       140.3488
2013    26      0       0.7772959       140.7177
2013    26      1       0.6803815       128.9143
2013    26      2       0.5731632       114.5527
2013    26      3       0.4181281       91.02866
2013    26      4       0.3245036       75.25122
2013    26      5       0.3019155       71.43637
2013    26      6       0.2607882       64.01926
2013    26      7       0.245389        61.22894
2013    27      0       0.2750221       67.03025
2013    27      1       0.2368329       59.66291
2013    27      2       0.1920473       50.56623
2013    27      3       0.1970013       51.58232
2013    27      4       0.167455        45.23553
2013    27      5       0.164628        44.4439
2013    27      6       0.1888711       49.53651
2013    27      7       0.2570744       63.18708
2013    28      0       0.3850174       86.01033
2013    28      1       0.3743172       84.25058
2013    28      2       0.3188576       74.75949
2013    28      3       0.3320661       76.5352
2013    28      4       0.3904178       86.91337
2013    28      5       0.2339591       58.11573
2013    28      6       0.2870291       68.80046
2013    28      7       0.4072497       90.34853
2013    29      0       0.2742236       67.06359
2013    29      1       0.1582837       43.48664
2013    29      2       0.1445989       40.36801
2013    29      3       0.1450346       39.87993
2013    29      4       0.1339859       37.55441
2013    29      5       0.1769034       46.68135
2013    29      6       0.2763905       66.81995
2013    29      7       0.4096349       90.26851
2013    30      0       0.3941847       87.09359
2013    30      1       0.7186529       133.9846
2013    30      2       0.6453229       124.2197
2013    30      3       0.07974986      25.51151
2013    30      4       0.1166682       33.6932
2013    30      5       0.151869        41.62388
2013    30      6       0.1438717       39.91437
2013    30      7       0.3390995       77.50576
2013    31      0       0.3893885       85.58291
2013    31      1       0.3629834       80.85894
2013    31      2       0.252744        61.05338
2013    31      3       0.1567404       42.03583
2013    31      4       0.2479315       60.53455
2013    31      5       0.1466748       40.65931
2013    31      6       0.09623016      29.36675
2013    31      7       0.1883646       49.16175
2014    1       0       0.7780407       142.9651
2014    1       1       0.4913432       104.5044
2014    1       2       0.3557913       82.46907
2014    1       3       0.3208574       75.77991
2014    1       4       0.3690645       83.62706
2014    1       5       0.4546807       97.64702
2014    1       6       0.7182814       134.4176
2014    1       7       0.7182158       134.6723
2014    2       0       0.6397197       125.0205
2014    2       1       0.4887942       103.7436
2014    2       2       0.294321        70.79862
2014    2       3       0.142932        40.13942
2014    2       4       0.1326886       37.76809
2014    2       5       0.1012912       30.50899
2014    2       6       0.1917981       50.12852
2014    2       7       0.3157947       74.48197
2014    3       0       0.3543116       81.79423
2014    3       1       0.358251        82.46517
2014    3       2       0.2932428       70.74767
2014    3       3       0.2335979       59.02613
2014    3       4       0.2331941       59.27993
2014    3       5       0.2571281       63.56854
2014    3       6       0.3512035       81.10159
2014    3       7       0.4237381       93.94189
2014    4       0       0.3514425       81.78503
2014    4       1       0.3037734       73.38235
2014    4       2       0.3064879       74.57673
2014    4       3       0.337354        80.49951
2014    4       4       0.3601306       84.3995
2014    4       5       0.43921         97.43987
2014    4       6       0.4846923       104.4863
2014    4       7       0.5513019       114.6115
2014    5       0       0.4884963       104.8769
2014    5       1       0.4634322       100.7029
2014    5       2       0.5360725       111.1816
2014    5       3       0.5273685       109.3622
2014    5       4       0.3173947       74.68482
2014    5       5       0.1959444       50.97922
2014    5       6       0.1456824       40.26334
2014    5       7       0.1934894       50.92912
2014    6       0       0.1957222       51.30997
2014    6       1       0.206486        53.30486
2014    6       2       0.2751513       66.73585
2014    6       3       0.2426502       60.65041
2014    6       4       0.2353107       59.35311
2014    6       5       0.2579482       63.92241
2014    6       6       0.3370669       79.346
2014    6       7       0.4015315       90.59204
2014    7       0       0.45233         98.4265
2014    7       1       0.3489165       81.24173
2014    7       2       0.2679386       66.53239
2014    7       3       0.2119237       55.21489
2014    7       4       0.1837381       49.43144
2014    7       5       0.1710205       46.65471
2014    7       6       0.1609599       44.35508
2014    7       7       0.2075339       54.31266
2014    8       0       0.2382189       60.29976
2014    8       1       0.2921318       70.60575
2014    8       2       0.2658861       65.22684
2014    8       3       0.2564256       62.74098
2014    8       4       0.3156765       73.15176
2014    8       5       0.4082771       89.05712
2014    8       6       0.5367111       109.3119
2014    8       7       0.6895937       130.5776
2014    9       0       0.7569093       139.4789
2014    9       1       0.7949415       144.0672
2014    9       2       0.8566032       150.9353
2014    9       3       0.948752        160.5402
2014    9       4       0.9976323       165.7526
2014    9       5       1.029891        169.3887
2014    9       6       1.157706        180.3544
2014    9       7       1.05832         171.1748
2014    10      0       0.8796201       153.8845
2014    10      1       0.9086445       156.9468
2014    10      2       0.8681041       152.5538
2014    10      3       0.7734044       141.7102
2014    10      4       0.7886562       143.0845
2014    10      5       0.7672189       140.2806
2014    10      6       0.6872819       130.7453
2014    10      7       0.639318        125.2159
2014    11      0       0.5707514       115.9913
2014    11      1       0.4749287       101.6257
2014    11      2       0.4475366       97.28917
2014    11      3       0.399109        89.15195
2014    11      4       0.3716877       84.00716
2014    11      5       0.2797602       67.37743
2014    11      6       0.3261889       76.43764
2014    11      7       0.5491546       112.6093
2014    12      0       0.4347225       95.31873
2014    12      1       0.2671857       64.64163
2014    12      2       0.3192501       73.70908
2014    12      3       0.534296        109.0489
2014    12      4       0.4462389       95.6085
2014    12      5       0.325692        75.36317
2014    12      6       0.4660787       98.36777
2014    12      7       0.5338529       108.3592
2014    13      0       0.3926355       86.1966
2014    13      1       0.3208703       73.83364
2014    13      2       0.1628326       43.56465
2014    13      3       0.1090507       32.14274
2014    13      4       0.1012521       30.37798
2014    13      5       0.1134277       33.19762
2014    13      6       0.1601911       43.59407
2014    13      7       0.2228591       56.87232
2014    14      0       0.1891916       50.29662
2014    14      1       0.1212669       35.34772
2014    14      2       0.1626872       44.26858
2014    14      3       0.2554581       63.19963
2014    14      4       0.3032499       72.31629
2014    14      5       0.294234        70.89652
2014    14      6       0.2770276       67.62453
2014    14      7       0.268513        65.77503
2014    15      0       0.2346911       59.18441
2014    15      1       0.1910792       50.32218
2014    15      2       0.1633182       44.51697
2014    15      3       0.1538693       42.42157
2014    15      4       0.1555179       42.80824
2014    15      5       0.1674559       45.17711
2014    15      6       0.1866441       49.27441
2014    15      7       0.2093185       54.03458
2014    16      0       0.2683959       65.45226
2014    16      1       0.2017139       52.04865
2014    16      2       0.1508702       41.99355
2014    16      3       0.1959861       51.54878
2014    16      4       0.189573        50.08596
2014    16      5       0.2476347       61.01708
2014    16      6       0.2706882       65.54346
2014    16      7       0.4605179       99.70196
2014    17      0       0.4670383       100.878
2014    17      1       0.5565367       113.1852
2014    17      2       0.4617329       99.77002
2014    17      3       0.5533655       113.7536
2014    17      4       0.5832981       118.0852
2014    17      5       0.5268671       110.0646
2014    17      6       0.4653608       100.4148
2014    17      7       0.4322509       94.95356
2014    18      0       0.457901        99.49755
2014    18      1       0.4090657       91.24012
2014    18      2       0.4579454       98.71375
2014    18      3       0.5253604       108.7842
2014    18      4       0.6421831       125.048
2014    18      5       0.6849664       130.8824
2014    18      6       0.7339051       137.2224
2014    18      7       0.7804387       143.0832
2014    19      0       0.7930574       144.5556
2014    19      1       0.7110485       134.6625
2014    19      2       0.6839799       131.3014
2014    19      3       0.7179389       135.3807
2014    19      4       0.8054877       145.6594
2014    19      5       0.7799356       143.1636
2014    19      6       0.7301788       137.4752
2014    19      7       0.8169421       147.5979
2014    20      0       0.8310289       149.0488
2014    20      1       0.6739048       130.3502
2014    20      2       0.4892649       104.4198
2014    20      3       0.4027708       90.5816
2014    20      4       0.454939        99.34002
2014    20      5       0.5050398       107.288
2014    20      6       0.5409336       112.6919
2014    20      7       0.6472315       127.6465
2014    21      0       0.6236053       124.5399
2014    21      1       0.5382837       112.5092
2014    21      2       0.4241205       94.53007
2014    21      3       0.4795488       102.8838
2014    21      4       0.4638197       100.162
2014    21      5       0.4300369       94.48736
2014    21      6       0.6542233       127.256
2014    21      7       0.7564698       140.9325
2014    22      0       0.8000213       145.8056
2014    22      1       0.7812964       143.4562
2014    22      2       0.7986681       145.3297
2014    22      3       0.6710284       129.6272
2014    22      4       0.2491656       61.69271
2014    22      5       0.35327         81.17906
2014    22      6       0.5448626       111.6229
2014    22      7       0.9050718       156.2346
2014    23      0       0.7872819       143.9674
2014    23      1       0.603675        121.068
2014    23      2       0.3854647       87.52857
2014    23      3       0.3271162       77.03952
2014    23      4       0.3320526       78.20416
2014    23      5       0.3598204       83.12187
2014    23      6       0.4206789       93.45807
2014    23      7       0.5289768       110.8958
2014    24      0       0.6478314       128.0124
2014    24      1       0.6666329       130.9231
2014    24      2       0.7787062       144.8365
2014    24      3       0.7635282       142.9671
2014    24      4       0.6113832       122.7895
2014    24      5       0.5039504       106.6021
2014    24      6       0.4083183       91.75282
2014    24      7       0.378266        87.71695
2014    25      0       0.3057112       74.84813
2014    25      1       0.1619608       44.99837
2014    25      2       0.1327761       38.22612
2014    25      3       0.1271152       36.90245
2014    25      4       0.1273797       37.09226
2014    25      5       0.1732211       47.63097
2014    25      6       0.2934567       71.99977
2014    25      7       0.2768961       68.98363
2014    26      0       0.2944596       72.67531
2014    26      1       0.323198        77.72709
2014    26      2       0.2583088       64.39322
2014    26      3       0.2512313       62.49874
2014    26      4       0.1688071       45.61048
2014    26      5       0.1856253       48.83228
2014    26      6       0.1801874       48.08395
2014    26      7       0.28457         69.73912
2014    27      0       0.2975631       71.47509
2014    27      1       0.2195189       55.40426
2014    27      2       0.2966242       70.53476
2014    27      3       0.140662        39.6759
2014    27      4       0.1688551       45.38432
2014    27      5       0.1946596       50.26533
2014    27      6       0.3542827       80.05629
2014    27      7       0.3326926       77.12013
2014    28      0       0.2085146       53.54846
2014    28      1       0.09817446      29.30425
2014    28      2       0.1594691       42.32308
2014    28      3       0.2757072       65.6356
2014    28      4       0.4746784       100.1086
2014    28      5       0.2587944       63.90578
2014    28      6       0.1855955       49.17204
2014    28      7       0.24601         60.94264
2014    29      0       0.3092182       73.10911
2014    29      1       0.2516782       62.62525
2014    29      2       0.1607815       44.03419
2014    29      3       0.1426622       39.97745
2014    29      4       0.1374631       38.94439
2014    29      5       0.1851491       48.82637
2014    29      6       0.2679217       65.05959
2014    29      7       0.3336122       77.26431
2014    30      0       0.3530458       81.07942
2014    30      1       0.4003535       88.99104
2014    30      2       0.4801779       102.6921
2014    30      3       0.4759438       102.1741
2014    30      4       0.4300336       95.21672
2014    30      5       0.3699036       84.43821
2014    30      6       0.3260882       76.5327
2014    30      7       0.3079832       73.331
2014    31      0       0.3172019       74.79835
2014    31      1       0.2689043       65.48145
2014    31      2       0.2436042       60.31887
2014    31      3       0.2363824       59.20529
2014    31      4       0.2755538       66.92703
2014    31      5       0.2630174       64.3037
2014    31      6       0.2035102       52.2944
2014    31      7       0.1945165       50.40289
2015    1       0       1.263521        190.577
2015    1       1       1.278152        191.601
2015    1       2       1.03924         172.454
2015    1       3       1.131115        179.8942
2015    1       4       1.077496        175.0203
2015    1       5       1.053936        173.3093
2015    1       6       1.203987        185.7629
2015    1       7       1.280796        192.4251
2015    2       0       1.249281        190.7965
2015    2       1       1.372569        200.3997
2015    2       2       1.145002        183.6208
2015    2       3       0.4295761       96.94596
2015    2       4       0.7996463       149.9321
2015    2       5       0.6248633       126.6994
2015    2       6       0.2964206       71.7637
2015    2       7       0.9728096       166.4035
2015    3       0       1.055231        173.5137
2015    3       1       0.7462643       140.7312
2015    3       2       0.4562214       100.493
2015    3       3       0.4097354       92.27882
2015    3       4       0.33411         78.66226
2015    3       5       0.3226298       76.65435
2015    3       6       0.2790762       68.83312
2015    3       7       0.4576677       100.285
2015    4       0       0.5723242       117.5048
2015    4       1       0.4563237       100.2893
2015    4       2       0.3462743       81.3952
2015    4       3       0.3728065       85.78715
2015    4       4       0.3910403       88.84046
2015    4       5       0.3472173       81.26057
2015    4       6       0.6043692       121.9572
2015    4       7       0.8189736       149.5966
2015    5       0       0.644362        128.4551
2015    5       1       0.3612089       84.67496
2015    5       2       0.3623635       83.93604
2015    5       3       0.5588729       115.3478
2015    5       4       0.4991517       106.691
2015    5       5       0.422034        94.54475
2015    5       6       0.5747933       117.7915
2015    5       7       0.759672        142.1728
2015    6       0       0.8020034       147.535
2015    6       1       0.6310265       126.3389
2015    6       2       0.5245949       110.4298
2015    6       3       0.6008455       121.2093
2015    6       4       0.5802438       118.5316
2015    6       5       0.4612568       100.9295
2015    6       6       0.7049233       135.1443
2015    6       7       0.5440411       113.6673
2015    7       0       0.4134053       92.91001
2015    7       1       0.4640136       100.2227
2015    7       2       0.6375982       124.645
2015    7       3       0.7916273       143.5203
2015    7       4       0.8487716       149.9746
2015    7       5       0.8558024       150.9977
2015    7       6       1.001141        166.2064
2015    7       7       1.011407        168.5329
2015    8       0       0.799214        146.5623
2015    8       1       0.6047573       122.0405
2015    8       2       0.4521363       99.32723
2015    8       3       0.3875659       88.53528
2015    8       4       0.2786527       68.85846
2015    8       5       0.2291124       59.02474
2015    8       6       0.198129        52.35902
2015    8       7       0.4217779       94.68526
2015    9       0       0.6183397       124.552
2015    9       1       0.6745556       132.25
2015    9       2       0.5401119       113.8972
2015    9       3       0.4628422       101.6159
2015    9       4       0.2668702       66.4756
2015    9       5       0.2539366       63.35628
2015    9       6       0.3173873       74.93384
2015    9       7       0.609382        122.2095
2015    10      0       0.9154409       159.6225
2015    10      1       0.7471999       141.2385
2015    10      2       0.6457777       129.0998
2015    10      3       0.5834025       120.5649
2015    10      4       0.5263718       112.4055
2015    10      5       0.4067509       93.18958
2015    10      6       0.3473213       82.54515
2015    10      7       0.3863817       89.59549
2015    11      0       0.393025        90.73385
2015    11      1       0.376518        88.00752
2015    11      2       0.3445387       82.0869
2015    11      3       0.3470536       82.08074
2015    11      4       0.346681        81.75059
2015    11      5       0.3465826       81.26413
2015    11      6       0.3318767       78.57267
2015    11      7       0.544425        114.8825
2015    12      0       0.7248572       139.1058
2015    12      1       0.4224243       94.53344
2015    12      2       0.1664861       45.39542
2015    12      3       0.1477159       41.72935
2015    12      4       0.1655403       45.54633
2015    12      5       0.2149725       55.48802
2015    12      6       0.2253948       57.56526
2015    12      7       0.2669103       66.43635
2015    13      0       0.3046679       73.78019
2015    13      1       0.3837186       87.64818
2015    13      2       0.335519        79.29754
2015    13      3       0.3143851       75.73843
2015    13      4       0.3233109       77.53195
2015    13      5       0.2664102       66.71894
2015    13      6       0.2339727       60.30704
2015    13      7       0.2286088       59.23569
2015    14      0       0.2948067       72.16516
2015    14      1       0.322968        77.22399
2015    14      2       0.251429        63.54364
2015    14      3       0.2030262       53.52188
2015    14      4       0.1836068       49.24559
2015    14      5       0.1679786       45.76661
2015    14      6       0.188829        50.17224
2015    14      7       0.2701902       66.83185
2015    15      0       0.3580645       83.21678
2015    15      1       0.3702157       85.27651
2015    15      2       0.3164582       75.51463
2015    15      3       0.25886         64.24231
2015    15      4       0.2426559       60.79976
2015    15      5       0.2677389       65.71857
2015    15      6       0.3189815       75.55177
2015    15      7       0.3532899       81.94674
2015    16      0       0.4374169       96.46357
2015    16      1       0.4908683       105.0045
2015    16      2       0.5335236       111.4425
2015    16      3       0.585933        118.8689
2015    16      4       0.563742        115.7709
2015    16      5       0.5126526       108.2682
2015    16      6       0.4851162       104.0575
2015    16      7       0.5414781       112.8198
2015    17      0       0.6923151       133.4442
2015    17      1       0.6460452       127.4244
2015    17      2       0.5886646       119.397
2015    17      3       0.6167323       123.3247
2015    17      4       0.6265392       124.3096
2015    17      5       0.5614379       114.7887
2015    17      6       0.5385344       111.0458
2015    17      7       0.6745446       130.0514
2015    18      0       0.6914553       132.9252
2015    18      1       0.6360536       125.979
2015    18      2       0.5731768       117.1978
2015    18      3       0.6194337       123.118
2015    18      4       0.8058622       146.0699
2015    18      5       0.9393667       160.759
2015    18      6       0.9404091       161.0756
2015    18      7       0.997399        166.5881
2015    19      0       0.9272225       159.9791
2015    19      1       0.6802952       132.5001
2015    19      2       0.6067185       122.7862
2015    19      3       0.7422153       139.86
2015    19      4       0.9444536       161.2611
2015    19      5       0.8578069       152.1027
2015    19      6       0.8914794       155.6184
2015    19      7       0.4374984       97.08008
2015    20      0       0.2410665       60.86286
2015    20      1       0.1594441       42.87713
2015    20      2       0.2580331       62.83608
2015    20      3       0.4713631       100.198
2015    20      4       0.4188134       91.84435
2015    20      5       0.3498483       80.36378
2015    20      6       0.2788155       67.44351
2015    20      7       0.5774274       116.3553
2015    21      0       0.6288487       123.3096
2015    21      1       0.5681612       115.1338
2015    21      2       0.6140455       120.6197
2015    21      3       0.6283305       123.4447
2015    21      4       0.625296        123.1041
2015    21      5       0.771152        141.0962
2015    21      6       0.8212276       146.8065
2015    21      7       0.4850992       102.9403
2015    22      0       0.4882962       103.0987
2015    22      1       0.5584272       113.4363
2015    22      2       0.5734575       116.1108
2015    22      3       0.721017        135.0518
2015    22      4       0.8438406       149.544
2015    22      5       0.6846999       131.3398
2015    22      6       0.5408214       111.1349
2015    22      7       0.3615357       82.02414
2015    23      0       0.6231137       122.005
2015    23      1       0.7011074       132.1864
2015    23      2       0.6139469       120.9555
2015    23      3       0.5765387       116.3716
2015    23      4       0.5034894       105.4007
2015    23      5       0.4828313       102.103
2015    23      6       0.5509119       112.4608
2015    23      7       0.8749117       151.5396
2015    24      0       0.8244874       146.4732
2015    24      1       0.658233        127.4204
2015    24      2       0.4073403       90.67932
2015    24      3       0.1608485       43.85706
2015    24      4       0.1830367       48.72855
2015    24      5       0.2033966       52.81672
2015    24      6       0.2650778       64.88524
2015    24      7       0.3327252       77.48407
2015    25      0       0.4521878       97.69077
2015    25      1       0.4105649       91.49309
2015    25      2       0.3206368       76.10395
2015    25      3       0.3195178       75.40333
2015    25      4       0.3779614       84.82098
2015    25      5       0.4496792       96.5892
2015    25      6       0.4924467       104.0754
2015    25      7       0.5374546       110.8277
2015    26      0       0.5898213       118.0122
2015    26      1       0.5679765       114.7762
2015    26      2       0.5342837       109.2261
2015    26      3       0.6221511       121.4655
2015    26      4       0.5294478       108.6339
2015    26      5       0.5690039       114.2041
2015    26      6       0.5483389       111.2793
2015    26      7       0.7001057       131.8792
2015    27      0       0.5038243       104.7024
2015    27      1       0.1563365       42.59098
2015    27      2       0.08783051      27.38019
2015    27      3       0.1758392       46.18175
2015    27      4       0.2417964       59.42649
2015    27      5       0.1800862       47.51089
2015    27      6       0.150412        41.56999
2015    27      7       0.2445071       60.60765
2015    28      0       0.3178962       73.44529
2015    28      1       0.1873772       48.58175
2015    28      2       0.1034562       30.96008
2015    28      3       0.09079064      28.19947
2015    28      4       0.09938631      30.26535
2015    28      5       0.1278158       36.6995
2015    28      6       0.1225012       35.4416
2015    28      7       0.1498709       40.97104
2015    29      0       0.2799626       66.28597
2015    29      1       0.4067338       88.75194
2015    29      2       0.5566359       111.9965
2015    29      3       0.4975676       103.3887
2015    29      4       0.434957        93.25919
2015    29      5       0.3872175       85.64666
2015    29      6       0.3845365       85.45677
2015    29      7       0.4955538       103.3254
2015    30      0       0.5515609       111.4241
2015    30      1       0.525546        108.0083
2015    30      2       0.591668        117.5595
2015    30      3       0.6257001       122.2618
2015    30      4       0.6435045       124.5878
2015    30      5       0.5284045       108.369
2015    30      6       0.5107824       105.5186
2015    30      7       0.408756        89.79905
2015    31      0       0.2151944       54.96717
2015    31      1       0.07599682      24.33889
2015    31      2       0.1223303       34.65656
2015    31      3       0.3706999       83.7516
2015    31      4       0.2235399       56.57282
2015    31      5       0.1340782       38.09316
2015    31      6       0.2148915       54.90944
2015    31      7       0.2546785       63.12869
2016    1       0       1.037489        171.2831
2016    1       1       1.058531        172.7135
2016    1       2       0.8926278       156.5747
2016    1       3       0.6586825       129.3966
2016    1       4       0.5430651       113.6524
2016    1       5       0.4693633       102.5277
2016    1       6       0.805092        147.7392
2016    1       7       0.949893        162.9711
2016    2       0       0.8526613       153.4412
2016    2       1       0.791816        146.8682
2016    2       2       0.5951196       121.5145
2016    2       3       0.4574424       100.8787
2016    2       4       0.4364281       97.48262
2016    2       5       0.5073088       108.4954
2016    2       6       0.6351094       127.0674
2016    2       7       0.8575302       153.7377
2016    3       0       0.7312305       139.4294
2016    3       1       0.6677411       131.5631
2016    3       2       0.5795405       119.271
2016    3       3       0.6936319       133.421
2016    3       4       0.700377        134.2553
2016    3       5       0.1809283       48.88631
2016    3       6       0.2166358       55.41813
2016    3       7       0.2911064       70.07996
2016    4       0       0.3494501       80.37626
2016    4       1       0.3103897       73.27756
2016    4       2       0.2550523       62.84194
2016    4       3       0.1651994       44.79571
2016    4       4       0.1272137       36.30443
2016    4       5       0.1978723       51.0664
2016    4       6       0.31271         73.11505
2016    4       7       0.341928        78.51841
2016    5       0       0.1940045       50.7582
2016    5       1       0.140361        39.25093
2016    5       2       0.1738996       46.53523
2016    5       3       0.2388643       60.07375
2016    5       4       0.1870578       49.55987
2016    5       5       0.1476149       41.01586
2016    5       6       0.2224068       56.79796
2016    5       7       0.4383646       95.61732
2016    6       0       0.5791536       116.6978
2016    6       1       0.5066991       106.2145
2016    6       2       0.3433615       79.52948
2016    6       3       0.4100546       90.76458
2016    6       4       0.5540015       112.5737
2016    6       5       0.3041004       71.66717
2016    6       6       0.2385535       59.34153
2016    6       7       0.2630877       63.89221
2016    7       0       0.3429238       77.96103
2016    7       1       0.1740925       45.99612
2016    7       2       0.09983969      29.98249
2016    7       3       0.08747951      27.22721
2016    7       4       0.1061486       31.51931
2016    7       5       0.1546555       42.1728
2016    7       6       0.2170688       54.95377
2016    7       7       0.2643635       64.83638
2016    8       0       0.256223        63.64532
2016    8       1       0.2302544       58.63436
2016    8       2       0.2149224       55.51627
2016    8       3       0.2229551       57.0177
2016    8       4       0.229752        58.32806
2016    8       5       0.2191858       56.33144
2016    8       6       0.1975548       51.88079
2016    8       7       0.2676119       65.50779
2016    9       0       0.3360354       78.17545
2016    9       1       0.3264134       76.417
2016    9       2       0.3539062       81.11408
2016    9       3       0.3719703       84.27118
2016    9       4       0.4192884       92.13281
2016    9       5       0.5235316       108.2611
2016    9       6       0.6565559       126.4009
2016    9       7       0.7656062       140.0266
2016    10      0       0.742642        137.3965
2016    10      1       0.6589421       127.495
2016    10      2       0.5708397       116.1514
2016    10      3       0.4827199       103.1834
2016    10      4       0.4047904       90.48832
2016    10      5       0.2488017       62.40182
2016    10      6       0.215703        55.59296
2016    10      7       0.4837218       103.1776
2016    11      0       0.584308        117.03
2016    11      1       0.5778317       115.6602
2016    11      2       0.7135602       133.934
2016    11      3       0.6327666       124.4886
2016    11      4       0.4010022       89.73975
2016    11      5       0.4591831       99.51049
2016    11      6       0.4413162       96.39475
2016    11      7       0.4836824       103.2499
2016    12      0       0.6466705       126.4148
2016    12      1       0.6610842       127.9219
2016    12      2       0.7977923       144.685
2016    12      3       0.4792777       102.6937
2016    12      4       0.1428167       40.00767
2016    12      5       0.09745424      29.24697
2016    12      6       0.122916        34.65584
2016    12      7       0.350569        80.42465
2016    13      0       0.4521228       97.41555
2016    13      1       0.4382059       95.16602
2016    13      2       0.438981        95.50791
2016    13      3       0.511358        106.4665
2016    13      4       0.4888605       102.6871
2016    13      5       0.4909494       102.6624
2016    13      6       0.4935193       103.6772
2016    13      7       0.3865761       87.43998
2016    14      0       0.3830798       86.99162
2016    14      1       0.275111        67.65916
2016    14      2       0.2206354       56.32244
2016    14      3       0.5270391       110.4629
2016    14      4       0.5915819       121.183
2016    14      5       0.5726965       118.4244
2016    14      6       0.5505214       114.7657
2016    14      7       0.7190001       137.7035
2016    15      0       0.5027372       107.633
2016    15      1       0.3593527       82.73751
2016    15      2       0.3857454       87.75601
2016    15      3       0.4462331       98.03322
2016    15      4       0.2498677       62.84725
2016    15      5       0.3896053       89.37806
2016    15      6       0.3918401       89.75931
2016    15      7       0.360469        84.44239
2016    16      0       0.3521587       82.61505
2016    16      1       0.3410929       80.44668
2016    16      2       0.3118954       75.18428
2016    16      3       0.2956349       72.3292
2016    16      4       0.2767927       68.19787
2016    16      5       0.4681095       102.0553
2016    16      6       0.5705324       118.1857
2016    16      7       0.6007253       123.1171
2016    17      0       0.5283323       112.7757
2016    17      1       0.3693574       86.83276
2016    17      2       0.2817955       70.11761
2016    17      3       0.2112606       56.00994
2016    17      4       0.1448577       41.48601
2016    17      5       0.1547468       43.68043
2016    17      6       0.2057675       54.65653
2016    17      7       0.260439        65.6042
2016    18      0       0.3207902       76.59167
2016    18      1       0.3438968       80.65307
2016    18      2       0.3894358       89.00535
2016    18      3       0.4046787       91.77815
2016    18      4       0.4614575       100.6322
2016    18      5       0.459539        99.69891
2016    18      6       0.326122        77.09087
2016    18      7       0.3762857       86.18211
2016    19      0       0.3333379       78.31607
2016    19      1       0.1916123       50.64857
2016    19      2       0.1432264       40.25356
2016    19      3       0.1066269       31.8132
2016    19      4       0.1050106       31.36503
2016    19      5       0.1242884       35.52352
2016    19      6       0.07022432      23.25742
2016    19      7       0.0908112       28.28979
2016    20      0       0.0909255       28.20272
2016    20      1       0.07343949      23.96099
2016    20      2       0.06491171      21.83455
2016    20      3       0.07268831      23.63319
2016    20      4       0.08445441      26.41038
2016    20      5       0.124231        35.44476
2016    20      6       0.2002809       51.79365
2016    20      7       0.3015032       71.44937
2016    21      0       0.384725        86.045
2016    21      1       0.4616571       99.00271
2016    21      2       0.3736311       84.78502
2016    21      3       0.2034068       52.79275
2016    21      4       0.1453458       40.06889
2016    21      5       0.1205016       34.2106
2016    21      6       0.1236046       35.19819
2016    21      7       0.1365651       38.44177
2016    22      0       0.1338285       37.95503
2016    22      1       0.1312201       37.34177
2016    22      2       0.1726179       46.64224
2016    22      3       0.1897139       50.27063
2016    22      4       0.1787139       48.13869
2016    22      5       0.1667941       45.55999
2016    22      6       0.1892274       50.40964
2016    22      7       0.2102225       54.91636
2016    23      0       0.1933214       51.26684
2016    23      1       0.1740009       46.8638
2016    23      2       0.1701892       45.97902
2016    23      3       0.1548709       42.5682
2016    23      4       0.1511725       41.70477
2016    23      5       0.155076        42.40538
2016    23      6       0.1630462       44.03867
2016    23      7       0.235081        59.40672
2016    24      0       0.2984437       71.84887
2016    24      1       0.2312269       58.44025
2016    24      2       0.2158932       54.94145
2016    24      3       0.2596969       63.72712
2016    24      4       0.2595121       63.71785
2016    24      5       0.2579978       63.26879
2016    24      6       0.2470488       60.92936
2016    24      7       0.4020014       89.3457
2016    25      0       0.5087326       106.9992
2016    25      1       0.5885291       118.7471
2016    25      2       0.723082        136.3918
2016    25      3       0.6813587       130.7923
2016    25      4       0.6784782       130.3468
2016    25      5       0.7855597       142.928
2016    25      6       0.6949961       132.6031
2016    25      7       0.6244679       124.2799
2016    26      0       0.7336014       138.0674
2016    26      1       0.502265        106.3881
2016    26      2       0.3157059       75.23408
2016    26      3       0.1983156       52.27849
2016    26      4       0.1662562       45.36969
2016    26      5       0.139358        39.45717
2016    26      6       0.1379459       39.10533
2016    26      7       0.1339865       38.17567
2016    27      0       0.1761324       47.36959
2016    27      1       0.1739134       46.38597
2016    27      2       0.2527144       62.44984
2016    27      3       0.2980923       71.81367
2016    27      4       0.3473289       80.45963
2016    27      5       0.3986458       89.16458
2016    27      6       0.4614286       99.99747
2016    27      7       0.451644        99.07809
2016    28      0       0.4453326       97.975
2016    28      1       0.4364021       96.00532
2016    28      2       0.3631251       82.88947
2016    28      3       0.4043823       89.68075
2016    28      4       0.407149        89.90898
2016    28      5       0.4048709       89.49197
2016    28      6       0.42262         92.58439
2016    28      7       0.4392272       96.14025
2016    29      0       0.4941099       105.0096
2016    29      1       0.5259238       109.6224
2016    29      2       0.741087        138.6406
2016    29      3       0.5065861       106.6982
2016    29      4       0.2439649       61.57373
2016    29      5       0.3323004       78.46837
2016    29      6       0.2329694       59.41394
2016    29      7       0.3326416       78.81143
2016    30      0       0.3300279       78.31221
2016    30      1       0.3193379       76.22001
2016    30      2       0.1845653       48.8984
2016    30      3       0.2032619       52.48204
2016    30      4       0.2382295       59.60002
2016    30      5       0.2397793       60.03062
2016    30      6       0.2536143       63.47655
2016    30      7       0.3366491       79.89058
2016    31      0       0.3807089       88.13435
2016    31      1       0.3164033       75.81176
2016    31      2       0.390005        87.27063
2016    31      3       0.3166448       75.48773
2016    31      4       0.1717673       46.51588
2016    31      5       0.1482297       41.19994
2016    31      6       0.144364        40.49889
2016    31      7       0.1710315       46.5335
2017    1       0       0.9361999       160.3358
2017    1       1       0.7414925       139.0061
2017    1       2       0.2822206       69.13034
2017    1       3       0.3147306       75.23515
2017    1       4       0.2404132       60.84144
2017    1       5       0.1688834       45.71206
2017    1       6       0.2725734       66.032
2017    1       7       0.4875456       103.6291
2017    2       0       0.6225676       122.9856
2017    2       1       0.671964        129.4622
2017    2       2       0.8428732       149.5146
2017    2       3       0.7645931       140.903
2017    2       4       0.5780334       117.1512
2017    2       5       0.5305507       110.0299
2017    2       6       0.6407549       125.9397
2017    2       7       0.6407347       126.4639
2017    3       0       0.4686179       101.8471
2017    3       1       0.4209839       94.30046
2017    3       2       0.2942472       71.86489
2017    3       3       0.2028032       53.65186
2017    3       4       0.2702358       67.03955
2017    3       5       0.2500377       62.85069
2017    3       6       0.1618464       44.51123
2017    3       7       0.1664366       45.91752
2017    4       0       0.2579197       65.29618
2017    4       1       0.2736994       68.55997
2017    4       2       0.33734         80.7989
2017    4       3       0.4795888       105.5056
2017    4       4       0.2967843       73.43269
2017    4       5       0.1174131       35.08307
2017    4       6       0.3144539       76.1611
2017    4       7       0.9080027       160.2575
2017    5       0       0.736569        140.6183
2017    5       1       0.4227915       95.38035
2017    5       2       0.2718359       67.31093
2017    5       3       0.3467997       81.49081
2017    5       4       0.2633058       65.78918
2017    5       5       0.2935185       71.94995
2017    5       6       0.4362112       97.17984
2017    5       7       1.057532        173.734
2017    6       0       0.9129731       160.522
2017    6       1       0.6595659       130.9292
2017    6       2       0.3110733       75.60129
2017    6       3       0.2577976       65.17621
2017    6       4       0.2231216       57.78012
2017    6       5       0.1775347       47.90639
2017    6       6       0.2459783       62.06475
2017    6       7       0.4692952       99.76301
2017    7       0       0.364996        82.2838
2017    7       1       0.1054361       31.72218
2017    7       2       0.09777392      29.96128
2017    7       3       0.1472219       40.89848
2017    7       4       0.2945779       72.0253
2017    7       5       0.3665896       84.92499
2017    7       6       0.3733381       85.99695
2017    7       7       0.3636809       84.626
2017    8       0       0.3310933       78.76725
2017    8       1       0.1629427       44.75138
2017    8       2       0.1658237       45.22566
2017    8       3       0.2394535       60.44031
2017    8       4       0.2020646       53.21818
2017    8       5       0.2127338       55.271
2017    8       6       0.2440257       61.89271
2017    8       7       0.3258265       77.50631
2017    9       0       0.3573837       82.8039
2017    9       1       0.38176         86.84275
2017    9       2       0.3658918       83.9373
2017    9       3       0.3660164       83.66417
2017    9       4       0.4160777       91.43746
2017    9       5       0.5491005       111.4476
2017    9       6       0.5139237       106.1166
2017    9       7       0.4102581       89.75625
2017    10      0       0.2984453       70.57415
2017    10      1       0.2694674       65.50831
2017    10      2       0.2024847       52.70049
2017    10      3       0.1215794       35.46808
2017    10      4       0.1010554       30.72889
2017    10      5       0.1264193       36.40441
2017    10      6       0.1502299       41.51664
2017    10      7       0.1407838       39.72013
2017    11      0       0.1273229       36.83149
2017    11      1       0.1210201       35.3128
2017    11      2       0.1133271       33.74949
2017    11      3       0.1232626       36.07666
2017    11      4       0.1364662       39.05605
2017    11      5       0.1480578       41.49394
2017    11      6       0.1624755       44.07822
2017    11      7       0.2272          56.86041
2017    12      0       0.2423543       60.65855
2017    12      1       0.2566584       63.45796
2017    12      2       0.2438983       60.60859
2017    12      3       0.2145495       54.92587
2017    12      4       0.2023507       52.57751
2017    12      5       0.1795977       47.59778
2017    12      6       0.1343406       38.44208
2017    12      7       0.1601895       44.34921
2017    13      0       0.1494571       41.6509
2017    13      1       0.1350279       38.37055
2017    13      2       0.1815955       48.56309
2017    13      3       0.2148148       55.58107
2017    13      4       0.2296523       58.44427
2017    13      5       0.2267498       57.89015
2017    13      6       0.2246941       57.42991
2017    13      7       0.2796964       68.39276
2017    14      0       0.3264133       77.05943
2017    14      1       0.2723098       66.88744
2017    14      2       0.1891949       50.08961
2017    14      3       0.1279199       36.43389
2017    14      4       0.07814009      24.89811
2017    14      5       0.07009171      23.39993
2017    14      6       0.05904282      20.80761
2017    14      7       0.06602033      22.60798
2017    15      0       0.04570105      17.33918
2017    15      1       0.05898184      20.63454
2017    15      2       0.06480508      22.04071
2017    15      3       0.0942365       28.86251
2017    15      4       0.1709994       45.52548
2017    15      5       0.2373001       59.05472
2017    15      6       0.243376        60.62375
2017    15      7       0.2072427       53.67829
2017    16      0       0.1808059       48.2466
2017    16      1       0.1405274       39.6324
2017    16      2       0.1350181       38.40145
2017    16      3       0.1447835       40.25369
2017    16      4       0.1704961       45.27322
2017    16      5       0.1689512       44.86704
2017    16      6       0.1426751       39.25835
2017    16      7       0.1121412       32.54282
2017    17      0       0.1124263       32.62214
2017    17      1       0.1206303       34.37457
2017    17      2       0.1415161       38.89324
2017    17      3       0.165619        44.21503
2017    17      4       0.1839584       48.39329
2017    17      5       0.1993726       51.98067
2017    17      6       0.2330313       59.12308
2017    17      7       0.2696462       66.1589
2017    18      0       0.286056        69.19128
2017    18      1       0.2473464       61.96378
2017    18      2       0.2753564       66.9766
2017    18      3       0.2855342       69.06469
2017    18      4       0.2613586       64.0859
2017    18      5       0.3094191       72.61124
2017    18      6       0.3202881       74.84988
2017    18      7       0.3264901       76.41333
2017    19      0       0.2965937       71.27427
2017    19      1       0.2403408       60.69098
2017    19      2       0.275653        67.70215
2017    19      3       0.446251        97.61476
2017    19      4       0.558658        114.8347
2017    19      5       0.4827361       103.8044
2017    19      6       0.4320819       95.62329
2017    19      7       0.4216548       93.48143
2017    20      0       0.3891881       88.05767
2017    20      1       0.3982134       89.31352
2017    20      2       0.4381761       95.38381
2017    20      3       0.4859683       104.2287
2017    20      4       0.5499254       113.882
2017    20      5       0.5289845       110.4502
2017    20      6       0.400712        90.2655
2017    20      7       0.3183639       76.26652
2017    21      0       0.357468        83.54502
2017    21      1       0.3150878       74.96783
2017    21      2       0.4355121       95.80049
2017    21      3       0.5412947       110.9896
2017    21      4       0.2211677       55.81242
2017    21      5       0.06539791      21.93433
2017    21      6       0.07340131      23.8782
2017    21      7       0.1503377       41.18505
2017    22      0       0.1203597       34.69039
2017    22      1       0.1854564       47.97524
2017    22      2       0.3220935       74.95465
2017    22      3       0.4058785       90.52732
2017    22      4       0.4605654       100.3054
2017    22      5       0.5873341       119.3507
2017    22      6       0.5428349       113.3611
2017    22      7       0.5231159       110.1562
2017    23      0       0.5443407       113.2101
2017    23      1       0.6327291       125.6293
2017    23      2       0.6194767       124.286
2017    23      3       0.5607259       116.4045
2017    23      4       0.4439861       98.22604
2017    23      5       0.322317        76.90534
2017    23      6       0.3806641       87.04065
2017    23      7       0.4197355       93.90969
2017    24      0       0.3587676       83.42898
2017    24      1       0.2498325       62.66799
2017    24      2       0.2187562       56.48471
2017    24      3       0.2253698       57.88965
2017    24      4       0.2278967       58.26305
2017    24      5       0.2170603       56.37131
2017    24      6       0.2941246       71.25954
2017    24      7       0.3959855       89.55772
2017    25      0       0.3022449       73.32864
2017    25      1       0.1978785       52.59016
2017    25      2       0.2606234       65.4257
2017    25      3       0.3644288       85.14137
2017    25      4       0.313694        75.6208
2017    25      5       0.2350957       60.16897
2017    25      6       0.1903599       50.74836
2017    25      7       0.1863664       49.88127
2017    26      0       0.2147032       56.11881
2017    26      1       0.2040045       53.63965
2017    26      2       0.2270296       58.26695
2017    26      3       0.2736584       67.31979
2017    26      4       0.3064064       72.88927
2017    26      5       0.318885        74.2153
2017    26      6       0.4182569       90.99799
2017    26      7       0.6953357       130.8422
2017    27      0       0.5729683       115.1693
2017    27      1       0.1833618       48.43774
2017    27      2       0.147539        40.1842
2017    27      3       0.2356717       58.22067
2017    27      4       0.3057456       71.8795
2017    27      5       0.3315884       76.3324
2017    27      6       0.4010973       87.96054
2017    27      7       0.5189962       106.5384
2017    28      0       0.5994144       118.4314
2017    28      1       0.610268        120.4511
2017    28      2       0.6107883       120.75
2017    28      3       0.5192606       108.1272
2017    28      4       0.4115751       91.45661
2017    28      5       0.4386127       95.77547
2017    28      6       0.5137394       107.6256
2017    28      7       0.587946        118.7827
2017    29      0       0.347034        81.32215
2017    29      1       0.2570647       64.02474
2017    29      2       0.2352407       59.53391
2017    29      3       0.2429303       61.56769
2017    29      4       0.2314493       59.31132
2017    29      5       0.250697        63.26231
2017    29      6       0.2507899       63.15058
2017    29      7       0.2679975       66.47844
2017    30      0       0.3633277       84.1496
2017    30      1       0.4354505       96.17289
2017    30      2       0.4737015       102.2192
2017    30      3       0.4526411       98.68987
2017    30      4       0.3952284       88.93898
2017    30      5       0.3683604       84.03874
2017    30      6       0.3926999       88.06106
2017    30      7       0.5509488       112.4971
2017    31      0       0.5217992       107.7708
2017    31      1       0.514919        106.4986
2017    31      2       0.8359177       147.5831
2017    31      3       0.7332367       135.6274
2017    31      4       0.4064621       89.14936
2017    31      5       0.1762843       46.78992
2017    31      6       0.147134        40.68385
2017    31      7       0.2338428       58.18255
2018    1       0       0.2663354       66.59558
2018    1       1       0.2377593       60.74553
2018    1       2       0.3082355       73.9537
2018    1       3       0.5960622       120.8429
2018    1       4       0.745175        140.2292
2018    1       5       0.9810535       165.0814
2018    1       6       1.024248        169.0884
2018    1       7       1.073391        173.1836
2018    2       0       0.8278711       150.2654
2018    2       1       0.612451        124.1441
2018    2       2       0.6064846       123.2583
2018    2       3       0.8324861       151.7798
2018    2       4       1.145081        181.0753
2018    2       5       1.190695        184.065
2018    2       6       0.9831891       166.5139
2018    2       7       1.326735        195.48
2018    3       0       1.448504        203.4807
2018    3       1       1.129562        181.593
2018    3       2       0.732507        141.7038
2018    3       3       0.1658122       46.05141
2018    3       4       0.1182344       34.92411
2018    3       5       0.1477909       41.54828
2018    3       6       0.159251        43.9001
2018    3       7       0.3588884       84.03893
2018    4       0       0.8166507       149.4135
2018    4       1       1.092111        177.1213
2018    4       2       0.852794        154.328
2018    4       3       0.5938793       122.0373
2018    4       4       0.2263466       59.17024
2018    4       5       0.2517068       63.83247
2018    4       6       0.1621037       44.97729
2018    4       7       0.4284571       95.18982
2018    5       0       0.2144773       55.95365
2018    5       1       0.1159402       34.37571
2018    5       2       0.1334409       38.22205
2018    5       3       0.1261074       36.45209
2018    5       4       0.1602251       43.93684
2018    5       5       0.1923244       50.7822
2018    5       6       0.2058306       53.6145
2018    5       7       0.384722        87.6633
2018    6       0       0.5677303       116.1782
2018    6       1       0.5723967       116.676
2018    6       2       0.5476364       113.1155
2018    6       3       0.2675665       66.14684
2018    6       4       0.1461381       41.12863
2018    6       5       0.1239638       36.02071
2018    6       6       0.2229184       56.05216
2018    6       7       0.7524294       139.5794
2018    7       0       0.7424809       137.9476
2018    7       1       0.6405487       125.2191
2018    7       2       0.5737979       117.0211
2018    7       3       0.513196        108.0379
2018    7       4       0.480637        102.6715
2018    7       5       0.3597227       82.08985
2018    7       6       0.4347377       95.19971
2018    7       7       0.7474253       139.6888
2018    8       0       0.9868123       164.9162
2018    8       1       0.9571289       162.8586
2018    8       2       0.5163721       108.4993
2018    8       3       0.4284167       93.71012
2018    8       4       0.4407741       96.37078
2018    8       5       0.4404295       95.79725
2018    8       6       0.5488923       112.4554
2018    8       7       0.4513271       97.01108
2018    9       0       0.386127        86.43553
2018    9       1       0.4125899       90.65975
2018    9       2       0.4314852       93.71732
2018    9       3       0.4069118       89.3984
2018    9       4       0.5015914       104.2943
2018    9       5       0.7173823       133.1783
2018    9       6       0.7340815       135.0974
2018    9       7       0.6682148       126.9296
2018    10      0       0.5427589       110.3137
2018    10      1       0.4753199       100.4349
2018    10      2       0.4003425       88.38762
2018    10      3       0.341918        78.28647
2018    10      4       0.3353354       77.46681
2018    10      5       0.5974271       117.9259
2018    10      6       0.3330314       76.50936
2018    10      7       0.36581         82.13068
2018    11      0       0.2155638       54.85252
2018    11      1       0.1623593       43.34877
2018    11      2       0.2362513       57.95697
2018    11      3       0.3171072       73.8964
2018    11      4       0.5618773       113.5026
2018    11      5       0.5635568       113.4623
2018    11      6       0.4976241       104.0009
2018    11      7       0.6655366       127.7655
2018    12      0       0.6316159       123.0861
2018    12      1       0.4695587       100.1453
2018    12      2       0.3977054       88.5325
2018    12      3       0.239044        60.06885
2018    12      4       0.1058107       31.57382
2018    12      5       0.1618944       44.20853
2018    12      6       0.1515382       42.09047
2018    12      7       0.1780803       48.02524
2018    13      0       0.1769908       47.91401
2018    13      1       0.1793231       48.39169
2018    13      2       0.1753971       47.45528
2018    13      3       0.1754232       47.34909
2018    13      4       0.1765118       47.47814
2018    13      5       0.1841051       49.09787
2018    13      6       0.1643664       44.90066
2018    13      7       0.2378593       60.13974
2018    14      0       0.261538        64.88539
2018    14      1       0.2383561       60.29705
2018    14      2       0.2606154       64.55002
2018    14      3       0.2327306       59.29829
2018    14      4       0.2604693       64.33949
2018    14      5       0.2568995       63.28408
2018    14      6       0.2927264       70.11676
2018    14      7       0.3390429       78.12412
2018    15      0       0.4013712       88.2604
2018    15      1       0.2917093       69.05892
2018    15      2       0.1628097       43.78717
2018    15      3       0.1072516       31.79081
2018    15      4       0.05510882      19.57944
2018    15      5       0.04997755      18.34105
2018    15      6       0.04969139      18.32142
2018    15      7       0.05214643      18.98241
2018    16      0       0.04483972      17.17358
2018    16      1       0.03964352      15.84296
2018    16      2       0.03635456      14.95848
2018    16      3       0.04219667      16.42437
2018    16      4       0.05205322      18.94988
2018    16      5       0.05968987      20.86719
2018    16      6       0.0734633       24.19844
2018    16      7       0.08419006      26.78005
2018    17      0       0.08645633      27.27292
2018    17      1       0.09842573      30.00489
2018    17      2       0.1269153       36.48841
2018    17      3       0.3521002       81.08493
2018    17      4       0.3236868       76.46401
2018    17      5       0.2731052       67.21736
2018    17      6       0.2728093       67.40978
2018    17      7       0.1376369       39.34808
2018    18      0       0.1219505       35.80238
2018    18      1       0.1301105       37.58818
2018    18      2       0.1701537       46.41132
2018    18      3       0.1290588       37.29687
2018    18      4       0.1106028       33.00924
2018    18      5       0.1242463       36.08252
2018    18      6       0.1115587       33.20303
2018    18      7       0.1535723       42.76355
2018    19      0       0.3458435       80.51995
2018    19      1       0.3084461       73.55591
2018    19      2       0.2888134       69.76564
2018    19      3       0.2567494       63.69416
2018    19      4       0.2511897       62.60675
2018    19      5       0.1964147       51.47277
2018    19      6       0.1224599       35.55166
2018    19      7       0.08590404      27.21303
2018    20      0       0.08297313      26.45211
2018    20      1       0.1206618       35.23075
2018    20      2       0.1794759       48.38758
2018    20      3       0.1537789       42.82593
2018    20      4       0.1435739       40.45779
2018    20      5       0.142249        40.04851
2018    20      6       0.1475623       41.23359
2018    20      7       0.140474        39.79058
2018    21      0       0.1287384       37.21296
2018    21      1       0.1000782       30.60741
2018    21      2       0.0911765       28.40007
2018    21      3       0.1303687       37.02306
2018    21      4       0.1810527       47.43433
2018    21      5       0.2042          52.1408
2018    21      6       0.177157        46.92052
2018    21      7       0.2255498       57.31876
2018    22      0       0.3540035       81.42051
2018    22      1       0.3660869       83.5124
2018    22      2       0.3124143       73.84487
2018    22      3       0.2864019       68.52687
2018    22      4       0.3230846       75.13911
2018    22      5       0.340731        78.27564
2018    22      6       0.4551147       97.46939
2018    22      7       0.669298        127.8798
2018    23      0       0.6178266       121.5357
2018    23      1       0.5862811       117.4324
2018    23      2       0.6614997       127.6176
2018    23      3       0.7840798       142.3671
2018    23      4       0.6244603       122.9096
2018    23      5       0.5102211       106.9912
2018    23      6       0.5734298       115.7951
2018    23      7       0.7010002       132.3061
2018    24      0       0.8255335       147.1518
2018    24      1       0.8112093       146.3126
2018    24      2       0.8583638       151.8262
2018    24      3       0.9941963       165.2847
2018    24      4       1.023121        167.9923
2018    24      5       1.031142        168.8136
2018    24      6       1.011162        166.7792
2018    24      7       0.7708189       141.5804
2018    25      0       0.4297949       94.23672
2018    25      1       0.3147535       74.77141
2018    25      2       0.3339479       77.4125
2018    25      3       0.2288961       56.72728
2018    25      4       0.3417961       78.75842
2018    25      5       0.2419084       60.47043
2018    25      6       0.2748167       66.81736
2018    25      7       0.3546354       81.26349
2018    26      0       0.5019567       105.0455
2018    26      1       0.5455918       111.5601
2018    26      2       0.5078898       106.216
2018    26      3       0.4065241       90.37838
2018    26      4       0.3354283       78.10685
2018    26      5       0.3609165       82.57285
2018    26      6       0.4964535       105.0208
2018    26      7       0.5494502       112.8961
2018    27      0       0.5771395       116.7811
2018    27      1       0.376688        85.96266
2018    27      2       0.3071303       73.02805
2018    27      3       0.3596708       82.61042
2018    27      4       0.4138771       92.02733
2018    27      5       0.5341508       111.5089
2018    27      6       0.447784        98.16661
2018    27      7       0.4761948       103.1609
2018    28      0       0.3873203       88.3798
2018    28      1       0.3400859       79.61177
2018    28      2       0.3993067       89.94515
2018    28      3       0.4094048       91.77905
2018    28      4       0.3824764       87.30085
2018    28      5       0.2857446       69.61672
2018    28      6       0.1793765       47.69883
2018    28      7       0.1985317       51.93383
2018    29      0       0.1931954       50.84255
2018    29      1       0.1539161       42.48038
2018    29      2       0.1470221       41.05426
2018    29      3       0.158092        43.43889
2018    29      4       0.2065474       53.63506
2018    29      5       0.2691129       66.04877
2018    29      6       0.276718        67.5596
2018    29      7       0.3757911       85.28361
2018    30      0       0.3164237       75.50586
2018    30      1       0.2470059       62.10437
2018    30      2       0.4094598       90.96568
2018    30      3       0.5528471       112.7908
2018    30      4       0.4969923       103.5475
2018    30      5       0.6646181       126.5699
2018    30      6       0.7232641       133.6795
2018    30      7       0.6861798       129.2606
2018    31      0       0.6264568       121.4084
2018    31      1       0.5986639       117.6236
2018    31      2       0.5515771       110.7471
2018    31      3       0.4887792       100.6591
2018    31      4       0.4001776       86.94482
2018    31      5       0.3708945       81.9657
2018    31      6       0.2026053       51.5922
2018    31      7       0.05885257      20.37416
