####################################################################################################
# Month: 03Mar                                                                                     #
# Station: BGK                                                                                     #
# Frequency: 230 GHz                                                                               #
# Columns are: year    day     segment         tau     Tb (K)                                      #
####################################################################################################
2009    1       0       0.7534806       138.4293
2009    1       1       0.7210585       134.4194
2009    1       2       0.7226062       134.2413
2009    1       3       0.7648322       139.0799
2009    1       4       0.4900829       102.3103
2009    1       5       0.4499267       95.86984
2009    1       6       0.4686087       99.19196
2009    1       7       0.5072784       105.6568
2009    2       0       0.8571938       151.9102
2009    2       1       0.9207447       158.5246
2009    2       2       0.6062212       120.4364
2009    2       3       0.3776138       84.361
2009    2       4       0.3729288       83.11261
2009    2       5       0.5564563       111.9226
2009    2       6       0.8474525       148.5253
2009    2       7       0.7523052       137.9757
2009    3       0       0.3490193       78.84259
2009    3       1       0.3544374       79.69962
2009    3       2       0.8847127       153.0387
2009    3       3       0.7385692       136.0639
2009    3       4       0.8746197       152.5164
2009    3       5       0.9920842       164.7822
2009    3       6       0.888736        153.8181
2009    3       7       0.7496786       137.7664
2009    4       0       0.537109        109.2641
2009    4       1       0.5453832       110.6082
2009    4       2       0.7641332       138.8658
2009    4       3       0.6759101       128.0651
2009    4       4       0.6211926       120.8103
2009    4       5       0.5741782       114.3727
2009    4       6       0.4739878       99.70266
2009    4       7       0.4816573       100.8247
2009    5       0       0.4612545       97.52016
2009    5       1       0.5086727       104.8598
2009    5       2       0.5365705       109.0106
2009    5       3       0.5752572       114.6744
2009    5       4       0.5464768       110.9414
2009    5       5       0.5581399       112.795
2009    5       6       0.5977362       118.4513
2009    5       7       0.3488482       79.14503
2009    6       0       0.5399429       110.3767
2009    6       1       0.7820076       142.2965
2009    6       2       0.5642697       113.6572
2009    6       3       0.6475506       124.5346
2009    6       4       0.6535998       125.0327
2009    6       5       0.6361593       122.6757
2009    6       6       0.6240703       121.0753
2009    6       7       0.6478455       124.0104
2009    7       0       0.6247023       121.2041
2009    7       1       0.6459936       124.5343
2009    7       2       0.9589556       161.2736
2009    7       3       0.9777834       163.5624
2009    7       4       0.8942656       155.1792
2009    7       5       0.7988556       144.6199
2009    7       6       0.9477749       160.6399
2009    7       7       0.8319944       147.9086
2009    8       0       0.7392356       136.7331
2009    8       1       0.6674712       127.3499
2009    8       2       0.8272416       146.3988
2009    8       3       0.7503579       137.4322
2009    8       4       0.7614025       138.7432
2009    8       5       0.76844         139.6352
2009    8       6       0.7272225       134.6303
2009    8       7       0.6539014       125.0015
2009    9       0       0.5512089       111.0199
2009    9       1       0.6645165       126.7977
2009    9       2       0.5367727       109.0341
2009    9       3       0.2816673       66.35176
2009    9       4       0.2689641       63.97484
2009    9       5       0.322384        73.89807
2009    9       6       0.4175039       90.54587
2009    9       7       0.520321        106.9032
2009    10      0       0.6351061       123.2143
2009    10      1       0.5880691       116.8804
2009    10      2       0.5182523       106.7965
2009    10      3       0.555956        112.4166
2009    10      4       0.8963523       154.82
2009    10      5       0.9588497       161.5269
2009    10      6       0.8902123       154.7309
2009    10      7       0.4900482       103.4708
2009    11      0       0.5364893       110.2963
2009    11      1       0.6238836       122.9798
2009    11      2       0.6331622       124.5065
2009    11      3       0.8233305       148.3682
2009    11      4       0.9555044       162.6338
2009    11      5       0.9803439       165.0346
2009    11      6       0.9948623       166.1377
2009    11      7       0.9222763       158.7303
2009    12      0       0.7542448       139.6892
2009    12      1       0.5737519       115.5683
2009    12      2       0.7497267       138.5698
2009    12      3       0.6960845       131.451
2009    12      4       0.8630968       150.9552
2009    12      5       0.6264325       122.0549
2009    12      6       0.6303775       122.887
2009    12      7       0.5072092       105.3209
2009    13      0       0.5694927       114.6243
2009    13      1       0.6302514       123.2709
2009    13      2       0.8151249       145.9381
2009    13      3       0.7972279       143.749
2009    13      4       0.7333593       136.2598
2009    13      5       1.036287        168.2922
2009    13      6       1.028465        167.3616
2009    13      7       0.7829266       141.902
2009    14      0       0.5826932       116.1012
2009    14      1       0.7752597       141.7832
2009    14      2       0.7886316       143.9711
2009    14      3       0.8476474       152.3072
2009    14      4       0.9288304       162.2457
2009    14      5       0.8167332       149.8665
2009    14      6       1.165913        183.3641
2009    14      7       1.392131        199.9813
2009    15      0       0.8934128       156.5035
2009    15      1       0.5738781       115.6941
2009    15      2       0.3592271       80.91887
2009    15      3       0.8057688       144.6087
2009    15      4       0.6370975       123.8757
2009    15      5       0.6646761       127.3164
2009    15      6       0.4217581       91.47155
2009    15      7       0.5951223       117.8941
2009    16      0       0.7016501       132.412
2009    16      1       0.4916604       102.5504
2009    16      2       0.5164027       106.5197
2009    16      3       1.024064        167.094
2009    16      4       0.825858        146.9037
2009    16      5       0.5427932       110.5588
2009    16      6       0.6674592       128.2904
2009    16      7       0.8616848       151.7046
2009    17      0       0.5841843       117.0282
2009    17      1       0.6157999       121.3426
2009    17      2       1.095993        176.196
2009    17      3       1.133176        179.2465
2009    17      4       1.113335        178.057
2009    17      5       1.186731        184.7716
2009    17      6       0.755771        142.505
2009    17      7       0.8029263       148.029
2009    18      0       1.310654        195.9483
2009    18      1       1.763173        224.0137
2009    18      2       1.61464         216.5341
2009    18      3       2.591733        251.1144
2009    18      4       0.675658        132.9417
2009    18      5       0.3766965       85.5331
2009    18      6       0.6139893       122.0372
2009    18      7       0.6731508       130.3002
2009    19      0       0.7950451       145.7551
2009    19      1       0.8041915       147.7868
2009    19      2       1.280033        195.1315
2009    19      3       1.826386        227.1911
2009    19      4       2.291398        243.6628
2009    19      5       2.225701        241.5622
2009    19      6       1.06204         177.7732
2009    19      7       0.8507868       156.6949
2009    20      0       0.8688062       158.4319
2009    20      1       0.6814525       134.8831
2009    20      2       0.9014005       161.6751
2009    20      3       0.8656798       157.8798
2009    20      4       0.7640423       146.3023
2009    20      5       1.389118        202.2378
2009    20      6       1.40227         201.8931
2009    20      7       0.7537511       141.6294
2009    21      0       0.6463697       127.0255
2009    21      1       0.6078076       121.3991
2009    21      2       0.9195228       158.9741
2009    21      3       0.9312779       159.9046
2009    21      4       0.7342708       137.8886
2009    21      5       0.509111        106.8928
2009    21      6       1.025652        169.5591
2009    21      7       0.5037509       105.3387
2009    22      0       0.4576767       98.01956
2009    22      1       0.469478        100.218
2009    22      2       0.5135232       106.9167
2009    22      3       1.008527        167.5166
2009    22      4       0.9167218       158.3731
2009    22      5       1.06954         173.0001
2009    22      6       0.8383913       149.9864
2009    22      7       0.9310175       159.7795
2009    23      0       0.8485064       150.7781
2009    23      1       0.9676632       163.1369
2009    23      2       0.9156542       157.384
2009    23      3       0.9237156       158.2567
2009    23      4       0.5959251       118.9701
2009    23      5       0.6414982       125.6631
2009    23      6       0.8289876       149.1784
2009    23      7       0.7272042       137.0562
2009    24      0       0.777323        142.7788
2009    24      1       0.8116714       146.3307
2009    24      2       0.6839876       130.5616
2009    24      3       0.7037755       133.4227
2009    24      4       0.8908514       154.9192
2009    24      5       0.6851794       130.1864
2009    24      6       0.7305569       135.5973
2009    24      7       0.9420381       158.3088
2009    25      0       0.6311875       121.6915
2009    25      1       0.5269101       106.9158
2009    25      2       0.6090738       118.4921
2009    25      3       0.6136188       119.2282
2009    25      4       0.6015051       117.9896
2009    25      5       0.5878531       116.41
2009    25      6       0.7439982       136.2933
2009    25      7       0.597923        117.1786
2009    26      0       0.4761031       99.34228
2009    26      1       0.598101        117.0436
2009    26      2       0.4564932       95.73079
2009    26      3       0.5848537       114.58
2009    26      4       0.6319161       121.0218
2009    26      5       0.6156551       118.928
2009    26      6       0.6486397       123.3069
2009    26      7       0.5819796       114.2577
2009    27      0       0.5315307       106.9035
2009    27      1       0.4589918       95.60654
2009    27      2       0.6029641       116.7543
2009    27      3       0.5224717       105.4119
2009    27      4       0.3601497       79.6396
2009    27      5       0.2280983       55.45747
2009    27      6       0.2520745       60.05024
2009    27      7       0.4681066       97.64276
2009    28      0       0.4535224       95.42166
2009    28      1       0.584258        115.1997
2009    28      2       0.6014157       117.931
2009    28      3       0.6228738       120.9278
2009    28      4       0.6842842       129.8908
2009    28      5       0.9985128       165.914
2009    28      6       1.142319        179.1108
2009    28      7       0.981631        163.6494
2009    29      0       0.5879284       117.0401
2009    29      1       0.75297         137.6938
2009    29      2       0.6495128       124.1571
2009    29      3       0.6809428       127.5262
2009    29      4       0.5897458       114.7004
2009    29      5       0.5600562       110.4607
2009    29      6       0.586423        113.9617
2009    29      7       0.5578667       109.9728
2009    30      0       0.5816006       113.4854
2009    30      1       0.5936752       115.375
2009    30      2       0.5307088       106.7688
2009    30      3       0.2760167       64.50311
2009    30      4       0.3225301       73.31802
2009    30      5       0.3925968       85.70471
2009    30      6       0.2841178       66.52164
2009    30      7       0.3073971       70.81076
2009    31      0       0.328275        74.61237
2009    31      1       0.3201594       73.05898
2009    31      2       0.4121311       88.82163
2009    31      3       0.4791809       99.4991
2009    31      4       0.4040408       87.73368
2009    31      5       0.653451        125.0578
2009    31      6       0.5168844       106.1533
2009    31      7       0.8213553       146.7142
2010    1       0       0.4123196       90.6128
2010    1       1       0.3563852       80.91873
2010    1       2       0.326038        75.60221
2010    1       3       0.2451112       59.9828
2010    1       4       0.2528585       61.44322
2010    1       5       0.376534        84.61051
2010    1       6       0.5375883       110.9334
2010    1       7       0.4982935       105.0561
2010    2       0       0.3542404       80.81707
2010    2       1       0.43809         94.70123
2010    2       2       0.9439444       161.1863
2010    2       3       0.9218861       158.5935
2010    2       4       0.74484         138.656
2010    2       5       0.7279818       136.7785
2010    2       6       0.5553874       113.475
2010    2       7       0.623302        123.1911
2010    3       0       0.6152411       121.9745
2010    3       1       1.056989        172.0854
2010    3       2       0.8677159       153.1607
2010    3       3       1.039262        169.059
2010    3       4       0.3929764       87.05403
2010    3       5       0.6623622       126.2132
2010    3       6       0.4921371       101.8407
2010    3       7       0.7551649       137.7654
2010    4       0       0.714929        133.0102
2010    4       1       0.6894295       129.2119
2010    4       2       0.5248041       107.4685
2010    4       3       0.4319278       93.4483
2010    4       4       0.4098343       89.68302
2010    4       5       0.6752131       129.2002
2010    4       6       0.7478555       138.6865
2010    4       7       1.29266         191.9248
2010    5       0       1.177603        183.2586
2010    5       1       1.096193        176.6857
2010    5       2       1.096568        177.3343
2010    5       3       1.337179        196.8996
2010    5       4       1.277074        192.9645
2010    5       5       1.309464        195.7728
2010    5       6       1.450118        204.7466
2010    5       7       0.8936429       156.6945
2010    6       0       0.6104992       121.6115
2010    6       1       0.4302904       93.65949
2010    6       2       0.6422548       125.4065
2010    6       3       0.5519039       112.4693
2010    6       4       0.3044948       71.32806
2010    6       5       0.3531476       80.04843
2010    6       6       0.4096935       89.63164
2010    6       7       0.3586711       80.90873
2010    7       0       0.5043806       104.8752
2010    7       1       0.3769628       84.08884
2010    7       2       0.2961127       69.74877
2010    7       3       0.3551688       80.6443
2010    7       4       0.4632065       99.06246
2010    7       5       0.3425906       78.51
2010    7       6       0.3196658       73.8412
2010    7       7       0.4641634       98.10692
2010    8       0       0.6498803       126.4346
2010    8       1       0.9447623       163.1426
2010    8       2       1.195263        186.1688
2010    8       3       1.021392        170.8525
2010    8       4       1.099997        178.4199
2010    8       5       1.060718        175.174
2010    8       6       1.043893        173.3176
2010    8       7       1.086828        177.188
2010    9       0       1.355261        198.3712
2010    9       1       0.9219937       161.4552
2010    9       2       1.297431        195.1865
2010    9       3       1.207767        187.6435
2010    9       4       1.46937         206.9074
2010    9       5       1.370776        200.6876
2010    9       6       1.231124        189.8403
2010    9       7       1.652415        218.011
2010    10      0       1.909211        230.1838
2010    10      1       1.667892        218.187
2010    10      2       1.094792        178.6818
2010    10      3       0.8442322       153.0891
2010    10      4       1.195933        186.1702
2010    10      5       1.139796        181.2659
2010    10      6       1.091678        177.3775
2010    10      7       1.071404        176.1802
2010    11      0       1.127336        181.182
2010    11      1       1.06557         176.0496
2010    11      2       0.8751          156.9935
2010    11      3       0.6380166       127.5433
2010    11      4       0.6062001       123.4078
2010    11      5       0.6480848       129.0951
2010    11      6       0.5555149       116.0088
2010    11      7       0.6200042       125.4823
2010    12      0       0.669897        132.5621
2010    12      1       0.6900362       135.1854
2010    12      2       1.943353        229.2878
2010    12      3       1.17939         185.317
2010    12      4       1.316263        195.8804
2010    12      5       1.531379        210.3599
2010    12      6       1.446971        205.5204
2010    12      7       1.765859        222.928
2010    13      0       1.611763        214.9402
2010    13      1       1.601528        214.0698
2010    13      2       1.586977        212.8974
2010    13      3       1.277091        192.7283
2010    13      4       1.217358        187.9605
2010    13      5       1.071841        175.6663
2010    13      6       1.008672        169.9261
2010    13      7       1.048967        173.7709
2010    14      0       0.8015737       147.8556
2010    14      1       0.7992164       147.7466
2010    14      2       1.355224        198.1515
2010    14      3       1.279587        192.3824
2010    14      4       1.069517        174.9769
2010    14      5       1.123711        179.7847
2010    14      6       1.107947        178.7325
2010    14      7       1.083305        176.6324
2010    15      0       1.110188        179.3485
2010    15      1       1.399461        200.7752
2010    15      2       1.847075        223.0217
2010    15      3       1.098831        176.2574
2010    15      4       1.005154        167.8401
2010    15      5       1.18218         183.1166
2010    15      6       1.582631        209.4418
2010    15      7       1.116553        177.3327
2010    16      0       1.050319        171.2714
2010    16      1       0.814083        147.0796
2010    16      2       0.6986361       133.1978
2010    16      3       0.7340371       137.2414
2010    16      4       0.7082954       134.4445
2010    16      5       0.7499264       140.5541
2010    16      6       1.104493        178.2934
2010    16      7       1.20883         187.2627
2010    17      0       1.008809        169.8239
2010    17      1       1.043187        172.8208
2010    17      2       1.273897        191.8437
2010    17      3       1.163631        182.8216
2010    17      4       1.101891        176.9398
2010    17      5       1.063382        173.4187
2010    17      6       1.163216        182.1286
2010    17      7       1.102502        176.7223
2010    18      0       0.9888957       166.5083
2010    18      1       1.086743        175.5249
2010    18      2       1.15452         181.5347
2010    18      3       1.170588        183.0261
2010    18      4       1.189017        184.7695
2010    18      5       1.17945         184.0375
2010    18      6       1.330355        195.2935
2010    18      7       1.175276        183.5389
2010    19      0       1.126881        179.1744
2010    19      1       0.9053843       157.9767
2010    19      2       0.8569448       153.0019
2010    19      3       0.91955         159.7769
2010    19      4       1.370878        197.1524
2010    19      5       0.9533781       162.573
2010    19      6       0.7951828       145.2921
2010    19      7       0.6448948       126.2456
2010    20      0       0.636198        124.7601
2010    20      1       0.6439142       125.4999
2010    20      2       0.7980553       144.9646
2010    20      3       0.8455669       151.0041
2010    20      4       0.6913989       132.7407
2010    20      5       0.6202562       123.3312
2010    20      6       0.7521201       140.5506
2010    20      7       0.8221736       148.9676
2010    21      0       0.676025        131.3402
2010    21      1       0.63821         126.3475
2010    21      2       0.5678213       116.1075
2010    21      3       0.5170448       108.198
2010    21      4       0.6254198       123.534
2010    21      5       0.7247018       136.8415
2010    21      6       0.7906448       144.7527
2010    21      7       0.8273989       148.5563
2010    22      0       0.9463664       161.0034
2010    22      1       0.9296551       159.2341
2010    22      2       0.8579585       152.3454
2010    22      3       0.8845357       155.4133
2010    22      4       1.079648        174.2059
2010    22      5       0.8182929       147.6541
2010    22      6       0.9854657       165.0436
2010    22      7       0.9865255       165.1966
2010    23      0       0.9525438       162.0749
2010    23      1       1.101161        176.0002
2010    23      2       0.9836277       164.7484
2010    23      3       0.8526837       150.9386
2010    23      4       0.9309946       159.2813
2010    23      5       0.8743054       153.2847
2010    23      6       0.8575773       151.4942
2010    23      7       0.7774317       142.4456
2010    24      0       0.8037892       145.2729
2010    24      1       0.8860143       154.4026
2010    24      2       0.8704411       153.386
2010    24      3       0.9698619       164.1125
2010    24      4       1.134974        179.1456
2010    24      5       1.349511        195.3753
2010    24      6       1.073151        173.8612
2010    24      7       1.070338        173.9345
2010    25      0       0.9330679       161.5206
2010    25      1       0.912185        159.4602
2010    25      2       0.8252039       149.6521
2010    25      3       0.754928        140.7285
2010    25      4       0.7703251       142.6236
2010    25      5       0.685069        131.9321
2010    25      6       0.8067172       146.9087
2010    25      7       1.177328        182.1647
2010    26      0       1.081753        173.7842
2010    26      1       0.6340437       124.1718
2010    26      2       0.4040071       88.90285
2010    26      3       0.3987222       88.0435
2010    26      4       0.896208        155.3672
2010    26      5       1.018118        166.8081
2010    26      6       0.7224631       134.7337
2010    26      7       0.5414432       110.1402
2010    27      0       0.5178633       106.7122
2010    27      1       0.6174709       121.1511
2010    27      2       0.3970944       87.42434
2010    27      3       0.3358882       76.57953
2010    27      4       0.2116971       52.68667
2010    27      5       0.1945126       49.07111
2010    27      6       0.2130687       52.8364
2010    27      7       0.2270848       55.70219
2010    28      0       0.1961051       49.42328
2010    28      1       0.1941272       48.99576
2010    28      2       0.2014101       50.32638
2010    28      3       0.2036495       50.6908
2010    28      4       0.3255185       74.21533
2010    28      5       0.3404325       76.66512
2010    28      6       0.5162887       105.0512
2010    28      7       0.4525673       95.13835
2010    29      0       0.4661178       97.16451
2010    29      1       0.4539347       95.17967
2010    29      2       0.4429433       93.5386
2010    29      3       0.5169792       104.9495
2010    29      4       0.5101981       104.1088
2010    29      5       0.4892677       101.0239
2010    29      6       0.4961558       101.9058
2010    29      7       0.5044916       102.9496
2010    30      0       0.5207778       105.1728
2010    30      1       0.5184605       104.5729
2010    30      2       0.5672839       111.6943
2010    30      3       0.5295853       106.5827
2010    30      4       0.4922742       101.2878
2010    30      5       0.4961363       101.9206
2010    30      6       0.5253572       106.2177
2010    30      7       0.4334919       92.01696
2010    31      0       0.2554752       60.63211
2010    31      1       0.2630453       62.17204
2010    31      2       0.276674        64.88003
2010    31      3       0.2304008       56.08537
2010    31      4       0.2851577       66.83644
2010    31      5       0.2941074       68.55427
2010    31      6       0.2820532       66.2382
2010    31      7       0.266402        63.14897
2011    1       0       0.4705814       99.37367
2011    1       1       0.4699111       99.00461
2011    1       2       0.6432224       124.3612
2011    1       3       0.5667191       113.9758
2011    1       4       0.4535109       97.30326
2011    1       5       0.5215027       108.4167
2011    1       6       0.7744926       142.5336
2011    1       7       0.957534        162.4412
2011    2       0       0.4094869       90.78965
2011    2       1       0.3644055       82.90036
2011    2       2       0.5875667       118.1153
2011    2       3       0.4608387       98.53565
2011    2       4       0.7183285       135.3809
2011    2       5       0.575257        115.8724
2011    2       6       0.8910621       155.237
2011    2       7       0.8403115       150.374
2011    3       0       1.133018        179.9803
2011    3       1       1.384745        200.6644
2011    3       2       0.9919655       167.5398
2011    3       3       0.8838575       155.8875
2011    3       4       0.4939078       104.7041
2011    3       5       0.4703229       100.6962
2011    3       6       0.3670953       83.26088
2011    3       7       0.3349295       77.39423
2011    4       0       0.1933758       49.41605
2011    4       1       0.2391497       58.4046
2011    4       2       0.2769379       65.75711
2011    4       3       0.2057579       51.54518
2011    4       4       0.07394383      22.55882
2011    4       5       0.06983203      21.43987
2011    4       6       0.06829947      20.98505
2011    4       7       0.07599853      22.75001
2011    5       0       0.08240833      24.26524
2011    5       1       0.1294965       34.60342
2011    5       2       0.2308511       55.53858
2011    5       3       0.4471198       95.48025
2011    5       4       0.7009059       133.6197
2011    5       5       1.022847        171.3419
2011    5       6       1.662375        217.4793
2011    5       7       0.964317        165.1165
2011    6       0       0.7702119       142.7669
2011    6       1       0.7022124       133.7232
2011    6       2       0.8338479       149.1753
2011    6       3       0.8154086       146.1309
2011    6       4       0.437397        94.05457
2011    6       5       0.3844873       85.18732
2011    6       6       0.4098722       89.41702
2011    6       7       0.4320998       93.04547
2011    7       0       0.3788932       83.76728
2011    7       1       0.5061156       103.9872
2011    7       2       0.6865421       129.1733
2011    7       3       0.4486523       94.9033
2011    7       4       0.2998505       68.95841
2011    7       5       0.3139594       71.45982
2011    7       6       0.3074012       70.23538
2011    7       7       0.3322626       74.63817
2011    8       0       0.2691742       62.96787
2011    8       1       0.2587504       60.89186
2011    8       2       0.2689198       62.78726
2011    8       3       0.3347343       74.94709
2011    8       4       0.5661392       112.09
2011    8       5       0.4254658       90.64656
2011    8       6       0.5609487       110.8319
2011    8       7       0.4612092       95.69368
2011    9       0       0.3125919       70.58786
2011    9       1       0.2328718       55.70939
2011    9       2       0.2128848       51.75513
2011    9       3       0.2360621       56.32995
2011    9       4       0.2345301       56.15129
2011    9       5       0.2416997       57.6206
2011    9       6       0.2867223       66.07567
2011    9       7       0.2990312       68.2715
2011    10      0       0.2816569       65.11025
2011    10      1       0.3068896       69.80901
2011    10      2       0.259752        60.99412
2011    10      3       0.2189082       53.06805
2011    10      4       0.2069866       50.63538
2011    10      5       0.2047345       50.14254
2011    10      6       0.2192937       53.09671
2011    10      7       0.2054472       50.31696
2011    11      0       0.281633        64.9848
2011    11      1       0.2887567       66.3612
2011    11      2       0.2602706       61.05441
2011    11      3       0.2324351       55.67287
2011    11      4       0.2580124       60.61082
2011    11      5       0.262264        61.46191
2011    11      6       0.3007288       68.73484
2011    11      7       0.3150365       71.34678
2011    12      0       0.2738077       63.6178
2011    12      1       0.2209247       53.37435
2011    12      2       0.2295003       55.29392
2011    12      3       0.2289938       55.12039
2011    12      4       0.2446482       58.09913
2011    12      5       0.4525154       95.04484
2011    12      6       0.7638247       138.5359
2011    12      7       0.6262463       121.3954
2011    13      0       0.4963466       102.3928
2011    13      1       0.6110534       118.9119
2011    13      2       0.5817979       114.9514
2011    13      3       0.4566241       96.21285
2011    13      4       0.7233919       134.2859
2011    13      5       0.8171516       145.7605
2011    13      6       0.9465737       159.9572
2011    13      7       1.018864        168.2744
2011    14      0       1.156201        182.3371
2011    14      1       1.523866        209.176
2011    14      2       1.376989        200.0191
2011    14      3       1.338318        196.9525
2011    14      4       1.405346        202.1996
2011    14      5       1.554927        211.4581
2011    14      6       1.261082        190.6854
2011    14      7       0.4733742       101.0886
2011    15      0       0.3924886       87.03341
2011    15      1       0.4214934       90.93013
2011    15      2       0.2951577       67.90763
2011    15      3       0.3615382       79.73316
2011    15      4       0.3412791       76.0733
2011    15      5       0.3503103       77.7045
2011    15      6       0.3254237       73.30784
2011    15      7       0.3113584       70.86878
2011    16      0       0.3158542       71.95784
2011    16      1       0.3886259       84.76912
2011    16      2       0.3150249       72.1954
2011    16      3       0.28836         67.50003
2011    16      4       0.289055        67.68688
2011    16      5       0.3315785       75.21368
2011    16      6       0.3194324       72.68843
2011    16      7       0.3361619       75.49366
2011    17      0       0.2360128       56.70684
2011    17      1       0.2381841       57.06857
2011    17      2       0.5318425       106.9527
2011    17      3       0.3739061       81.67087
2011    17      4       0.2893611       66.45884
2011    17      5       0.270982        63.00377
2011    17      6       0.4667405       96.39988
2011    17      7       0.5183565       104.48
2011    18      0       0.3721166       81.42214
2011    18      1       0.3236673       72.90816
2011    18      2       0.2755485       63.87061
2011    18      3       0.5457178       108.1963
2011    18      4       0.3364058       75.11412
2011    18      5       0.3733942       81.93639
2011    18      6       0.3490342       77.59826
2011    18      7       0.3992931       86.20623
2011    19      0       0.4252502       90.80342
2011    19      1       0.4454146       93.85987
2011    19      2       0.5361552       107.7529
2011    19      3       0.5721043       112.8641
2011    19      4       0.499371        102.329
2011    19      5       0.4401655       93.25764
2011    19      6       0.5246043       106.0416
2011    19      7       0.4626034       96.49235
2011    20      0       0.3584129       79.23025
2011    20      1       0.2862773       66.34628
2011    20      2       0.3494832       77.53294
2011    20      3       0.2702733       63.32016
2011    20      4       0.2210949       54.16764
2011    20      5       0.3154311       72.58879
2011    20      6       0.3838212       84.98344
2011    20      7       0.5046655       104.6058
2011    21      0       0.6117155       120.3607
2011    21      1       0.6867352       130.8166
2011    21      2       0.7599797       139.9818
2011    21      3       0.7660814       140.5066
2011    21      4       0.6195186       121.2914
2011    21      5       0.4091664       88.88703
2011    21      6       0.6391395       123.1856
2011    21      7       0.9168926       155.2881
2011    22      0       0.6878195       128.0172
2011    22      1       0.4507096       94.34449
2011    22      2       0.42995         91.26664
2011    22      3       0.4479703       94.52322
2011    22      4       0.358524        79.89131
2011    22      5       0.3771203       83.34656
2011    22      6       0.5348097       108.5175
2011    22      7       0.579081        114.8736
2011    23      0       0.5606886       112.1586
2011    23      1       0.3578432       79.79275
2011    23      2       0.2883797       67.09765
2011    23      3       0.381089        83.76695
2011    23      4       0.3831207       84.34667
2011    23      5       0.2353466       57.16944
2011    23      6       0.2232104       54.67179
2011    23      7       0.183864        46.69245
2011    24      0       0.2577385       61.24894
2011    24      1       0.3310491       75.1878
2011    24      2       0.3691406       82.1829
2011    24      3       0.2666972       64.16295
2011    24      4       0.4426343       95.72513
2011    24      5       0.6197502       123.1453
2011    24      6       0.6694361       130.9644
2011    24      7       0.7114277       137.2041
2011    25      0       0.6831622       133.71
2011    25      1       0.6386276       127.0307
2011    25      2       0.6390264       126.7842
2011    25      3       0.6170884       124.16
2011    25      4       0.5835709       119.422
2011    25      5       0.5828853       119.4335
2011    25      6       0.5871772       120.387
2011    25      7       0.6418535       128.3953
2011    26      0       0.9195451       162.724
2011    26      1       1.479933        208.9398
2011    26      2       0.5449311       115.6984
2011    26      3       0.3933821       90.62185
2011    26      4       0.3029736       73.66201
2011    26      5       0.2841557       69.88597
2011    26      6       0.2984809       72.47743
2011    26      7       0.3328037       78.73228
2011    27      0       0.3290752       77.88449
2011    27      1       0.3760518       86.32387
2011    27      2       0.4234002       94.19288
2011    27      3       0.514968        108.0215
2011    27      4       0.4657631       100.3635
2011    27      5       0.4435817       97.54252
2011    27      6       0.6147863       123.9626
2011    27      7       0.8678998       155.3327
2011    28      0       1.24172         188.512
2011    28      1       0.9370898       161.1541
2011    28      2       0.7245621       136.9475
2011    28      3       0.640989        126.2033
2011    28      4       0.812065        147.8394
2011    28      5       0.8743948       154.8555
2011    28      6       1.144197        180.6177
2011    28      7       1.085564        175.3715
2011    29      0       0.8060667       146.8103
2011    29      1       0.7550757       140.4861
2011    29      2       0.781239        143.4921
2011    29      3       0.8138747       147.1134
2011    29      4       0.7539781       140.4298
2011    29      5       0.7391149       138.6784
2011    29      6       0.7537895       140.7975
2011    29      7       0.8705546       154.6018
2011    30      0       0.9088248       158.7855
2011    30      1       0.8533427       152.8411
2011    30      2       0.9049069       158.2175
2011    30      3       0.8168452       148.2808
2011    30      4       0.7983761       146.2209
2011    30      5       0.8832267       155.7733
2011    30      6       0.9673525       165.6206
2011    30      7       0.9999275       168.7868
2011    31      0       1.400888        202.1635
2011    31      1       1.097487        179.1174
2011    31      2       0.7555668       142.8669
2011    31      3       1.252217        191.0455
2011    31      4       0.9047024       159.595
2011    31      5       0.752156        141.6198
2011    31      6       0.9769766       165.9629
2011    31      7       1.350942        196.6431
2012    1       0       0.4335914       92.95867
2012    1       1       0.706136        132.3652
2012    1       2       0.4784927       99.9365
2012    1       3       0.5184782       105.7208
2012    1       4       0.6100025       118.7722
2012    1       5       0.4756288       100.2532
2012    1       6       0.4276221       92.48117
2012    1       7       0.5829184       116.455
2012    2       0       0.7037346       133.4048
2012    2       1       1.089455        176.717
2012    2       2       1.430721        203.4028
2012    2       3       0.856602        153.2587
2012    2       4       1.528646        208.8516
2012    2       5       1.11386         180.2068
2012    2       6       1.49988         208.0224
2012    2       7       1.842703        227.0984
2012    3       0       1.608703        215.5172
2012    3       1       0.9675332       166.1575
2012    3       2       0.6097879       122.0857
2012    3       3       0.5417649       111.388
2012    3       4       0.4696582       100.0268
2012    3       5       0.4124286       90.73719
2012    3       6       0.4220759       91.87709
2012    3       7       0.482606        101.4765
2012    4       0       0.4652006       98.76788
2012    4       1       0.5511332       111.7246
2012    4       2       0.523422        107.2312
2012    4       3       0.5437082       110.261
2012    4       4       0.4306742       92.84003
2012    4       5       0.4946324       103.745
2012    4       6       0.6546865       126.9282
2012    4       7       0.6593616       127.999
2012    5       0       0.4316156       93.78231
2012    5       1       0.4987515       104.7134
2012    5       2       0.9567263       162.8973
2012    5       3       0.9959602       166.8079
2012    5       4       0.8668123       154.046
2012    5       5       0.8712121       154.4797
2012    5       6       1.133573        179.2145
2012    5       7       1.05603         173.2936
2012    6       0       1.164494        183.7927
2012    6       1       0.6062841       122.7478
2012    6       2       0.4000957       89.48564
2012    6       3       0.5248761       108.7415
2012    6       4       0.7663211       140.8832
2012    6       5       0.7216954       136.1414
2012    6       6       0.6769343       130.7245
2012    6       7       0.9851138       165.7293
2012    7       0       0.8203138       147.2504
2012    7       1       0.4615538       97.71379
2012    7       2       0.3694443       82.67998
2012    7       3       0.3600026       81.06919
2012    7       4       0.3583153       80.87757
2012    7       5       0.3828614       85.28964
2012    7       6       0.4271848       92.83319
2012    7       7       0.9085065       156.8516
2012    8       0       0.7954422       144.1072
2012    8       1       0.4456047       95.80182
2012    8       2       0.3481561       79.40691
2012    8       3       0.382413        85.14694
2012    8       4       0.6020366       118.4723
2012    8       5       0.6223823       121.0823
2012    8       6       0.4715076       99.46212
2012    8       7       0.5859273       116.4787
2012    9       0       0.5084259       104.2327
2012    9       1       0.4407881       94.10254
2012    9       2       0.4736136       99.35409
2012    9       3       0.5100379       104.7467
2012    9       4       0.5670838       113.2449
2012    9       5       0.4569757       96.77799
2012    9       6       0.757372        138.8022
2012    9       7       0.5749473       114.9357
2012    10      0       0.7131771       133.6196
2012    10      1       0.6228632       122.3144
2012    10      2       0.7393206       137.3808
2012    10      3       0.6414104       125.1139
2012    10      4       0.802477        152.2156
2012    10      5       2.282947        243.5313
2012    10      6       1.039513        173.5826
2012    10      7       1.072132        175.5557
2012    11      0       0.7601335       141.8432
2012    11      1       0.460698        98.9879
2012    11      2       0.484996        102.6228
2012    11      3       0.3359038       77.01959
2012    11      4       0.3678969       82.4958
2012    11      5       0.3135437       72.67192
2012    11      6       0.4119616       90.09491
2012    11      7       0.3882306       85.80197
2012    12      0       0.3436808       78.14826
2012    12      1       0.3612026       82.06427
2012    12      2       0.4238668       93.31567
2012    12      3       0.4665242       101.0677
2012    12      4       0.4172326       93.42217
2012    12      5       0.3253727       76.25709
2012    12      6       0.3610632       82.38848
2012    12      7       0.5722411       115.5692
2012    13      0       0.7907923       145.2483
2012    13      1       1.214069        188.0665
2012    13      2       1.386501        200.8248
2012    13      3       0.4583783       99.51265
2012    13      4       0.4675053       100.4047
2012    13      5       0.4840436       102.602
2012    13      6       0.5738565       116.2663
2012    13      7       0.4903936       103.3426
2012    14      0       0.4190003       91.52116
2012    14      1       0.438313        94.87794
2012    14      2       0.4178831       91.49524
2012    14      3       0.400795        88.4135
2012    14      4       0.4422791       95.37061
2012    14      5       0.6545143       127.1749
2012    14      6       0.6042335       119.7533
2012    14      7       0.7990619       144.0733
2012    15      0       0.9102657       156.1519
2012    15      1       0.9227257       157.5745
2012    15      2       0.9384796       158.8682
2012    15      3       0.9898796       163.5152
2012    15      4       0.8889107       153.0556
2012    15      5       0.8344118       146.852
2012    15      6       0.8154533       144.5841
2012    15      7       0.6112959       119.2879
2012    16      0       0.4731338       99.06899
2012    16      1       0.4549954       96.39629
2012    16      2       0.4893062       101.872
2012    16      3       0.4431963       94.66238
2012    16      4       0.5956048       117.9393
2012    16      5       0.7305929       135.8402
2012    16      6       0.7045521       132.4404
2012    16      7       0.6686483       127.9387
2012    17      0       0.7915406       142.923
2012    17      1       0.7812349       141.4499
2012    17      2       0.5489641       110.6359
2012    17      3       0.5582321       111.7507
2012    17      4       0.3013729       69.48744
2012    17      5       0.2391655       57.60819
2012    17      6       0.2498906       59.74886
2012    17      7       0.1945499       48.74174
2012    18      0       0.1177084       32.33267
2012    18      1       0.1587668       41.30161
2012    18      2       0.1981788       49.6583
2012    18      3       0.2336298       56.82903
2012    18      4       0.2308085       56.32673
2012    18      5       0.2915992       67.65074
2012    18      6       0.5637902       113.464
2012    18      7       0.8552861       151.9203
2012    19      0       0.9915022       166.8192
2012    19      1       1.475529        205.7901
2012    19      2       1.448398        204.2272
2012    19      3       1.231018        188.1776
2012    19      4       1.076241        175.0639
2012    19      5       0.9045856       158.354
2012    19      6       1.111821        178.0368
2012    19      7       1.153478        181.6302
2012    20      0       1.094785        176.3487
2012    20      1       1.057382        172.7001
2012    20      2       0.9225153       159.5747
2012    20      3       0.6802722       131.817
2012    20      4       0.5530328       113.7227
2012    20      5       0.7679688       142.0656
2012    20      6       0.621123        123.5997
2012    20      7       0.6238428       123.3775
2012    21      0       0.7081458       134.5948
2012    21      1       1.280121        192.2196
2012    21      2       1.159733        182.5195
2012    21      3       0.5552363       114.1847
2012    21      4       0.4310327       94.04553
2012    21      5       0.4190698       91.93037
2012    21      6       0.4755835       101.0626
2012    21      7       0.5042031       105.7054
2012    22      0       0.438363        95.24636
2012    22      1       0.4458393       96.46679
2012    22      2       0.5567689       113.9684
2012    22      3       0.5274998       109.9505
2012    22      4       0.636491        125.1686
2012    22      5       1.194306        186.6806
2012    22      6       1.840513        226.8469
2012    22      7       2.268399        242.7336
2012    23      0       1.948024        231.7834
2012    23      1       2.516692        249.477
2012    23      2       2.675748        252.8999
2012    23      3       2.35175         246.6517
2012    23      4       2.271298        244.734
2012    23      5       2.216323        243.1264
2012    23      6       0.8805947       159.5687
2012    23      7       0.7197384       140.2653
2012    24      0       0.656997        132.3356
2012    24      1       0.7117907       139.5666
2012    24      2       0.642813        129.7357
2012    24      3       0.587205        121.671
2012    24      4       0.5280623       112.7442
2012    24      5       0.4359492       97.63386
2012    24      6       0.5931931       122.4073
2012    24      7       0.847528        153.9488
2012    25      0       1.789683        224.9056
2012    25      1       2.195052        239.7459
2012    25      2       1.369841        200.6707
2012    25      3       1.489959        208.1631
2012    25      4       0.5361753       112.8878
2012    25      5       0.7398828       140.6591
2012    25      6       1.45921         205.4168
2012    25      7       0.6914098       134.9804
2012    26      0       0.7301825       140.0831
2012    26      1       0.7229148       139.0783
2012    26      2       0.4846343       105.0737
2012    26      3       0.9725219       167.3383
2012    26      4       3.272307        264.2508
2012    26      5       1.335095        199.5425
2012    26      6       1.515326        208.8825
2012    26      7       1.338227        196.3197
2012    27      0       1.319954        194.8866
2012    27      1       1.445844        203.825
2012    27      2       1.235066        189.5449
2012    27      3       1.090119        176.7944
2012    27      4       1.252625        189.9176
2012    27      5       1.832944        223.2873
2012    27      6       2.13389         234.4088
2012    27      7       1.624583        213.3844
2012    28      0       1.219872        187.7364
2012    28      1       1.071685        175.1952
2012    28      2       1.388462        199.9996
2012    28      3       1.127175        179.6243
2012    28      4       1.114936        179.8445
2012    28      5       1.4444          209.3513
2012    28      6       1.137768        183.6414
2012    28      7       2.326374        246.1996
2012    29      0       2.68442         253.0997
2012    29      1       2.249853        243.6315
2012    29      2       2.396407        248.727
2012    29      3       2.426689        249.9607
2012    29      4       2.709742        256.1485
2012    29      5       2.866379        258.8674
2012    29      6       0.8166657       153.3533
2012    29      7       0.6986002       137.8618
2012    30      0       0.8535437       156.7258
2012    30      1       1.229031        191.9528
2012    30      2       1.57592         214.1659
2012    30      3       1.291334        195.8172
2012    30      4       0.7845375       147.7556
2012    30      5       0.7982284       149.1588
2012    30      6       0.6978525       136.6673
2012    30      7       0.6515124       130.4778
2012    31      0       0.5112786       109.8643
2012    31      1       0.4777877       104.171
2012    31      2       0.717485        139.5289
2012    31      3       1.296303        196.7596
2012    31      4       1.790087        224.7571
2012    31      5       1.471973        207.8931
2012    31      6       1.8799          228.9774
2012    31      7       2.107962        237.5229
2013    1       0       1.491043        208.8459
2013    1       1       1.846315        227.5958
2013    1       2       1.496844        209.0772
2013    1       3       1.380063        201.2433
2013    1       4       1.09065         178.2887
2013    1       5       1.176474        183.4654
2013    1       6       0.5716481       116.8019
2013    1       7       0.4777778       102.0778
2013    2       0       0.3888496       86.98328
2013    2       1       0.2638701       63.75239
2013    2       2       0.1310075       35.73784
2013    2       3       0.2113258       51.99473
2013    2       4       0.5832252       116.4082
2013    2       5       0.8045606       146.1858
2013    2       6       0.9764966       164.5098
2013    2       7       0.905627        157.5215
2013    3       0       0.8003686       145.4451
2013    3       1       0.87848         152.7404
2013    3       2       0.7101776       132.3248
2013    3       3       0.4669761       97.56028
2013    3       4       0.4921886       100.5987
2013    3       5       0.5362765       106.8386
2013    3       6       0.5061898       101.816
2013    3       7       0.435271        90.70065
2013    4       0       0.475113        96.73008
2013    4       1       0.4940705       99.81649
2013    4       2       0.5009298       100.8999
2013    4       3       0.4978055       100.1425
2013    4       4       0.4649267       95.09276
2013    4       5       0.4764189       96.80835
2013    4       6       0.4643221       94.85082
2013    4       7       0.4267992       88.95714
2013    5       0       0.4010807       84.7517
2013    5       1       0.4040614       85.13098
2013    5       2       0.4019987       84.70137
2013    5       3       0.3884302       82.34676
2013    5       4       0.3728898       79.73933
2013    5       5       0.3561112       76.94088
2013    5       6       0.3840354       81.73438
2013    5       7       0.414134        86.88242
2013    6       0       0.4168669       87.80592
2013    6       1       0.290658        66.64474
2013    6       2       0.5221369       104.7506
2013    6       3       0.5112432       103.1539
2013    6       4       0.4848331       99.50598
2013    6       5       0.4798118       99.1592
2013    6       6       0.5816411       114.2371
2013    6       7       0.5674795       112.5933
2013    7       0       0.501754        103.2619
2013    7       1       0.4647991       97.73974
2013    7       2       0.464187        97.9114
2013    7       3       0.5152673       106.1263
2013    7       4       0.4640567       98.33589
2013    7       5       0.5262351       108.1384
2013    7       6       0.6063817       119.6242
2013    7       7       0.5898296       117.3936
2013    8       0       0.5827342       116.5472
2013    8       1       0.6105548       120.8432
2013    8       2       0.5958712       119.1311
2013    8       3       0.5772268       116.5969
2013    8       4       0.5875172       118.1961
2013    8       5       0.5758029       116.4887
2013    8       6       0.5514249       112.9736
2013    8       7       0.5542474       113.5309
2013    9       0       0.5321514       110.3407
2013    9       1       0.528004        109.9101
2013    9       2       0.4810666       102.6115
2013    9       3       0.4554124       98.31623
2013    9       4       0.4195139       92.14745
2013    9       5       0.4030015       89.50099
2013    9       6       0.4115668       91.21319
2013    9       7       0.4523287       97.96181
2013    10      0       0.4567605       98.7033
2013    10      1       0.4144197       91.746
2013    10      2       0.3960928       88.62843
2013    10      3       0.3898843       87.54429
2013    10      4       0.3883687       87.33858
2013    10      5       0.3895388       87.5408
2013    10      6       0.3639308       82.85348
2013    10      7       0.3445986       79.21725
2013    11      0       0.328236        76.17541
2013    11      1       0.3361376       77.7761
2013    11      2       0.4540633       98.22801
2013    11      3       0.8558238       152.3429
2013    11      4       1.117666        177.5868
2013    11      5       1.204661        184.7021
2013    11      6       1.276205        190.4209
2013    11      7       1.12487         178.6248
2013    12      0       1.071331        174.1195
2013    12      1       1.041911        171.4319
2013    12      2       1.004325        167.7678
2013    12      3       0.885582        155.5666
2013    12      4       0.9850476       165.9534
2013    12      5       1.155368        181.6148
2013    12      6       1.177589        183.2967
2013    12      7       1.373052        197.1764
2013    13      0       1.240787        187.5204
2013    13      1       1.196643        184.1822
2013    13      2       1.061552        172.3148
2013    13      3       1.362243        195.2421
2013    13      4       0.9925195       165.4116
2013    13      5       0.735092        137.0756
2013    13      6       0.7211074       135.3079
2013    13      7       0.7638262       140.5121
2013    14      0       0.831706        148.4447
2013    14      1       0.8001703       144.8869
2013    14      2       0.8276034       147.7596
2013    14      3       1.007568        166.1969
2013    14      4       1.088884        173.5531
2013    14      5       0.9893885       164.5338
2013    14      6       1.044099        169.2495
2013    14      7       0.8115103       145.4378
2013    15      0       0.887999        153.8613
2013    15      1       0.8708069       152.0293
2013    15      2       0.8633297       151.2009
2013    15      3       0.8028906       144.3741
2013    15      4       0.7464149       137.6893
2013    15      5       0.6867461       130.1802
2013    15      6       0.7398379       136.5871
2013    15      7       0.6941728       130.857
2013    16      0       0.5515782       111.631
2013    16      1       0.5753287       115.0342
2013    16      2       0.6387308       123.7316
2013    16      3       0.7221972       134.6126
2013    16      4       0.6379925       123.838
2013    16      5       0.6385935       124.1244
2013    16      6       0.5521614       111.9797
2013    16      7       0.6037418       119.4598
2013    17      0       0.5653754       114.2984
2013    17      1       0.6149334       121.544
2013    17      2       0.4928534       103.7261
2013    17      3       0.3620431       81.79661
2013    17      4       0.1436867       38.46728
2013    17      5       0.1084845       30.45333
2013    17      6       0.127536        34.66133
2013    17      7       0.1454711       38.52414
2013    18      0       0.1591251       41.59921
2013    18      1       0.1889496       48.11324
2013    18      2       0.2527756       60.9671
2013    18      3       0.3374746       76.92187
2013    18      4       0.4980039       103.7071
2013    18      5       0.695329        131.2534
2013    18      6       0.5684346       114.0816
2013    18      7       0.604416        118.7564
2013    19      0       0.3688179       82.03727
2013    19      1       0.403605        87.78165
2013    19      2       0.6094991       118.4828
2013    19      3       0.5744779       112.945
2013    19      4       0.5554462       109.6271
2013    19      5       0.5623023       110.224
2013    19      6       0.5419026       107.2297
2013    19      7       0.5585378       110.0315
2013    20      0       0.5608392       110.5481
2013    20      1       0.617202        118.4268
2013    20      2       0.674874        126.3357
2013    20      3       0.6334286       121.9167
2013    20      4       0.802234        143.5871
2013    20      5       0.6135783       120.1848
2013    20      6       1.126578        175.852
2013    20      7       1.514435        202.563
2013    21      0       1.0737          171.648
2013    21      1       0.9288804       158.259
2013    21      2       1.229378        184.4494
2013    21      3       0.6228592       122.1928
2013    21      4       0.8118048       145.8889
2013    21      5       0.6519735       126.2678
2013    21      6       0.6272743       122.9996
2013    21      7       1.479775        201.6233
2013    22      0       0.830565        148.1615
2013    22      1       0.8687824       152.3391
2013    22      2       0.9689887       162.602
2013    22      3       0.9599493       161.6231
2013    22      4       0.623633        122.4296
2013    22      5       0.5381071       110.7464
2013    22      6       0.3737015       84.00319
2013    22      7       0.3953364       87.79464
2013    23      0       0.4156557       91.38213
2013    23      1       0.3311639       76.49325
2013    23      2       0.3407501       78.33261
2013    23      3       0.3465367       79.61264
2013    23      4       0.4183482       92.34724
2013    23      5       0.3969911       88.66439
2013    23      6       0.3848439       86.52818
2013    23      7       0.3893604       87.31328
2013    24      0       0.3542816       81.09655
2013    24      1       0.3218727       75.19053
2013    24      2       0.3004857       71.14886
2013    24      3       0.306894        72.28356
2013    24      4       0.3106049       72.94017
2013    24      5       0.2997973       70.86719
2013    24      6       0.2929133       69.5765
2013    24      7       0.2839698       67.84621
2013    25      0       0.285945        68.14295
2013    25      1       0.2873095       68.33812
2013    25      2       0.2977685       70.24564
2013    25      3       0.3216187       74.62642
2013    25      4       0.3157763       73.57204
2013    25      5       0.3042771       71.46517
2013    25      6       0.2923362       69.17
2013    25      7       0.2970953       70.03619
2013    26      0       0.3404003       78.05434
2013    26      1       0.5530959       112.8303
2013    26      2       0.565589        114.5243
2013    26      3       0.4998384       104.5744
2013    26      4       0.4016372       88.72391
2013    26      5       0.3032879       71.14778
2013    26      6       0.2972274       69.92741
2013    26      7       0.2552054       61.75491
2013    27      0       0.3164317       73.46203
2013    27      1       0.4326111       93.74525
2013    27      2       0.6761291       129.3057
2013    27      3       0.7779285       141.6938
2013    27      4       0.7810188       142.1323
2013    27      5       0.7717313       141.4998
2013    27      6       0.9963571       165.8586
2013    27      7       0.9312765       159.5828
2013    28      0       0.7470436       139.0196
2013    28      1       0.6806415       130.5685
2013    28      2       0.6637634       128.3801
2013    28      3       0.8001067       145.2369
2013    28      4       0.7968551       145.107
2013    28      5       0.6661094       129.0243
2013    28      6       0.6188661       122.8198
2013    28      7       0.6281947       124.2788
2013    29      0       0.7024228       134.0043
2013    29      1       0.9518937       162.0377
2013    29      2       1.015634        168.002
2013    29      3       1.154616        180.0426
2013    29      4       0.9345102       159.8646
2013    29      5       0.7561264       139.9381
2013    29      6       0.6354545       124.2794
2013    29      7       0.5907829       117.7489
2013    30      0       0.4659485       99.08575
2013    30      1       0.4049604       89.33366
2013    30      2       0.459916        98.66211
2013    30      3       0.4628668       99.30425
2013    30      4       0.3814608       85.82665
2013    30      5       0.3724382       84.41889
2013    30      6       0.4014921       89.67435
2013    30      7       0.541911        112.4864
2013    31      0       0.9916576       167.3778
2013    31      1       0.8602657       154.0029
2013    31      2       0.8184252       149.3397
2013    31      3       0.8491079       152.8692
2013    31      4       0.6798277       132.4093
2013    31      5       0.5779846       118.1856
2013    31      6       0.8441701       151.7495
2013    31      7       1.135937        180.0207
2014    1       0       0.9085107       157.1716
2014    1       1       0.9355795       160.653
2014    1       2       1.044378        171.3352
2014    1       3       1.121327        177.8035
2014    1       4       1.128028        178.0102
2014    1       5       1.191871        183.0452
2014    1       6       1.057622        171.7328
2014    1       7       1.068329        172.6155
2014    2       0       0.8166883       146.5778
2014    2       1       0.7480649       138.1699
2014    2       2       0.707255        133.0479
2014    2       3       0.7834252       142.3131
2014    2       4       0.7339889       136.1417
2014    2       5       0.7147315       133.977
2014    2       6       0.9161069       157.7517
2014    2       7       1.100609        176.5211
2014    3       0       1.157512        181.3997
2014    3       1       1.177265        183.2804
2014    3       2       1.103686        177.3288
2014    3       3       0.6805978       131.7081
2014    3       4       0.5880789       118.8134
2014    3       5       0.5397519       112.0817
2014    3       6       0.5353955       111.327
2014    3       7       0.5093607       107.0819
2014    4       0       0.403387        89.82982
2014    4       1       0.3885832       87.14903
2014    4       2       0.4302255       94.0246
2014    4       3       0.60242         120.7721
2014    4       4       0.9898266       165.9786
2014    4       5       0.990051        166.6329
2014    4       6       1.13175         179.8014
2014    4       7       0.8099679       146.6403
2014    5       0       0.7118849       135.5016
2014    5       1       0.5512488       113.2024
2014    5       2       0.4888954       102.8369
2014    5       3       0.3578602       81.14222
2014    5       4       0.3741262       83.74244
2014    5       5       0.4107182       89.94698
2014    5       6       0.4722455       99.60475
2014    5       7       0.5522136       111.9998
2014    6       0       0.4383141       94.20903
2014    6       1       0.5864063       116.9052
2014    6       2       0.8202954       146.6044
2014    6       3       0.8129273       145.4423
2014    6       4       0.4941146       102.9665
2014    6       5       0.4059326       89.01991
2014    6       6       0.4845088       101.6945
2014    6       7       0.4853085       101.9444
2014    7       0       0.4077529       89.37816
2014    7       1       0.4812127       101.1483
2014    7       2       0.4217898       91.98052
2014    7       3       0.4101662       90.19268
2014    7       4       0.4157896       90.85415
2014    7       5       0.4859734       102.4368
2014    7       6       0.6725278       129.5857
2014    7       7       1.014529        167.6247
2014    8       0       0.7814331       143.1147
2014    8       1       0.6444918       126.1316
2014    8       2       0.5595002       114.1685
2014    8       3       0.4689131       100.2084
2014    8       4       0.5389807       110.9281
2014    8       5       0.4569088       97.4025
2014    8       6       0.5522719       112.167
2014    8       7       0.9558069       162.3132
2014    9       0       0.8905091       155.5652
2014    9       1       0.7379623       137.3019
2014    9       2       0.8858351       154.1076
2014    9       3       0.8480893       149.4469
2014    9       4       0.7718893       140.6551
2014    9       5       0.7824793       141.888
2014    9       6       0.6776124       128.8772
2014    9       7       0.6669389       127.334
2014    10      0       0.6660125       127.3534
2014    10      1       0.5988012       118.6176
2014    10      2       0.4553342       97.04219
2014    10      3       0.97288         163.0941
2014    10      4       0.7925701       144.3183
2014    10      5       0.8042629       145.9386
2014    10      6       1.379404        201.6108
2014    10      7       1.295338        196.1047
2014    11      0       0.9732801       167.6568
2014    11      1       0.6212728       124.8012
2014    11      2       0.8697009       154.2833
2014    11      3       0.7558302       140.7578
2014    11      4       0.5639095       114.8353
2014    11      5       0.5769399       116.4366
2014    11      6       0.4998513       105.0311
2014    11      7       0.4154363       91.80753
2014    12      0       0.3979971       88.35474
2014    12      1       0.5778027       116.4335
2014    12      2       0.4913534       104.8807
2014    12      3       0.5618033       116.0156
2014    12      4       1.421751        201.3638
2014    12      5       0.8806409       154.9747
2014    12      6       0.6806576       130.4617
2014    12      7       0.4217795       92.07977
2014    13      0       0.2926235       68.81132
2014    13      1       0.7253898       135.3628
2014    13      2       0.7741959       141.3015
2014    13      3       0.4121984       89.89267
2014    13      4       0.435047        93.8373
2014    13      5       0.4534705       96.79828
2014    13      6       0.5976742       118.1712
2014    13      7       0.6597401       126.3333
2014    14      0       0.6040569       118.7958
2014    14      1       0.6499028       125.4143
2014    14      2       0.6424323       124.5659
2014    14      3       0.6268927       122.4413
2014    14      4       0.8596079       150.6139
2014    14      5       0.7440344       137.1818
2014    14      6       0.6665289       127.3099
2014    14      7       0.6436297       124.5442
2014    15      0       0.590901        117.5486
2014    15      1       0.668885        128.8099
2014    15      2       0.9872147       165.5249
2014    15      3       1.13055         180.6002
2014    15      4       1.17995         185.5126
2014    15      5       1.278712        192.8947
2014    15      6       1.223476        187.8036
2014    15      7       1.123342        178.7688
2014    16      0       0.9946535       166.5157
2014    16      1       0.8401873       149.1682
2014    16      2       0.8051433       144.1476
2014    16      3       0.6487274       124.4081
2014    16      4       0.6181105       119.945
2014    16      5       0.6285331       121.5126
2014    16      6       0.7180363       134.0481
2014    16      7       0.5291154       108.304
2014    17      0       0.4158475       90.14384
2014    17      1       0.7148725       132.5369
2014    17      2       0.606092        117.6766
2014    17      3       0.4898504       100.7268
2014    17      4       0.3253582       73.60931
2014    17      5       0.3992596       86.34291
2014    17      6       0.3599301       79.69364
2014    17      7       0.3892823       84.80242
2014    18      0       0.2676869       63.27194
2014    18      1       0.2194915       54.06712
2014    18      2       0.2680248       63.90859
2014    18      3       0.2899158       68.23086
2014    18      4       0.2858894       67.28409
2014    18      5       0.3825999       85.04979
2014    18      6       0.5587977       112.9999
2014    18      7       0.6872614       130.4737
2014    19      0       0.4246235       92.07985
2014    19      1       0.4319157       93.05872
2014    19      2       0.5260029       107.6788
2014    19      3       0.5429015       110.4731
2014    19      4       0.5318927       109.0772
2014    19      5       0.7133638       133.8373
2014    19      6       0.7798138       142.0479
2014    19      7       0.8087831       145.5275
2014    20      0       0.9819896       164.1207
2014    20      1       0.908081        156.8356
2014    20      2       0.7070756       133.5598
2014    20      3       0.7529912       139.3219
2014    20      4       0.7125273       134.2038
2014    20      5       0.6593283       127.2244
2014    20      6       0.5430359       110.7645
2014    20      7       0.8642684       151.3541
2014    21      0       0.7864631       142.3545
2014    21      1       0.883259        152.4211
2014    21      2       0.8336252       146.8212
2014    21      3       0.8780449       151.5218
2014    21      4       0.7862679       141.0955
2014    21      5       0.8010408       142.6531
2014    21      6       0.677528        127.894
2014    21      7       0.5975401       117.1565
2014    22      0       0.4741178       98.87129
2014    22      1       0.4196503       89.99036
2014    22      2       0.4640733       97.10434
2014    22      3       0.5217404       105.9854
2014    22      4       0.6944287       129.9695
2014    22      5       0.8740648       150.9493
2014    22      6       0.5737363       114.1287
2014    22      7       0.57339         114.1755
2014    23      0       0.4901948       102.3839
2014    23      1       0.6673048       127.4411
2014    23      2       0.7587502       138.4366
2014    23      3       0.7199082       133.8386
2014    23      4       0.5299714       108.2072
2014    23      5       0.4549715       96.80241
2014    23      6       0.5863941       117.0415
2014    23      7       0.8170602       147.5452
2014    24      0       0.9949378       166.7865
2014    24      1       0.9749147       165.1114
2014    24      2       0.9774461       165.3006
2014    24      3       0.8815094       155.7312
2014    24      4       0.8523165       152.599
2014    24      5       1.042869        172.7598
2014    24      6       1.418676        203.4138
2014    24      7       1.412142        203.1137
2014    25      0       0.9876242       168.1594
2014    25      1       1.001174        168.425
2014    25      2       0.4554983       98.52177
2014    25      3       0.7119589       135.5949
2014    25      4       0.5018937       105.7283
2014    25      5       0.3858115       86.32263
2014    25      6       0.5304791       109.786
2014    25      7       0.4631983       99.52369
2014    26      0       0.9121992       158.0651
2014    26      1       0.9016592       157.927
2014    26      2       1.228701        189.549
2014    26      3       1.53443         212.0939
2014    26      4       1.657839        219.3157
2014    26      5       1.173206        186.0709
2014    26      6       0.8056139       149.1776
2014    26      7       0.551591        114.9671
2014    27      0       0.6007064       121.4652
2014    27      1       0.481835        102.7953
2014    27      2       0.4618869       99.30247
2014    27      3       0.421856        92.34557
2014    27      4       0.4078259       89.90326
2014    27      5       0.4056095       89.27512
2014    27      6       0.3889114       86.45081
2014    27      7       0.352146        80.19369
2014    28      0       0.3394866       78.10889
2014    28      1       0.296802        70.36304
2014    28      2       0.3134683       73.35448
2014    28      3       0.3332432       77.1675
2014    28      4       0.3847751       86.68908
2014    28      5       0.427508        94.03277
2014    28      6       0.4396243       95.79003
2014    28      7       0.4941139       104.3257
2014    29      0       0.4909586       103.8379
2014    29      1       0.4633888       99.52092
2014    29      2       0.4078238       90.61083
2014    29      3       0.5036879       106.5739
2014    29      4       0.6233804       124.913
2014    29      5       0.9550408       165.1301
2014    29      6       0.853992        154.4581
2014    29      7       0.591132        120.9242
2014    30      0       0.4824999       104.7091
2014    30      1       0.4256944       95.30986
2014    30      2       0.3811198       87.5325
2014    30      3       0.3756717       86.49565
2014    30      4       0.393349        89.6368
2014    30      5       0.4225551       94.58624
2014    30      6       0.4024737       91.17825
2014    30      7       0.3827208       87.8951
2014    31      0       0.3731396       85.98082
2014    31      1       0.6017207       122.7165
2014    31      2       0.8427527       153.3839
2014    31      3       0.8505379       154.8179
2014    31      4       0.6912431       135.4116
2014    31      5       0.5926947       121.6148
2014    31      6       0.5777429       119.3878
2014    31      7       0.5763128       119.2486
2015    1       0       0.3930458       86.79385
2015    1       1       0.5911848       117.5837
2015    1       2       0.6120683       120.4254
2015    1       3       0.5984895       118.3803
2015    1       4       0.6034046       119.3975
2015    1       5       0.7908074       143.5475
2015    1       6       0.5937698       118.016
2015    1       7       0.5163586       106.452
2015    2       0       0.3371884       76.66192
2015    2       1       0.3340373       76.0335
2015    2       2       0.3312723       75.48769
2015    2       3       0.5398074       109.3533
2015    2       4       0.5446899       110.0627
2015    2       5       0.4896654       101.8791
2015    2       6       0.4869959       101.4996
2015    2       7       0.4526872       96.04892
2015    3       0       0.3655158       81.33619
2015    3       1       0.307253        70.85603
2015    3       2       0.2785182       65.42192
2015    3       3       0.3036212       70.16981
2015    3       4       0.3871311       85.27543
2015    3       5       0.5633846       113.4665
2015    3       6       0.3841362       85.27145
2015    3       7       0.3123262       72.54129
2015    4       0       0.3125596       72.8679
2015    4       1       0.3475251       79.4002
2015    4       2       0.6409458       124.7838
2015    4       3       0.4691231       99.88328
2015    4       4       0.6245524       122.4245
2015    4       5       0.7148139       135.5733
2015    4       6       1.072988        175.5494
2015    4       7       0.6304578       124.1621
2015    5       0       0.9162899       158.6192
2015    5       1       1.175709        182.6563
2015    5       2       0.9794598       164.8593
2015    5       3       0.8219142       147.83
2015    5       4       0.5131896       106.5128
2015    5       5       0.4217451       91.86981
2015    5       6       0.3810672       85.04775
2015    5       7       0.3833633       85.45296
2015    6       0       0.6196705       122.6052
2015    6       1       0.473458        100.8648
2015    6       2       0.979153        164.5841
2015    6       3       0.6923836       132.2551
2015    6       4       0.7141989       135.9265
2015    6       5       0.6711477       129.7911
2015    6       6       0.4842524       102.79
2015    6       7       0.7612095       141.2531
2015    7       0       0.51119         106.4737
2015    7       1       0.4920317       103.2822
2015    7       2       0.6034287       118.911
2015    7       3       0.4767191       100.9758
2015    7       4       0.4504892       96.9146
2015    7       5       0.6630873       128.0603
2015    7       6       0.7399961       137.8647
2015    7       7       0.8008289       144.8211
2015    8       0       0.7299692       136.431
2015    8       1       0.6712092       128.8536
2015    8       2       0.4770564       100.43
2015    8       3       0.4139779       90.39412
2015    8       4       0.391201        86.64002
2015    8       5       0.3925332       87.00879
2015    8       6       0.41688         91.10729
2015    8       7       0.5083595       105.2696
2015    9       0       0.3557552       80.01507
2015    9       1       0.3242006       74.21335
2015    9       2       0.3521831       79.1451
2015    9       3       0.8031913       143.3883
2015    9       4       0.6733161       127.9255
2015    9       5       0.5220162       106.806
2015    9       6       0.4245928       91.60463
2015    9       7       0.41754         90.43514
2015    10      0       0.4083282       88.97376
2015    10      1       0.3980086       86.93612
2015    10      2       0.4793813       100.1145
2015    10      3       0.3745505       83.19333
2015    10      4       0.3777158       84.2142
2015    10      5       0.4080191       88.92633
2015    10      6       0.7396015       138.5147
2015    10      7       0.8875739       154.2205
2015    11      0       0.3987105       88.27554
2015    11      1       0.38778         85.71268
2015    11      2       0.3387612       76.60673
2015    11      3       0.3643299       80.87078
2015    11      4       0.3787134       83.32693
2015    11      5       0.350185        78.49375
2015    11      6       0.343204        77.10357
2015    11      7       0.501699        103.2877
2015    12      0       0.402774        87.74294
2015    12      1       0.4329289       93.09536
2015    12      2       0.4279997       92.0581
2015    12      3       0.504722        104.751
2015    12      4       0.6510553       126.6887
2015    12      5       0.6495214       126.6523
2015    12      6       0.5670198       115.1057
2015    12      7       1.124526        178.0324
2015    13      0       0.7844399       143.7045
2015    13      1       0.8733185       154.2546
2015    13      2       0.819337        148.3498
2015    13      3       0.5003576       105.3258
2015    13      4       0.5423636       111.5122
2015    13      5       0.8898997       156.3871
2015    13      6       1.11915         179.5054
2015    13      7       1.007768        169.5027
2015    14      0       1.025656        170.7761
2015    14      1       1.17166         185.1972
2015    14      2       1.190041        187.7436
2015    14      3       1.894113        231.8366
2015    14      4       1.136699        181.6457
2015    14      5       0.6918364       132.6933
2015    14      6       0.5544725       113.2509
2015    14      7       0.5358051       110.1343
2015    15      0       0.4242555       92.38711
2015    15      1       0.3971243       87.57943
2015    15      2       0.3930276       86.63124
2015    15      3       0.3979171       87.65295
2015    15      4       0.2452071       59.63267
2015    15      5       0.1270627       34.36024
2015    15      6       0.3367698       76.11005
2015    15      7       0.6328649       125.4796
2015    16      0       1.142761        182.7183
2015    16      1       0.5561199       115.0989
2015    16      2       0.69316         133.7564
2015    16      3       0.9901016       167.2398
2015    16      4       1.185095        185.0768
2015    16      5       0.9026386       157.0963
2015    16      6       0.5176918       107.4257
2015    16      7       0.3695209       82.96174
2015    17      0       0.4421267       95.13302
2015    17      1       0.5792262       115.8725
2015    17      2       0.5271737       108.2438
2015    17      3       0.5394609       109.8533
2015    17      4       0.4308241       92.83591
2015    17      5       0.4851333       101.6323
2015    17      6       0.6035732       119.2498
2015    17      7       0.4597558       97.80931
2015    18      0       0.5158801       106.4774
2015    18      1       0.4775053       100.5025
2015    18      2       0.3560609       80.27647
2015    18      3       0.3002537       70.16792
2015    18      4       0.282628        67.03073
2015    18      5       0.2638426       63.70199
2015    18      6       0.3262089       75.39496
2015    18      7       0.5885224       117.9145
2015    19      0       0.7164949       135.9013
2015    19      1       0.9375718       162.0462
2015    19      2       1.097912        177.6212
2015    19      3       1.195378        186.6117
2015    19      4       1.137084        181.1923
2015    19      5       1.020908        170.0793
2015    19      6       0.9837453       165.7469
2015    19      7       0.9199888       158.6967
2015    20      0       0.6266219       123.5844
2015    20      1       0.7987248       145.8349
2015    20      2       0.8086926       147.8987
2015    20      3       0.6403117       127.1767
2015    20      4       0.5236327       110.3614
2015    20      5       0.6923697       133.7744
2015    20      6       0.8668281       155.183
2015    20      7       1.896126        229.6053
2015    21      0       1.993015        234.808
2015    21      1       1.971593        234.9668
2015    21      2       2.742356        254.9866
2015    21      3       0.6223696       126.0323
2015    21      4       1.541272        208.4956
2015    21      5       0.8448062       151.7437
2015    21      6       0.6627277       129.2872
2015    21      7       0.7784895       143.4892
2015    22      0       0.6559586       126.594
2015    22      1       0.9385693       159.873
2015    22      2       0.6885054       131.7145
2015    22      3       0.5791639       116.4871
2015    22      4       0.5015212       104.7302
2015    22      5       0.5306023       108.8801
2015    22      6       0.5204529       107.2525
2015    22      7       0.9082436       156.5294
2015    23      0       0.9355313       159.1685
2015    23      1       0.6441671       124.3241
2015    23      2       0.6370493       123.1461
2015    23      3       0.6626205       126.3896
2015    23      4       0.6960842       130.4722
2015    23      5       0.7105627       132.2687
2015    23      6       0.7167505       133.4595
2015    23      7       0.3828247       84.85212
2015    24      0       0.2416651       58.96747
2015    24      1       0.2212505       54.93346
2015    24      2       0.2563383       61.85532
2015    24      3       0.3048956       71.20723
2015    24      4       0.2689982       64.24038
2015    24      5       0.372155        82.81012
2015    24      6       0.4221587       91.4418
2015    24      7       0.5767667       116.3678
2015    25      0       0.7948956       144.996
2015    25      1       0.9249241       159.4244
2015    25      2       1.126296        178.2737
2015    25      3       1.004489        167.5486
2015    25      4       0.8554521       151.7022
2015    25      5       0.6041589       120.3219
2015    25      6       0.7553304       139.9522
2015    25      7       0.9788347       163.938
2015    26      0       0.7806106       142.7597
2015    26      1       0.6432827       125.0929
2015    26      2       0.3633659       81.75512
2015    26      3       0.3674315       81.99149
2015    26      4       0.3685659       82.16534
2015    26      5       0.4366979       93.07246
2015    26      6       0.7556397       138.0892
2015    26      7       0.6881655       130.026
2015    27      0       0.6902922       130.4071
2015    27      1       0.5263873       106.8932
2015    27      2       0.4185251       90.50679
2015    27      3       0.5921009       117.0141
2015    27      4       0.4604598       97.21937
2015    27      5       0.4400807       93.83437
2015    27      6       0.7730226       140.2557
2015    27      7       0.7854544       140.9899
2015    28      0       0.466757        98.09217
2015    28      1       0.4826045       100.2624
2015    28      2       0.6810634       129.0269
2015    28      3       0.7805968       141.0539
2015    28      4       0.638138        123.0151
2015    28      5       0.4414759       93.89643
2015    28      6       0.5412062       108.9583
2015    28      7       0.5921077       116.077
2015    29      0       0.6265797       120.8412
2015    29      1       0.5706426       113.3568
2015    29      2       0.4862011       100.7409
2015    29      3       0.630725        121.3882
2015    29      4       0.6228538       120.3264
2015    29      5       0.5920003       116.2764
2015    29      6       0.5734673       113.526
2015    29      7       0.5131818       104.7265
2015    30      0       0.5307167       107.2358
2015    30      1       0.5174887       105.3811
2015    30      2       0.4214555       90.53058
2015    30      3       0.3729572       82.41281
2015    30      4       0.3629134       80.69328
2015    30      5       0.3345318       75.69647
2015    30      6       0.3319274       75.1133
2015    30      7       0.2800078       65.46004
2015    31      0       0.2771573       64.91361
2015    31      1       0.2604239       61.74822
2015    31      2       0.2319915       56.22625
2015    31      3       0.2164516       53.12452
2015    31      4       0.3082742       70.49938
2015    31      5       0.4818474       99.61215
2015    31      6       0.40352         87.16679
2015    31      7       0.3695624       81.55967
2016    1       0       0.9093588       158.1227
2016    1       1       0.8932804       156.6208
2016    1       2       0.7852031       144.1972
2016    1       3       0.8916534       156.1786
2016    1       4       1.372402        196.4693
2016    1       5       0.9373005       159.8555
2016    1       6       0.6727504       129.1702
2016    1       7       0.5720641       115.3354
2016    2       0       0.6653835       127.8111
2016    2       1       0.4807811       100.9295
2016    2       2       0.537784        109.6221
2016    2       3       0.4799751       101.0527
2016    2       4       0.5108678       106.3135
2016    2       5       0.6032378       120.0338
2016    2       6       0.6824586       130.856
2016    2       7       0.7766871       142.4935
2016    3       0       0.6982584       133.1044
2016    3       1       0.6259448       123.615
2016    3       2       0.5208211       108.4384
2016    3       3       0.3833944       85.94747
2016    3       4       0.3394822       78.12203
2016    3       5       0.3793373       85.25749
2016    3       6       0.539307        111.3895
2016    3       7       0.9305204       160.186
2016    4       0       0.7546462       140.159
2016    4       1       0.6479193       126.119
2016    4       2       0.8008834       144.8022
2016    4       3       0.7132761       134.0967
2016    4       4       0.6735331       129.4829
2016    4       5       0.824672        148.6073
2016    4       6       0.7862724       144.2958
2016    4       7       0.6326172       124.7348
2016    5       0       0.6423636       126.2927
2016    5       1       0.5956293       119.9619
2016    5       2       0.4825912       102.833
2016    5       3       0.3728963       84.16852
2016    5       4       0.3681317       83.18215
2016    5       5       0.3551556       80.49619
2016    5       6       0.8054284       146.9476
2016    5       7       1.102252        177.2381
2016    6       0       1.112006        178.3338
2016    6       1       1.024955        170.0809
2016    6       2       0.8330757       149.3926
2016    6       3       0.807413        146.0373
2016    6       4       0.7037093       132.9348
2016    6       5       0.6014954       119.8793
2016    6       6       0.5068807       105.8441
2016    6       7       0.6270666       123.219
2016    7       0       0.4080404       90.06886
2016    7       1       0.5944362       118.6658
2016    7       2       0.6534114       126.4426
2016    7       3       0.6173001       121.9512
2016    7       4       0.537049        111.3986
2016    7       5       0.6566263       128.0842
2016    7       6       0.7848581       144.6012
2016    7       7       0.8536005       153.3636
2016    8       0       1.197764        185.8404
2016    8       1       1.128898        179.4021
2016    8       2       0.9828245       165.8784
2016    8       3       0.89732         157.4808
2016    8       4       0.713758        136.1683
2016    8       5       0.680404        131.7523
2016    8       6       0.6746093       130.9576
2016    8       7       0.7184761       136.6089
2016    9       0       0.6915242       133.237
2016    9       1       0.6422666       126.8984
2016    9       2       0.6176771       123.6813
2016    9       3       0.5724501       117.7906
2016    9       4       0.5788901       118.937
2016    9       5       0.5984479       121.4424
2016    9       6       0.6545334       128.4353
2016    9       7       0.9564128       163.3776
2016    10      0       0.8917113       156.9385
2016    10      1       0.9468089       163.7681
2016    10      2       1.197416        188.1571
2016    10      3       2.463924        248.6178
2016    10      4       0.9830945       166.9785
2016    10      5       0.5774873       117.1351
2016    10      6       0.5041967       105.0827
2016    10      7       0.4415209       93.83484
2016    11      0       0.6951214       131.5109
2016    11      1       0.7994235       144.4539
2016    11      2       0.5995521       118.7003
2016    11      3       0.5437873       110.3946
2016    11      4       0.4492436       95.74502
2016    11      5       0.6241473       122.3601
2016    11      6       0.4274103       92.91512
2016    11      7       0.7084104       134.7403
2016    12      0       0.8993428       155.8857
2016    12      1       0.9381498       160.2825
2016    12      2       0.8408408       150.8509
2016    12      3       0.8361612       151.8705
2016    12      4       1.331228        195.9088
2016    12      5       0.8204701       147.9514
2016    12      6       0.4516426       97.18412
2016    12      7       0.3783639       84.81658
2016    13      0       0.3829164       85.96951
2016    13      1       0.3920725       87.32873
2016    13      2       0.7006389       133.23
2016    13      3       0.8399869       150.3905
2016    13      4       0.9952158       168.6618
2016    13      5       1.682717        221.3168
2016    13      6       2.58687         253.3056
2016    13      7       2.179271        242.4351
2016    14      0       1.450766        214.4845
2016    14      1       1.191252        186.9448
2016    14      2       1.047079        173.0928
2016    14      3       0.7867569       145.1272
2016    14      4       0.5661369       115.7948
2016    14      5       0.6627887       129.2028
2016    14      6       0.8876199       156.1554
2016    14      7       0.93551         161.2086
2016    15      0       0.6525557       129.61
2016    15      1       0.6174075       124.7732
2016    15      2       1.092156        179.0942
2016    15      3       1.472387        206.9749
2016    15      4       1.244485        191.3277
2016    15      5       1.147067        183.3588
2016    15      6       1.442761        205.1018
2016    15      7       1.311043        196.4428
2016    16      0       1.967132        231.891
2016    16      1       1.312716        197.298
2016    16      2       1.632128        216.6381
2016    16      3       1.992719        232.6464
2016    16      4       1.054425        175.6322
2016    16      5       0.9375938       164.2647
2016    16      6       1.116817        181.3844
2016    16      7       0.8418149       153.685
2016    17      0       0.813254        150.3131
2016    17      1       0.8798731       157.733
2016    17      2       0.7696272       145.3507
2016    17      3       1.090587        184.8827
2016    17      4       0.7329809       141.1839
2016    17      5       0.7911118       148.3888
2016    17      6       0.7852507       147.0948
2016    17      7       0.5720024       118.2684
2016    18      0       0.6686675       132.1634
2016    18      1       1.869166        228.3931
2016    18      2       1.63275         217.3652
2016    18      3       1.43207         205.7207
2016    18      4       0.877351        158.4909
2016    18      5       1.10446         180.7448
2016    18      6       1.372079        201.3105
2016    18      7       0.8613919       156.7013
2016    19      0       1.484572        208.8606
2016    19      1       2.114518        238.0129
2016    19      2       1.167227        185.9427
2016    19      3       1.033125        181.9601
2016    19      4       0.8163865       153.7114
2016    19      5       0.6591536       132.0352
2016    19      6       0.6445522       130.5138
2016    19      7       0.570974        117.469
2016    20      0       0.8843723       157.8694
2016    20      1       1.501766        208.3519
2016    20      2       1.098169        177.4809
2016    20      3       1.156244        182.5036
2016    20      4       1.716978        218.5407
2016    20      5       1.186092        184.5066
2016    20      6       1.139487        180.8626
2016    20      7       1.701792        216.8723
2016    21      0       1.326605        195.838
2016    21      1       1.722835        218.6357
2016    21      2       1.237033        188.6289
2016    21      3       1.000283        167.1284
2016    21      4       0.7450208       139.1782
2016    21      5       0.8171399       149.5475
2016    21      6       1.11853         180.691
2016    21      7       1.138066        182.1473
2016    22      0       1.083492        177.0082
2016    22      1       0.8581484       154.05
2016    22      2       0.6935755       133.9103
2016    22      3       0.7754768       144.1768
2016    22      4       1.008034        170.0037
2016    22      5       1.288664        194.0445
2016    22      6       1.238678        189.9683
2016    22      7       0.965699        165.4867
2016    23      0       0.9419712       163.0475
2016    23      1       1.026957        171.8159
2016    23      2       0.8048011       147.7313
2016    23      3       0.5987985       121.0162
2016    23      4       0.5332707       111.2079
2016    23      5       0.5403958       112.3448
2016    23      6       0.6620882       129.4756
2016    23      7       0.8911283       157.0722
2016    24      0       0.8850943       156.5177
2016    24      1       0.7910419       145.7636
2016    24      2       1.037355        171.539
2016    24      3       1.207932        186.1993
2016    24      4       0.6678844       130.3414
2016    24      5       0.6306625       125.3356
2016    24      6       1.223465        186.743
2016    24      7       1.09344         175.8396
2016    25      0       1.076923        174.5203
2016    25      1       1.046966        171.798
2016    25      2       1.045996        171.7611
2016    25      3       0.9975372       167.0213
2016    25      4       1.135936        179.4445
2016    25      5       1.02116         169.2754
2016    25      6       0.8369244       149.699
2016    25      7       0.7304233       136.6506
2016    26      0       0.7589548       139.6531
2016    26      1       0.7773194       141.0673
2016    26      2       0.6927454       130.7149
2016    26      3       0.7328289       135.8439
2016    26      4       0.7913775       143.0792
2016    26      5       0.7978094       144.1099
2016    26      6       0.766576        139.9138
2016    26      7       0.6830547       129.5396
2016    27      0       0.6429922       124.3884
2016    27      1       0.6126182       120.3546
2016    27      2       0.730489        135.7016
2016    27      3       0.5123652       105.9505
2016    27      4       0.3979372       87.52948
2016    27      5       0.3803489       84.40244
2016    27      6       0.3847681       85.08803
2016    27      7       0.4314671       92.93587
2016    28      0       0.5195799       106.8231
2016    28      1       0.4868821       101.8683
2016    28      2       0.4683491       98.94735
2016    28      3       0.401668        88.01784
2016    28      4       0.4516274       96.29075
2016    28      5       0.4479884       95.74985
2016    28      6       0.3640042       81.62926
2016    28      7       0.3047719       70.8391
2016    29      0       0.2805092       66.2022
2016    29      1       0.2612574       62.54522
2016    29      2       0.2862211       67.26003
2016    29      3       0.3725276       82.90865
2016    29      4       0.490604        102.37
2016    29      5       0.4299837       92.80254
2016    29      6       0.4526782       96.51519
2016    29      7       0.4161931       90.5639
2016    30      0       0.3719786       83.02295
2016    30      1       0.3100458       71.89692
2016    30      2       0.3293713       75.44528
2016    30      3       0.3204294       73.80612
2016    30      4       0.3262385       74.89091
2016    30      5       0.4383707       94.36487
2016    30      6       0.4965557       103.7881
2016    30      7       0.5833273       116.9573
2016    31      0       0.755712        139.8945
2016    31      1       0.8274923       148.2885
2016    31      2       0.7080504       134.0509
2016    31      3       0.3857441       86.23636
2016    31      4       0.2946666       69.89792
2016    31      5       0.3898573       87.3697
2016    31      6       0.3396588       78.52373
2016    31      7       0.2828093       67.78381
2017    1       0       0.3126185       73.64441
2017    1       1       0.3225132       75.51325
2017    1       2       0.312101        73.46718
2017    1       3       0.2921612       69.6805
2017    1       4       0.2963104       70.45921
2017    1       5       0.3291828       76.3983
2017    1       6       0.3367639       77.63497
2017    1       7       0.3043854       71.61725
2017    2       0       0.3066098       72.21648
2017    2       1       0.3329351       77.29534
2017    2       2       0.3493267       80.14914
2017    2       3       0.2923483       69.53495
2017    2       4       0.2853069       68.18816
2017    2       5       0.2928939       69.52265
2017    2       6       0.3199994       74.44799
2017    2       7       0.3512198       80.2834
2017    3       0       0.3429371       78.89198
2017    3       1       0.3505595       80.39999
2017    3       2       0.3749613       84.85297
2017    3       3       0.3700022       84.72462
2017    3       4       0.328879        77.28295
2017    3       5       0.2929517       70.46136
2017    3       6       0.2857023       68.98716
2017    3       7       0.2881289       69.37053
2017    4       0       0.2953762       70.73333
2017    4       1       0.2892113       69.51833
2017    4       2       0.2866993       69.02455
2017    4       3       0.2903252       69.69229
2017    4       4       0.2683557       65.45351
2017    4       5       0.2791327       67.69993
2017    4       6       0.3444797       80.01948
2017    4       7       0.3526564       81.22436
2017    5       0       0.3287008       76.59936
2017    5       1       0.3330148       77.2736
2017    5       2       0.4100851       91.10662
2017    5       3       0.3923552       88.08293
2017    5       4       0.3677628       83.74975
2017    5       5       0.3822492       86.4975
2017    5       6       0.4345592       95.63434
2017    5       7       0.6432442       127.2656
2017    6       0       0.8468764       151.4109
2017    6       1       1.045247        171.3552
2017    6       2       0.9937055       166.4827
2017    6       3       1.105479        176.7623
2017    6       4       1.180926        183.5831
2017    6       5       1.011061        169.1863
2017    6       6       0.8997991       158.2203
2017    6       7       0.9199548       160.3805
2017    7       0       0.9346847       161.769
2017    7       1       0.7975542       146.3784
2017    7       2       0.7230241       137.2007
2017    7       3       0.7075123       135.6951
2017    7       4       0.7046216       135.3972
2017    7       5       0.6449865       127.5714
2017    7       6       0.7804562       144.8801
2017    7       7       1.171914        183.3941
2017    8       0       0.9712685       164.9596
2017    8       1       1.05291         172.1444
2017    8       2       1.029956        169.7419
2017    8       3       1.073528        173.8732
2017    8       4       1.065646        173.1779
2017    8       5       1.156211        180.7414
2017    8       6       1.177486        182.1683
2017    8       7       1.068032        172.4181
2017    9       0       0.8477845       150.6087
2017    9       1       0.7373765       137.4837
2017    9       2       0.6656829       128.3004
2017    9       3       0.5197247       107.6082
2017    9       4       0.5562845       112.9531
2017    9       5       0.8034242       144.9625
2017    9       6       0.5305301       109.0197
2017    9       7       0.5751788       115.6809
2017    10      0       0.4804168       101.604
2017    10      1       0.5324561       109.9501
2017    10      2       0.6188008       122.8941
2017    10      3       0.4742454       101.8769
2017    10      4       0.3795589       86.37996
2017    10      5       0.3399263       79.25184
2017    10      6       0.3058717       72.9733
2017    10      7       0.3237178       76.67072
2017    11      0       0.4930967       106.2057
2017    11      1       0.8400669       152.2944
2017    11      2       1.282672        193.5446
2017    11      3       1.324062        195.9909
2017    11      4       0.8171312       149.0402
2017    11      5       0.6093119       122.592
2017    11      6       1.02951         171.1194
2017    11      7       0.7064686       135.4543
2017    12      0       0.8043493       147.3494
2017    12      1       0.6676452       130.2258
2017    12      2       0.7717135       143.3192
2017    12      3       0.7365578       139.0545
2017    12      4       0.4936868       104.764
2017    12      5       0.8745141       154.855
2017    12      6       1.158559        181.7911
2017    12      7       1.152187        181.3355
2017    13      0       1.103505        176.9763
2017    13      1       1.084431        175.253
2017    13      2       1.026926        170.2289
2017    13      3       1.213237        186.1718
2017    13      4       1.366065        197.1537
2017    13      5       0.6723395       131.1672
2017    13      6       0.6020567       120.9883
2017    13      7       0.6269817       123.6774
2017    14      0       0.7832308       144.1899
2017    14      1       0.7922198       145.2564
2017    14      2       0.7950001       145.2443
2017    14      3       0.6498595       126.6573
2017    14      4       0.8549286       151.5383
2017    14      5       0.9929275       165.8002
2017    14      6       0.9197368       158.3801
2017    14      7       0.6842774       130.8272
2017    15      0       0.6778008       129.6455
2017    15      1       0.4995958       104.2579
2017    15      2       0.8528503       150.8999
2017    15      3       0.9990236       166.3561
2017    15      4       0.797886        144.9463
2017    15      5       0.4717406       100.379
2017    15      6       0.694253        132.443
2017    15      7       0.7725723       142.0607
2017    16      0       0.7220162       135.4903
2017    16      1       0.797796        144.0884
2017    16      2       0.6419119       124.2331
2017    16      3       0.5572982       112.1734
2017    16      4       0.5822508       115.3634
2017    16      5       0.4802006       100.0888
2017    16      6       0.4249783       91.27633
2017    16      7       0.403634        87.75705
2017    17      0       0.3698657       82.05995
2017    17      1       0.3537516       79.29518
2017    17      2       0.3713384       82.38115
2017    17      3       0.3351018       76.06647
2017    17      4       0.3313161       75.40985
2017    17      5       0.3434716       77.68172
2017    17      6       0.2780502       65.77239
2017    17      7       0.2541547       61.17301
2017    18      0       0.2838182       66.6674
2017    18      1       0.3216863       73.58436
2017    18      2       0.4065904       88.61848
2017    18      3       0.5223664       107.229
2017    18      4       0.6781462       128.9831
2017    18      5       0.6381017       123.8456
2017    18      6       0.5671022       114.0991
2017    18      7       0.6422887       124.8637
2017    19      0       0.7053891       132.8758
2017    19      1       0.6813584       129.5451
2017    19      2       0.6083133       119.5744
2017    19      3       0.542665        110.2433
2017    19      4       0.6211653       121.5269
2017    19      5       0.6913269       131.0351
2017    19      6       0.5428653       110.6867
2017    19      7       0.3924515       86.7265
2017    20      0       0.4229163       91.85695
2017    20      1       0.5114874       106.045
2017    20      2       0.5731082       115.2114
2017    20      3       0.5926505       117.9461
2017    20      4       0.6345189       124.0523
2017    20      5       0.5176897       107.4274
2017    20      6       0.4901353       103.1009
2017    20      7       0.43388         93.9458
2017    21      0       0.4196229       91.46147
2017    21      1       0.46307         98.48374
2017    21      2       0.4683894       99.16686
2017    21      3       0.578248        115.5936
2017    21      4       0.4244245       91.9304
2017    21      5       0.3557583       80.17619
2017    21      6       0.3850358       85.01624
2017    21      7       1.001453        165.6713
2017    22      0       0.7982065       144.5022
2017    22      1       0.4791757       101.041
2017    22      2       0.4735434       99.71413
2017    22      3       0.3607487       80.8916
2017    22      4       0.3037038       70.74793
2017    22      5       0.2538142       61.40724
2017    22      6       0.8508074       151.0344
2017    22      7       0.9992977       166.2629
2017    23      0       0.7922277       144.3379
2017    23      1       0.793652        144.8793
2017    23      2       1.087779        176.6934
2017    23      3       1.82841         224.9162
2017    23      4       1.892196        229.9238
2017    23      5       1.310429        196.5605
2017    23      6       0.4158301       92.2044
2017    23      7       0.4151254       90.99776
2017    24      0       0.5261748       108.4062
2017    24      1       0.6501628       126.3777
2017    24      2       0.6569611       127.9062
2017    24      3       0.5326374       110.4155
2017    24      4       0.8581032       152.9691
2017    24      5       0.9800023       165.9909
2017    24      6       1.012019        170.9016
2017    24      7       1.453266        207.7783
2017    25      0       1.373634        201.121
2017    25      1       0.9491014       163.8946
2017    25      2       1.223996        187.3307
2017    25      3       0.7934021       144.6455
2017    25      4       0.5273398       109.4937
2017    25      5       0.435939        95.0832
2017    25      6       0.4349238       95.00329
2017    25      7       0.4366204       95.59076
2017    26      0       0.6065919       121.8029
2017    26      1       0.6466173       127.3084
2017    26      2       1.02735         170.2256
2017    26      3       0.9618221       163.719
2017    26      4       0.5606446       114.813
2017    26      5       0.4533658       98.11056
2017    26      6       0.64429         125.9824
2017    26      7       0.4880066       103.5648
2017    27      0       0.4943377       104.8368
2017    27      1       0.4345524       95.2247
2017    27      2       0.3440817       79.25351
2017    27      3       0.4082685       90.56271
2017    27      4       0.3575045       81.78289
2017    27      5       0.4728179       101.5136
2017    27      6       0.4744431       101.8817
2017    27      7       0.2871396       68.77762
2017    28      0       0.1995427       51.01114
2017    28      1       0.1773789       46.12251
2017    28      2       0.1669136       43.73233
2017    28      3       0.2269019       56.38819
2017    28      4       0.3506405       80.17258
2017    28      5       0.5158747       107.9423
2017    28      6       0.646262        127.3956
2017    28      7       1.061604        174.4047
2017    29      0       1.107605        178.4901
2017    29      1       1.073959        175.4277
2017    29      2       1.06985         174.9343
2017    29      3       0.9610559       164.1399
2017    29      4       0.7938726       145.6886
2017    29      5       0.7498714       140.4434
2017    29      6       0.7967846       146.2281
2017    29      7       0.6375192       125.8295
2017    30      0       0.6025498       120.8851
2017    30      1       0.5835144       118.2839
2017    30      2       0.5560031       114.0814
2017    30      3       0.4866042       103.3804
2017    30      4       0.442465        96.55742
2017    30      5       0.4447853       96.90284
2017    30      6       0.4718591       101.4154
2017    30      7       0.5065985       107.2227
2017    31      0       0.6007646       121.5965
2017    31      1       1.12982         180.8682
2017    31      2       1.115706        179.6442
2017    31      3       0.9456865       163.2679
2017    31      4       1.430455        201.754
2017    31      5       1.288983        192.1206
2017    31      6       1.197604        185.4432
2017    31      7       1.234074        187.7211
2018    1       0       0.3410805       79.35992
2018    1       1       0.3124363       73.7409
2018    1       2       0.2177228       54.77209
2018    1       3       0.1315254       36.16749
2018    1       4       0.1366513       37.41584
2018    1       5       0.1150133       32.33448
2018    1       6       0.09537208      27.70147
2018    1       7       0.1208107       33.55726
2018    2       0       0.1483125       39.79243
2018    2       1       0.1536508       40.94795
2018    2       2       0.2113327       53.25514
2018    2       3       0.2813953       67.21911
2018    2       4       0.3714465       83.65961
2018    2       5       0.3355633       77.03707
2018    2       6       0.4237162       92.11756
2018    2       7       0.4544869       97.00807
2018    3       0       0.4725468       99.8184
2018    3       1       0.4646752       98.493
2018    3       2       0.6543493       125.9522
2018    3       3       0.6380267       123.7806
2018    3       4       0.3468587       78.43869
2018    3       5       0.4938808       102.9937
2018    3       6       0.4987039       103.5341
2018    3       7       0.5556688       111.8933
2018    4       0       0.6012145       118.2379
2018    4       1       0.3803334       83.95628
2018    4       2       0.4812481       100.0455
2018    4       3       0.5961778       116.571
2018    4       4       0.5739901       113.6122
2018    4       5       0.5382339       108.3504
2018    4       6       0.5191462       104.9732
2018    4       7       0.5026398       102.28
2018    5       0       0.4864813       99.78701
2018    5       1       0.4820915       99.06677
2018    5       2       0.4753629       98.20302
2018    5       3       0.445956        93.81998
2018    5       4       0.5005383       102.2957
2018    5       5       0.5263336       106.0456
2018    5       6       0.6247029       120.0679
2018    5       7       0.6495092       123.7364
2018    6       0       0.6102914       119.15
2018    6       1       0.6587174       125.893
2018    6       2       0.8608466       149.9377
2018    6       3       1.201499        181.0666
2018    6       4       1.089705        171.9294
2018    6       5       0.6724057       127.6663
2018    6       6       0.6719627       127.9684
2018    6       7       0.673322        128.095
2018    7       0       0.7200285       133.8232
2018    7       1       0.7954758       142.6699
2018    7       2       0.705162        131.6189
2018    7       3       0.5980115       117.4402
2018    7       4       0.5458226       109.9869
2018    7       5       0.469681        98.35342
2018    7       6       0.5717491       113.5543
2018    7       7       0.4270244       91.46878
2018    8       0       0.5431922       109.6958
2018    8       1       0.5613358       112.3701
2018    8       2       0.476069        99.5769
2018    8       3       0.4958856       102.752
2018    8       4       0.5955157       117.2367
2018    8       5       0.6844923       129.0835
2018    8       6       0.7767515       140.3601
2018    8       7       0.5412255       109.5211
2018    9       0       0.4600874       97.27283
2018    9       1       0.4475534       95.33805
2018    9       2       0.3394285       76.86739
2018    9       3       0.2824611       66.4786
2018    9       4       0.2235455       54.77779
2018    9       5       0.2597923       61.68209
2018    9       6       0.2592391       61.98216
2018    9       7       0.2982088       69.41677
2018    10      0       0.3679801       81.95351
2018    10      1       0.5834633       116.3544
2018    10      2       0.5813599       115.9621
2018    10      3       0.4056499       88.3877
2018    10      4       0.3376212       76.28942
2018    10      5       0.3602182       80.47108
2018    10      6       0.7457961       137.2208
2018    10      7       0.8551047       149.8358
2018    11      0       1.159419        178.8358
2018    11      1       0.7084116       133.2456
2018    11      2       0.8372246       148.4189
2018    11      3       0.7541409       138.8552
2018    11      4       0.8694511       151.8133
2018    11      5       0.8315719       147.7057
2018    11      6       0.6493742       125.6461
2018    11      7       0.6829639       130.0548
2018    12      0       0.5585771       113.1724
2018    12      1       0.5302222       109.0391
2018    12      2       0.6421322       124.8367
2018    12      3       0.6948613       131.6765
2018    12      4       0.6387793       124.5696
2018    12      5       0.4543118       97.29116
2018    12      6       0.3420844       77.95648
2018    12      7       0.2944423       69.06158
2018    13      0       0.2870763       67.64219
2018    13      1       0.2794218       66.18163
2018    13      2       0.2695909       64.27878
2018    13      3       0.2607655       62.63408
2018    13      4       0.257923        62.37398
2018    13      5       0.261576        63.34907
2018    13      6       0.2840107       67.78531
2018    13      7       0.309182        72.63417
2018    14      0       0.3474199       79.662
2018    14      1       0.3963228       88.22258
2018    14      2       0.4682111       100.0641
2018    14      3       0.4826451       102.4979
2018    14      4       0.5771859       117.0395
2018    14      5       0.8700698       153.8087
2018    14      6       0.7018175       134.7883
2018    14      7       0.6246859       124.6483
2018    15      0       0.5909173       120.0507
2018    15      1       0.6606163       129.8053
2018    15      2       0.582574        119.7008
2018    15      3       0.5661521       117.4644
2018    15      4       0.9038442       159.0518
2018    15      5       1.076011        177.4139
2018    15      6       1.46663         207.4149
2018    15      7       1.647539        217.3413
2018    16      0       1.155427        183.5264
2018    16      1       0.8567503       153.8464
2018    16      2       0.8068506       149.0296
2018    16      3       0.871867        156.645
2018    16      4       1.149102        183.4069
2018    16      5       1.09159         179.0688
2018    16      6       0.9077481       161.3084
2018    16      7       0.812383        150.5524
2018    17      0       0.7376494       141.2948
2018    17      1       0.7092747       137.4037
2018    17      2       0.7284315       139.7818
2018    17      3       0.7713511       144.8592
2018    17      4       0.7699112       144.562
2018    17      5       0.8972613       159.3596
2018    17      6       1.076213        176.929
2018    17      7       1.097114        178.5101
2018    18      0       0.9079063       160.098
2018    18      1       1.171375        185.2728
2018    18      2       1.322682        196.71
2018    18      3       1.11473         180.1269
2018    18      4       1.332312        196.8354
2018    18      5       1.389704        200.2217
2018    18      6       1.197334        185.9154
2018    18      7       1.288334        192.9126
2018    19      0       1.306824        194.4664
2018    19      1       1.160127        183.1758
2018    19      2       1.275151        192.4623
2018    19      3       1.074689        176.3346
2018    19      4       0.9833045       167.1714
2018    19      5       0.7282172       138.7553
2018    19      6       0.5258222       110.7018
2018    19      7       0.4812603       103.7233
2018    20      0       0.4694944       101.9876
2018    20      1       0.449073        98.68947
2018    20      2       0.5145216       108.5081
2018    20      3       0.6995274       134.343
2018    20      4       1.09206         177.4941
2018    20      5       1.366689        198.9627
2018    20      6       1.340323        197.3765
2018    20      7       1.265739        192.246
2018    21      0       1.466896        205.6042
2018    21      1       0.9493906       164.5238
2018    21      2       0.8147847       149.6592
2018    21      3       0.7193851       136.9054
2018    21      4       0.5835973       118.4308
2018    21      5       1.239486        190.0538
2018    21      6       1.0215          171.1444
2018    21      7       0.7876247       146.3006
2018    22      0       0.737989        140.0096
2018    22      1       0.9205279       160.2321
2018    22      2       0.9753253       166.0693
2018    22      3       0.8967665       157.44
2018    22      4       1.088321        176.0637
2018    22      5       1.056617        173.3027
2018    22      6       0.9898763       166.7221
2018    22      7       1.100033        176.7827
2018    23      0       1.01098         168.6246
2018    23      1       0.9858106       165.8279
2018    23      2       0.9691035       163.1313
2018    23      3       0.9532055       160.9252
2018    23      4       0.9121414       156.5726
2018    23      5       0.9190567       157.1679
2018    23      6       0.933354        158.8316
2018    23      7       0.8299887       147.9864
2018    24      0       0.8572558       150.8965
2018    24      1       0.8006183       144.669
2018    24      2       0.7970854       144.6504
2018    24      3       0.8392431       149.9486
2018    24      4       1.088582        174.9987
2018    24      5       1.004083        167.4825
2018    24      6       0.8614552       153.0351
2018    24      7       1.123931        178.6573
2018    25      0       0.9233407       159.9009
2018    25      1       1.012757        168.4501
2018    25      2       0.9224461       159.4416
2018    25      3       0.7719686       142.6858
2018    25      4       0.6314229       124.5286
2018    25      5       0.5572912       113.9333
2018    25      6       0.6756269       130.1182
2018    25      7       0.7168983       135.3187
2018    26      0       0.9093804       157.5616
2018    26      1       0.7282239       136.9225
2018    26      2       0.673218        130.4587
2018    26      3       0.7094925       135.508
2018    26      4       0.6708473       130.5199
2018    26      5       0.6801879       131.2674
2018    26      6       0.7312652       137.5795
2018    26      7       0.7864628       144.1963
2018    27      0       0.7653913       141.8135
2018    27      1       0.7403995       138.8882
2018    27      2       0.6889031       132.1374
2018    27      3       0.6182408       122.4721
2018    27      4       0.5373932       110.7454
2018    27      5       0.5152904       107.4442
2018    27      6       0.5304001       109.7107
2018    27      7       0.4772758       101.6838
2018    28      0       0.4288615       94.10612
2018    28      1       0.4392219       96.07928
2018    28      2       0.5197074       109.0984
2018    28      3       0.6368557       126.4353
2018    28      4       0.7282591       138.591
2018    28      5       0.9893818       167.1102
2018    28      6       0.9234107       159.9405
2018    28      7       0.6849119       132.3351
2018    29      0       0.605582        122.0674
2018    29      1       0.5604229       115.5837
2018    29      2       0.5374857       112.0662
2018    29      3       0.5401582       112.3508
2018    29      4       0.5483292       113.4327
2018    29      5       0.5874996       119.0813
2018    29      6       0.610634        122.2497
2018    29      7       0.6514856       127.5774
2018    30      0       0.943203        161.4174
2018    30      1       1.034072        170.1625
2018    30      2       1.141202        179.6233
2018    30      3       1.134306        178.7706
2018    30      4       1.245918        187.3213
2018    30      5       0.9677623       164.3485
2018    30      6       1.019783        169.5378
2018    30      7       1.157594        181.6926
2018    31      0       0.9925004       166.6324
2018    31      1       0.673106        130.2121
2018    31      2       0.4036616       88.99099
2018    31      3       0.2210213       54.90748
2018    31      4       0.2201602       54.81421
2018    31      5       0.226304        56.15474
2018    31      6       0.1935993       49.32603
2018    31      7       0.1849923       47.52302
