####################################################################################################
# Month: 07Jul                                                                                     #
# Station: JELM                                                                                    #
# Frequency: 230 GHz                                                                               #
# Columns are: year    day     segment         tau     Tb (K)                                      #
####################################################################################################
2009    1       0       0.346053        84.18927
2009    1       1       0.3070116       76.3402
2009    1       2       0.3007698       74.92325
2009    1       3       0.312432        76.71404
2009    1       4       0.3687362       86.58107
2009    1       5       0.3679501       86.43628
2009    1       6       0.5942451       123.1994
2009    1       7       0.6972231       138.9388
2009    2       0       0.7355388       144.7413
2009    2       1       0.9141335       164.4076
2009    2       2       0.5368051       115.8747
2009    2       3       0.4734699       105.8584
2009    2       4       0.5988646       124.9815
2009    2       5       0.7792774       148.8203
2009    2       6       0.8794046       160.9481
2009    2       7       1.079636        180.6777
2009    3       0       1.073797        180.7486
2009    3       1       0.8845556       160.7315
2009    3       2       0.822339        153.3677
2009    3       3       0.7931636       150.7887
2009    3       4       1.030829        177.3801
2009    3       5       0.9545367       168.8894
2009    3       6       0.8307245       156.104
2009    3       7       0.7915464       151.33
2009    4       0       0.8130391       154.0162
2009    4       1       0.7665421       147.5767
2009    4       2       0.5772456       122.0752
2009    4       3       0.3923382       92.17747
2009    4       4       0.394593        92.23148
2009    4       5       0.6040673       125.3173
2009    4       6       0.9945112       171.1833
2009    4       7       0.9475165       166.9062
2009    5       0       0.9712112       170.6816
2009    5       1       0.6867937       137.3028
2009    5       2       0.4869046       107.6111
2009    5       3       0.4417362       100.0484
2009    5       4       0.4302766       98.30604
2009    5       5       0.5178236       112.5674
2009    5       6       0.9087788       162.397
2009    5       7       0.8767295       159.1581
2009    6       0       0.7074344       139.3742
2009    6       1       0.4829965       107.5672
2009    6       2       0.3591848       85.98601
2009    6       3       0.2895298       72.46177
2009    6       4       0.330126        80.37102
2009    6       5       0.3963787       92.64064
2009    6       6       0.4992703       109.9338
2009    6       7       0.6053289       125.8558
2009    7       0       0.5478956       117.7684
2009    7       1       0.5247942       113.8682
2009    7       2       0.4390745       99.93323
2009    7       3       0.3044199       75.68558
2009    7       4       0.2626526       67.082
2009    7       5       0.2996413       74.18246
2009    7       6       0.3773321       88.80592
2009    7       7       0.4047975       93.77411
2009    8       0       0.3677007       87.19882
2009    8       1       0.2834905       70.96832
2009    8       2       0.2698602       68.06899
2009    8       3       0.3349976       80.75558
2009    8       4       0.2989887       74.18386
2009    8       5       0.2088428       55.49606
2009    8       6       0.2280319       59.87829
2009    8       7       0.2587364       66.48095
2009    9       0       0.2960067       74.04263
2009    9       1       0.2934075       73.1704
2009    9       2       0.3596078       85.57416
2009    9       3       0.3668692       86.93671
2009    9       4       0.2642832       67.34355
2009    9       5       0.2031797       54.4004
2009    9       6       0.2760943       69.76881
2009    9       7       0.3161479       77.53323
2009    10      0       0.268878        68.28692
2009    10      1       0.2269649       59.45963
2009    10      2       0.2610803       66.36744
2009    10      3       0.2617432       66.59052
2009    10      4       0.2217553       58.31498
2009    10      5       0.1752155       48.04596
2009    10      6       0.2710674       68.53978
2009    10      7       0.4108467       95.10185
2009    11      0       0.4448385       100.9911
2009    11      1       0.4084616       94.4944
2009    11      2       0.4228076       97.07322
2009    11      3       0.4079529       94.55529
2009    11      4       0.4164027       95.62129
2009    11      5       0.4635694       103.4578
2009    11      6       0.5470275       117.5285
2009    11      7       0.6786019       136.8868
2009    12      0       0.7266804       143.3485
2009    12      1       0.7688353       148.7341
2009    12      2       0.7666908       148.8098
2009    12      3       0.8674402       160.1236
2009    12      4       0.7444119       146.1597
2009    12      5       0.5711173       121.945
2009    12      6       0.6792544       137.2577
2009    12      7       0.7843577       150.8406
2009    13      0       0.8200365       155.2524
2009    13      1       0.7853564       151.2636
2009    13      2       0.6083107       128.1785
2009    13      3       0.6144964       129.0011
2009    13      4       0.6492681       133.6181
2009    13      5       0.6299914       130.9742
2009    13      6       0.6662492       136.2306
2009    13      7       1.059803        180.2748
2009    14      0       0.6642125       136.7273
2009    14      1       0.4714038       106.5924
2009    14      2       0.4678059       105.7409
2009    14      3       0.5055328       111.4838
2009    14      4       0.3351602       81.65584
2009    14      5       0.2511792       64.95156
2009    14      6       0.2173765       57.72541
2009    14      7       0.2314776       60.70543
2009    15      0       0.2475929       63.96432
2009    15      1       0.2612364       66.65386
2009    15      2       0.3589072       85.34846
2009    15      3       0.4342794       98.93793
2009    15      4       0.3167613       77.38262
2009    15      5       0.157349        44.02348
2009    15      6       0.2269162       59.60395
2009    15      7       0.2891742       72.62374
2009    16      0       0.3417381       82.93255
2009    16      1       0.4161225       95.6413
2009    16      2       0.2954736       73.32593
2009    16      3       0.204567        54.66707
2009    16      4       0.2269623       59.4574
2009    16      5       0.2104464       55.74469
2009    16      6       0.2470833       63.49308
2009    16      7       0.2749119       69.3471
2009    17      0       0.3002922       74.33921
2009    17      1       0.306183        75.24251
2009    17      2       0.3486849       83.7769
2009    17      3       0.2981133       74.2242
2009    17      4       0.2569956       65.59784
2009    17      5       0.3119963       76.0268
2009    17      6       0.3818454       89.27051
2009    17      7       0.4300771       97.6949
2009    18      0       0.4685814       104.4432
2009    18      1       0.4890104       108.0627
2009    18      2       0.4909537       108.8369
2009    18      3       0.4776515       106.9824
2009    18      4       0.3544589       85.32439
2009    18      5       0.2740743       69.306
2009    18      6       0.3881419       91.01826
2009    18      7       0.4721736       105.7215
2009    19      0       0.5323204       115.6095
2009    19      1       0.5388787       116.9057
2009    19      2       0.4450624       101.6023
2009    19      3       0.371676        88.28188
2009    19      4       0.4184776       96.63397
2009    19      5       0.4561211       102.5542
2009    19      6       0.6744296       134.7817
2009    19      7       0.7683142       146.8522
2009    20      0       0.4948323       109.4283
2009    20      1       0.6433939       131.1039
2009    20      2       0.5219213       113.7034
2009    20      3       0.4676984       105.7739
2009    20      4       0.5605541       120.2224
2009    20      5       0.6687589       135.5956
2009    20      6       0.5779106       122.3114
2009    20      7       0.5203536       113.8183
2009    21      0       0.414429        96.00052
2009    21      1       0.4410672       100.9829
2009    21      2       0.576844        123.4843
2009    21      3       0.5227278       115.1135
2009    21      4       0.4038974       94.67468
2009    21      5       0.3799053       90.20692
2009    21      6       0.4957025       110.1168
2009    21      7       0.6042394       126.5049
2009    22      0       0.64861         132.9286
2009    22      1       0.4862665       108.5788
2009    22      2       0.4716811       105.6476
2009    22      3       0.538594        116.0407
2009    22      4       0.4967607       109.4915
2009    22      5       0.4184879       96.65994
2009    22      6       0.390253        91.68772
2009    22      7       0.4079182       94.75952
2009    23      0       0.4369824       99.82979
2009    23      1       0.4506986       102.1514
2009    23      2       0.5243567       114.0781
2009    23      3       0.6306872       130.0409
2009    23      4       0.5152265       113.0298
2009    23      5       0.4243754       97.90007
2009    23      6       0.4506083       102.4433
2009    23      7       0.499374        110.2073
2009    24      0       0.4216801       97.20627
2009    24      1       0.3829677       90.32701
2009    24      2       0.3828329       90.24477
2009    24      3       0.3664711       87.22734
2009    24      4       0.4030622       93.54256
2009    24      5       0.4546765       102.2984
2009    24      6       0.5546836       118.2074
2009    24      7       0.6943206       138.3683
2009    25      0       0.6627159       134.4452
2009    25      1       0.6178088       128.2437
2009    25      2       0.6286042       129.984
2009    25      3       0.6725484       136.135
2009    25      4       0.7745463       148.8497
2009    25      5       0.7351171       144.1705
2009    25      6       0.9080667       164.0406
2009    25      7       1.210128        192.0737
2009    26      0       1.08421         181.3049
2009    26      1       0.9392907       166.8798
2009    26      2       0.7257447       142.2979
2009    26      3       0.628915        129.4297
2009    26      4       0.6250663       128.8134
2009    26      5       0.6597664       132.9611
2009    26      6       0.7927037       149.8784
2009    26      7       0.7641906       146.6319
2009    27      0       0.6731435       135.7267
2009    27      1       0.5331126       116.1123
2009    27      2       0.4818556       108.0885
2009    27      3       0.6212318       128.6322
2009    27      4       0.5882211       124.1358
2009    27      5       0.4151465       96.66807
2009    27      6       0.565266        119.9982
2009    27      7       0.6792728       136.2023
2009    28      0       0.791432        150.4537
2009    28      1       0.8413141       156.8102
2009    28      2       0.6748024       135.6458
2009    28      3       0.6156128       127.5982
2009    28      4       0.5469015       117.7397
2009    28      5       0.5356941       115.5849
2009    28      6       0.8103869       152.7405
2009    28      7       0.7478343       145.2667
2009    29      0       0.7549726       146.2625
2009    29      1       0.6737409       135.3798
2009    29      2       0.5331623       114.9763
2009    29      3       0.4328638       98.68918
2009    29      4       0.558998        118.037
2009    29      5       0.8105618       150.9359
2009    29      6       0.9082052       162.1373
2009    29      7       0.9809038       170.9397
2009    30      0       0.9551708       168.4017
2009    30      1       0.846728        156.5176
2009    30      2       0.6672703       133.931
2009    30      3       0.6320065       129.1415
2009    30      4       0.5694008       119.9525
2009    30      5       0.5399908       114.9662
2009    30      6       0.6550737       131.435
2009    30      7       0.6292518       128.0873
2009    31      0       0.5311024       114.1876
2009    31      1       0.4102955       94.62878
2009    31      2       0.4363402       99.06175
2009    31      3       0.4523827       101.9308
2009    31      4       0.4000041       92.86081
2009    31      5       0.3935427       91.41169
2009    31      6       0.5631025       118.9851
2009    31      7       0.6910856       136.7241
2010    1       0       0.7391423       144.1836
2010    1       1       0.8018141       151.0791
2010    1       2       0.6851282       136.3424
2010    1       3       0.5795333       122.0166
2010    1       4       0.5364646       115.3035
2010    1       5       0.4955629       108.3771
2010    1       6       0.5354          115.1943
2010    1       7       0.6423144       131.0331
2010    2       0       0.7456858       144.7963
2010    2       1       0.6255528       129.4286
2010    2       2       0.6143289       127.6686
2010    2       3       0.478735        107.5451
2010    2       4       0.5758161       122.3238
2010    2       5       0.6986907       138.5917
2010    2       6       0.8387016       155.7346
2010    2       7       0.8073188       152.3441
2010    3       0       0.6302051       130.4178
2010    3       1       0.548398        118.2875
2010    3       2       0.6040434       126.5169
2010    3       3       0.7317997       143.4136
2010    3       4       0.4978068       109.9515
2010    3       5       0.3081252       76.23998
2010    3       6       0.3553161       85.38021
2010    3       7       0.3560931       84.7778
2010    4       0       0.2350509       60.66009
2010    4       1       0.1556369       43.28448
2010    4       2       0.1812661       48.77516
2010    4       3       0.3348438       80.19508
2010    4       4       0.4608013       102.9727
2010    4       5       0.3604641       85.47245
2010    4       6       0.3845518       89.89387
2010    4       7       0.6122271       125.7417
2010    5       0       0.7075245       139.2509
2010    5       1       0.4146679       94.81792
2010    5       2       0.2840207       69.95371
2010    5       3       0.1975072       52.264
2010    5       4       0.1323755       37.67679
2010    5       5       0.2375914       60.92587
2010    5       6       0.3220522       78.13288
2010    5       7       0.3476207       83.25108
2010    6       0       0.3498312       83.58755
2010    6       1       0.3001782       73.75456
2010    6       2       0.3144309       76.38918
2010    6       3       0.3126697       76.38511
2010    6       4       0.2469688       63.24689
2010    6       5       0.2304966       59.59522
2010    6       6       0.2831515       70.37254
2010    6       7       0.3799671       88.02302
2010    7       0       0.4036177       91.99596
2010    7       1       0.3666547       86.09472
2010    7       2       0.6122097       127.9005
2010    7       3       0.3309846       79.52041
2010    7       4       0.3581748       83.58007
2010    7       5       0.3450203       81.48282
2010    7       6       0.4524368       100.8701
2010    7       7       0.5952076       123.4986
2010    8       0       0.7053176       139.1333
2010    8       1       0.6092065       126.4583
2010    8       2       0.4601926       102.8555
2010    8       3       0.4978996       108.2737
2010    8       4       0.5184566       111.3804
2010    8       5       0.5144357       110.9111
2010    8       6       0.6896173       135.8473
2010    8       7       0.7132317       139.4996
2010    9       0       0.6818969       135.3462
2010    9       1       0.463028        103.2614
2010    9       2       0.3707232       87.25572
2010    9       3       0.3280063       79.09956
2010    9       4       0.3195182       77.62283
2010    9       5       0.3605489       85.3313
2010    9       6       0.5182265       111.5676
2010    9       7       0.5700566       119.6616
2010    10      0       0.4655404       104.127
2010    10      1       0.3779132       88.85052
2010    10      2       0.4261362       96.88812
2010    10      3       0.5282382       114.0044
2010    10      4       0.6278941       128.5832
2010    10      5       0.5526676       117.9363
2010    10      6       0.7159694       140.7082
2010    10      7       0.7628276       146.6221
2010    11      0       0.785426        149.3234
2010    11      1       0.4588957       103.3142
2010    11      2       0.3943047       92.34224
2010    11      3       0.40799         94.52062
2010    11      4       0.4348775       98.97088
2010    11      5       0.4578975       102.9657
2010    11      6       0.5900079       123.3685
2010    11      7       0.6405762       130.7623
2010    12      0       0.7628392       146.2125
2010    12      1       0.6502137       131.7387
2010    12      2       0.5653164       119.8952
2010    12      3       0.3992002       92.98222
2010    12      4       0.4213342       96.77126
2010    12      5       0.4405277       100.4437
2010    12      6       0.6106313       127.2959
2010    12      7       0.6340471       131.5031
2010    13      0       0.5889904       125.3984
2010    13      1       0.5296579       116.252
2010    13      2       0.414053        96.91353
2010    13      3       0.4058777       95.44669
2010    13      4       0.4307639       99.86951
2010    13      5       0.4093144       95.76856
2010    13      6       0.4627708       104.8403
2010    13      7       0.4763554       107.2491
2010    14      0       0.5327067       116.1218
2010    14      1       0.5797236       122.9913
2010    14      2       0.6340876       130.7591
2010    14      3       0.6780079       136.9748
2010    14      4       0.5692979       121.8351
2010    14      5       0.5616695       120.5257
2010    14      6       0.6848677       137.5463
2010    14      7       0.6916678       138.2526
2010    15      0       0.592756        124.6328
2010    15      1       0.6140479       127.5019
2010    15      2       0.5056349       111.2761
2010    15      3       0.4133876       95.88977
2010    15      4       0.1931685       52.25428
2010    15      5       0.08615236      26.989
2010    15      6       0.1227538       35.95736
2010    15      7       0.1668673       46.36724
2010    16      0       0.1954724       52.87444
2010    16      1       0.1796364       49.36773
2010    16      2       0.1496431       42.48342
2010    16      3       0.1126437       33.65153
2010    16      4       0.08302438      26.23317
2010    16      5       0.07326105      23.77238
2010    16      6       0.1086673       32.54507
2010    16      7       0.1600396       44.57027
2010    17      0       0.1905584       51.42964
2010    17      1       0.2040624       54.26123
2010    17      2       0.2732462       68.35959
2010    17      3       0.3499363       82.61285
2010    17      4       0.3626134       84.70416
2010    17      5       0.3633216       85.0964
2010    17      6       0.4913567       107.508
2010    17      7       0.6449584       131.3366
2010    18      0       0.6450252       132.0386
2010    18      1       0.7574356       146.8307
2010    18      2       0.8114527       153.0993
2010    18      3       0.805655        152.2087
2010    18      4       0.5722138       121.9952
2010    18      5       0.5506029       118.8252
2010    18      6       0.6699672       135.4994
2010    18      7       0.6567879       134.3624
2010    19      0       0.543036        117.9621
2010    19      1       0.738432        143.7556
2010    19      2       0.4277713       99.06111
2010    19      3       0.2678925       68.44602
2010    19      4       0.4699511       105.0656
2010    19      5       0.5703095       121.1364
2010    19      6       0.533098        116.5454
2010    19      7       0.5790021       123.6331
2010    20      0       0.6411179       132.0934
2010    20      1       0.5412977       117.0007
2010    20      2       0.474671        106.3836
2010    20      3       0.3750261       89.4453
2010    20      4       0.4349836       98.42134
2010    20      5       0.5102173       109.9202
2010    20      6       0.4882666       108.44
2010    20      7       0.6998813       139.7086
2010    21      0       0.740555        145.1851
2010    21      1       0.9540554       169.3102
2010    21      2       0.6917555       138.2415
2010    21      3       0.5657159       120.2414
2010    21      4       0.81159         151.9413
2010    21      5       0.874329        159.3161
2010    21      6       1.187001        191.6997
2010    21      7       1.16132         189.7264
2010    22      0       0.8353208       157.0249
2010    22      1       0.59468         125.0081
2010    22      2       0.6314887       130.4326
2010    22      3       0.6216795       129.8751
2010    22      4       0.5675767       121.5697
2010    22      5       0.517139        113.1587
2010    22      6       0.6114112       127.0511
2010    22      7       0.8629851       158.7476
2010    23      0       0.7195929       142.2604
2010    23      1       0.6020982       126.2609
2010    23      2       0.5386782       116.6209
2010    23      3       0.4867579       108.1524
2010    23      4       0.3403073       82.45595
2010    23      5       0.1775768       48.69256
2010    23      6       0.2637019       67.47276
2010    23      7       0.3772916       89.62879
2010    24      0       0.3880846       90.98187
2010    24      1       0.3104591       76.4055
2010    24      2       0.3016153       74.89773
2010    24      3       0.2895276       72.59019
2010    24      4       0.2593093       66.49201
2010    24      5       0.2306834       60.56657
2010    24      6       0.2819964       71.43658
2010    24      7       0.3600191       86.65035
2010    25      0       0.4661222       105.6974
2010    25      1       0.4624064       105.399
2010    25      2       0.4122256       96.79309
2010    25      3       0.3245114       80.13
2010    25      4       0.2992815       74.39288
2010    25      5       0.2943763       73.31892
2010    25      6       0.3504615       84.29596
2010    25      7       0.4814978       107.3854
2010    26      0       0.7005822       139.7213
2010    26      1       0.5666818       121.4147
2010    26      2       0.4620137       104.9701
2010    26      3       0.4191397       97.49823
2010    26      4       0.3684505       88.13549
2010    26      5       0.3314538       81.0909
2010    26      6       0.330409        80.94356
2010    26      7       0.4310656       99.02621
2010    27      0       0.5152921       113.0022
2010    27      1       0.4854803       108.4747
2010    27      2       0.5079558       112.3981
2010    27      3       0.5763003       122.6543
2010    27      4       0.5901627       124.7152
2010    27      5       0.7449974       145.423
2010    27      6       0.9054165       164.1545
2010    27      7       1.053137        179.4523
2010    28      0       0.9310744       167.3054
2010    28      1       0.8055806       153.4712
2010    28      2       0.7094142       141.6306
2010    28      3       0.7044368       140.6886
2010    28      4       0.8058284       152.8563
2010    28      5       0.8724424       160.8424
2010    28      6       1.126187        186.6401
2010    28      7       1.315005        202.5835
2010    29      0       1.211488        194.415
2010    29      1       0.9469372       170.0496
2010    29      2       0.8529999       159.6832
2010    29      3       0.9436938       169.0884
2010    29      4       0.9156323       165.3279
2010    29      5       0.9792314       171.506
2010    29      6       1.241811        195.5186
2010    29      7       1.39344         206.7482
2010    30      0       1.025134        176.4278
2010    30      1       0.9510839       169.534
2010    30      2       0.8821823       162.5587
2010    30      3       0.7578765       148.2019
2010    30      4       0.6549038       134.8759
2010    30      5       0.7704009       150.0739
2010    30      6       1.0439          179.3904
2010    30      7       1.250668        196.7341
2010    31      0       1.366876        206.0077
2010    31      1       1.01149         177.18
2010    31      2       1.011175        177.2687
2010    31      3       0.9173242       166.866
2010    31      4       0.6486447       134.2098
2010    31      5       0.5789843       123.9295
2010    31      6       0.615126        129.3574
2010    31      7       0.761952        149.0289
2011    1       0       0.9190905       164.901
2011    1       1       0.5523465       116.3483
2011    1       2       0.3622169       85.59187
2011    1       3       0.4729903       105.5837
2011    1       4       0.4101816       94.84959
2011    1       5       0.3588574       85.33651
2011    1       6       0.4026306       93.50673
2011    1       7       0.4604486       103.8123
2011    2       0       0.4292083       98.72513
2011    2       1       0.3659003       87.30788
2011    2       2       0.4414209       100.8035
2011    2       3       0.433416        99.63477
2011    2       4       0.3327929       81.22618
2011    2       5       0.3025395       75.22458
2011    2       6       0.362027        86.94224
2011    2       7       0.4117387       96.07814
2011    3       0       0.4394334       100.8555
2011    3       1       0.5441065       116.9235
2011    3       2       0.4953723       109.6054
2011    3       3       0.4067019       95.18356
2011    3       4       0.387579        91.76349
2011    3       5       0.332547        81.38545
2011    3       6       0.3785035       90.21036
2011    3       7       0.4516148       103.0848
2011    4       0       0.4186568       97.56144
2011    4       1       0.2937011       74.19941
2011    4       2       0.2898044       73.07559
2011    4       3       0.357949        86.14186
2011    4       4       0.4072967       95.06375
2011    4       5       0.4572171       103.3632
2011    4       6       0.6191263       128.5788
2011    4       7       0.8382303       156.7671
2011    5       0       0.7831104       150.5742
2011    5       1       0.8067831       152.938
2011    5       2       0.6138349       127.1566
2011    5       3       0.6772377       136.0145
2011    5       4       0.7032168       139.181
2011    5       5       0.5699688       120.7914
2011    5       6       0.8193788       153.3644
2011    5       7       0.9601628       169.1669
2011    6       0       0.8778144       161.1665
2011    6       1       0.7152802       141.808
2011    6       2       0.7088551       140.6522
2011    6       3       0.6825103       137.2993
2011    6       4       0.6619774       134.6576
2011    6       5       0.6812835       137.0227
2011    6       6       0.9013498       163.7943
2011    6       7       1.252759        196.1199
2011    7       0       1.223537        193.4712
2011    7       1       0.8934072       162.7224
2011    7       2       0.6936535       139.2678
2011    7       3       0.6444914       132.6833
2011    7       4       0.5718374       122.1666
2011    7       5       0.5695874       121.2205
2011    7       6       0.7994717       151.4515
2011    7       7       0.9989337       173.6375
2011    8       0       0.9447685       168.4281
2011    8       1       0.8443516       158.1138
2011    8       2       0.8113167       154.5061
2011    8       3       0.731111        144.7079
2011    8       4       0.7160493       142.5211
2011    8       5       0.7297522       144.2719
2011    8       6       1.143879        188.2737
2011    8       7       1.314586        201.5545
2011    9       0       1.139592        187.1796
2011    9       1       0.9660521       170.839
2011    9       2       0.8474012       157.8104
2011    9       3       0.8484527       157.5248
2011    9       4       0.9775391       171.5045
2011    9       5       0.8810923       161.2197
2011    9       6       1.194776        191.4582
2011    9       7       1.124353        184.7674
2011    10      0       0.7870222       150.3684
2011    10      1       0.5842798       123.1421
2011    10      2       0.4932938       109.0658
2011    10      3       0.4939014       108.8713
2011    10      4       0.5578018       118.8785
2011    10      5       0.9478776       168.6652
2011    10      6       1.026895        176.1971
2011    10      7       0.9152737       164.5065
2011    11      0       0.8973714       162.5267
2011    11      1       0.7497469       145.2123
2011    11      2       0.717007        141.2957
2011    11      3       0.7556736       146.8584
2011    11      4       0.6997987       139.8688
2011    11      5       0.6672495       135.4717
2011    11      6       1.098309        183.2887
2011    11      7       1.233228        193.9839
2011    12      0       1.067107        178.8973
2011    12      1       0.7287975       142.9106
2011    12      2       0.6223141       128.9532
2011    12      3       0.635897        130.934
2011    12      4       0.6346412       130.6147
2011    12      5       0.7713676       148.4195
2011    12      6       1.212883        192.852
2011    12      7       1.494877        213.6243
2011    13      0       1.314132        201.5137
2011    13      1       1.10343         182.7811
2011    13      2       0.9744573       170.5092
2011    13      3       0.7870851       150.7803
2011    13      4       0.7236603       142.8952
2011    13      5       0.6452267       132.6161
2011    13      6       0.6543941       134.4718
2011    13      7       0.7759686       150.8754
2011    14      0       0.8630093       160.7178
2011    14      1       0.6782788       138.3804
2011    14      2       0.7618607       149.0336
2011    14      3       0.7024259       141.5254
2011    14      4       0.5609026       121.6391
2011    14      5       0.4011321       94.8326
2011    14      6       0.4618315       105.3883
2011    14      7       0.6033641       127.2527
2011    15      0       0.5056227       111.967
2011    15      1       0.3941568       92.01538
2011    15      2       0.3241677       79.05684
2011    15      3       0.3104241       76.18304
2011    15      4       0.2869936       71.45445
2011    15      5       0.2360225       61.28661
2011    15      6       0.2608981       66.95343
2011    15      7       0.3635074       87.24586
2011    16      0       0.5217756       114.0251
2011    16      1       0.6135425       128.0625
2011    16      2       0.5960985       126.1935
2011    16      3       0.5584537       120.9511
2011    16      4       0.4466956       101.8201
2011    16      5       0.5276088       113.9048
2011    16      6       0.6567222       133.8304
2011    16      7       0.9329491       168.2203
2011    17      0       1.06674         181.7538
2011    17      1       0.7612189       149.6221
2011    17      2       0.7745399       151.1134
2011    17      3       0.776398        150.9253
2011    17      4       0.6788852       138.234
2011    17      5       0.7246132       144.6207
2011    17      6       0.8885782       164.0998
2011    17      7       1.238453        196.9275
2011    18      0       1.316788        203.4553
2011    18      1       0.8074456       155.6225
2011    18      2       0.8584367       161.6482
2011    18      3       0.8787452       163.7628
2011    18      4       0.803698        155.1883
2011    18      5       0.786386        152.9734
2011    18      6       1.084124        184.2031
2011    18      7       1.275632        200.684
2011    19      0       1.354284        206.6188
2011    19      1       1.237659        197.1563
2011    19      2       1.008831        175.9855
2011    19      3       0.9113446       165.6815
2011    19      4       0.6306281       131.4394
2011    19      5       0.6792511       138.6114
2011    19      6       0.8985227       165.5096
2011    19      7       1.103883        185.3933
2011    20      0       0.9109298       166.0574
2011    20      1       0.7661356       149.2794
2011    20      2       0.7368059       145.5917
2011    20      3       0.5657969       122.1098
2011    20      4       0.5012409       112.602
2011    20      5       0.4124754       96.93394
2011    20      6       0.6177143       128.9004
2011    20      7       0.686929        138.9673
2011    21      0       0.6698951       137.1223
2011    21      1       0.5771052       124.2143
2011    21      2       0.5315347       117.0128
2011    21      3       0.4879633       109.8082
2011    21      4       0.4306376       99.64327
2011    21      5       0.5023757       111.147
2011    21      6       0.6672398       135.7251
2011    21      7       0.6746093       137.2388
2011    22      0       0.6697877       137.3152
2011    22      1       0.6011841       127.4626
2011    22      2       0.3625092       87.40581
2011    22      3       0.2470048       64.23444
2011    22      4       0.1996381       53.90017
2011    22      5       0.2007515       53.95112
2011    22      6       0.2760409       70.05331
2011    22      7       0.3601444       86.57762
2011    23      0       0.3668222       87.81586
2011    23      1       0.3226752       79.50476
2011    23      2       0.3269935       80.30825
2011    23      3       0.2909118       73.26744
2011    23      4       0.1994316       54.00644
2011    23      5       0.1738937       48.19717
2011    23      6       0.239066        62.56526
2011    23      7       0.2915952       73.41554
2011    24      0       0.2972804       74.65148
2011    24      1       0.290827        73.48591
2011    24      2       0.3493083       85.34877
2011    24      3       0.3546139       86.33361
2011    24      4       0.2931618       73.95427
2011    24      5       0.2547073       65.98524
2011    24      6       0.2774244       70.76027
2011    24      7       0.3437167       83.93072
2011    25      0       0.3947854       93.52008
2011    25      1       0.4654959       106.0932
2011    25      2       0.5179011       115.369
2011    25      3       0.4828896       109.7325
2011    25      4       0.4895028       110.6603
2011    25      5       0.5119862       114.1242
2011    25      6       0.5301146       116.9606
2011    25      7       0.5666058       122.1249
2011    26      0       0.5872501       124.4586
2011    26      1       0.5512772       118.7758
2011    26      2       0.552123        119.1688
2011    26      3       0.5944179       125.6658
2011    26      4       0.7017819       140.7814
2011    26      5       1.004654        175.0237
2011    26      6       1.388644        207.3961
2011    26      7       1.538496        217.0823
2011    27      0       1.289356        199.6046
2011    27      1       0.8097511       153.5458
2011    27      2       0.5329331       116.0017
2011    27      3       0.5131169       112.8712
2011    27      4       0.6394661       131.7926
2011    27      5       0.7157452       142.1468
2011    27      6       0.971141        171.2038
2011    27      7       1.05913         180.1127
2011    28      0       1.024085        177.2011
2011    28      1       0.7814613       151.4782
2011    28      2       0.6889848       139.6361
2011    28      3       0.6894657       139.1946
2011    28      4       0.6902413       138.6408
2011    28      5       0.6982326       139.6851
2011    28      6       0.6273386       129.9009
2011    28      7       0.6346781       131.1564
2011    29      0       0.5813017       123.7323
2011    29      1       0.5353162       116.72
2011    29      2       0.5334869       116.6021
2011    29      3       0.5139978       113.5015
2011    29      4       0.4521568       103.2458
2011    29      5       0.411641        96.20096
2011    29      6       0.455647        103.9581
2011    29      7       0.5260101       115.8184
2011    30      0       0.5870149       125.31
2011    30      1       0.5582481       120.9248
2011    30      2       0.4625906       105.312
2011    30      3       0.4088069       95.80916
2011    30      4       0.4022405       94.5849
2011    30      5       0.4408151       101.335
2011    30      6       0.528289        115.9986
2011    30      7       0.6517617       134.1036
2011    31      0       0.7362905       145.3112
2011    31      1       0.6735209       136.9141
2011    31      2       0.6771883       138.0131
2011    31      3       0.7998543       154.2629
2011    31      4       0.8141522       156.2716
2011    31      5       0.8378044       159.3478
2011    31      6       1.279765        200.7611
2011    31      7       1.596866        221.7828
2012    1       0       0.5703862       121.196
2012    1       1       0.4585685       104.1957
2012    1       2       0.3781585       90.2316
2012    1       3       0.331311        81.33604
2012    1       4       0.2667679       68.34686
2012    1       5       0.245736        63.75631
2012    1       6       0.2912837       72.76075
2012    1       7       0.3929627       91.46197
2012    2       0       0.4654266       104.0694
2012    2       1       0.5737108       121.2661
2012    2       2       0.5793784       122.4641
2012    2       3       0.4845276       107.8627
2012    2       4       0.4593559       103.6107
2012    2       5       0.5062522       111.4369
2012    2       6       0.7331811       143.1268
2012    2       7       0.7283164       144.0271
2012    3       0       0.9963857       173.8309
2012    3       1       0.9164471       165.1833
2012    3       2       0.577666        123.1669
2012    3       3       0.5213569       114.6966
2012    3       4       0.6239626       130.1582
2012    3       5       0.6671692       136.396
2012    3       6       0.7693572       149.5275
2012    3       7       0.7841316       151.7001
2012    4       0       0.7453176       146.8121
2012    4       1       0.6738434       137.2205
2012    4       2       0.5972175       126.1476
2012    4       3       0.4958213       110.2513
2012    4       4       0.4446906       101.2202
2012    4       5       0.4851205       107.7462
2012    4       6       0.6681072       135.0206
2012    4       7       0.8837552       161.7476
2012    5       0       0.8092519       153.868
2012    5       1       0.7734386       149.5832
2012    5       2       1.093681        183.958
2012    5       3       0.964938        170.6777
2012    5       4       0.9544944       169.5509
2012    5       5       0.7013969       140.5626
2012    5       6       0.8180075       155.4039
2012    5       7       1.134709        187.8186
2012    6       0       1.112886        184.9608
2012    6       1       1.00212         174.4705
2012    6       2       0.7863868       151.293
2012    6       3       0.6935034       138.4711
2012    6       4       0.6490146       132.6228
2012    6       5       0.8385061       156.9029
2012    6       6       1.08572         181.7816
2012    6       7       1.36998         204.0247
2012    7       0       1.048393        178.1127
2012    7       1       1.015996        174.8163
2012    7       2       1.182955        189.994
2012    7       3       1.13473         186.3483
2012    7       4       0.7703615       148.6996
2012    7       5       0.7949538       151.6877
2012    7       6       1.160259        188.6464
2012    7       7       1.31443         201.4378
2012    8       0       1.305112        200.5649
2012    8       1       1.268746        197.5467
2012    8       2       1.194662        191.3838
2012    8       3       1.143911        186.5416
2012    8       4       1.146623        187.9255
2012    8       5       1.232909        194.7783
2012    8       6       1.395262        206.3152
2012    8       7       1.246298        195.6831
2012    9       0       0.8346299       155.5918
2012    9       1       0.5528058       118.5721
2012    9       2       0.4230135       97.58636
2012    9       3       0.4201917       97.04059
2012    9       4       0.3481459       83.93612
2012    9       5       0.3671963       87.7844
2012    9       6       0.4689755       105.7432
2012    9       7       0.6552142       133.9703
2012    10      0       0.7350827       144.7753
2012    10      1       0.5327393       116.6174
2012    10      2       0.3823684       91.15759
2012    10      3       0.3243372       79.89948
2012    10      4       0.3067809       76.26837
2012    10      5       0.2920146       73.28873
2012    10      6       0.3896004       91.95622
2012    10      7       0.5050441       111.6755
2012    11      0       0.562612        120.5667
2012    11      1       0.4641308       105.3815
2012    11      2       0.5595123       120.0791
2012    11      3       0.6100485       127.445
2012    11      4       0.5053457       111.4976
2012    11      5       0.4374848       100.424
2012    11      6       0.4604881       104.492
2012    11      7       0.5723537       121.558
2012    12      0       0.6551344       133.0562
2012    12      1       0.4777873       106.7236
2012    12      2       0.4189494       96.9009
2012    12      3       0.3819099       90.36641
2012    12      4       0.3412796       82.94361
2012    12      5       0.3576488       85.82953
2012    12      6       0.3926296       92.23022
2012    12      7       0.4083501       94.87723
2012    13      0       0.3626837       86.6908
2012    13      1       0.3182734       78.47526
2012    13      2       0.3102615       77.08469
2012    13      3       0.3091364       76.83828
2012    13      4       0.2721151       69.24361
2012    13      5       0.3193409       78.37495
2012    13      6       0.4076234       94.56499
2012    13      7       0.5346773       115.4193
2012    14      0       0.633784        129.8246
2012    14      1       0.6000912       124.9451
2012    14      2       0.6212867       128.013
2012    14      3       0.6011476       125.8442
2012    14      4       0.5036783       110.5631
2012    14      5       0.4884636       108.0866
2012    14      6       0.6635507       133.9256
2012    14      7       1.103612        183.5443
2012    15      0       1.005581        174.2162
2012    15      1       0.8982126       162.5521
2012    15      2       0.7431303       144.6359
2012    15      3       0.6712186       136.1593
2012    15      4       0.5910731       124.294
2012    15      5       0.6369162       130.8888
2012    15      6       0.7787226       149.6309
2012    15      7       0.9912935       172.9152
2012    16      0       1.075816        181.1361
2012    16      1       0.9079781       164.4407
2012    16      2       0.8252026       154.3658
2012    16      3       0.5666076       121.1227
2012    16      4       0.4872839       108.4967
2012    16      5       0.4961462       110.0328
2012    16      6       0.7540067       146.6946
2012    16      7       1.016117        175.3203
2012    17      0       0.9052687       163.1717
2012    17      1       0.6493672       131.3579
2012    17      2       0.488991        108.1413
2012    17      3       0.429288        98.74045
2012    17      4       0.4369464       99.98044
2012    17      5       0.5144267       112.6461
2012    17      6       0.7258366       142.2106
2012    17      7       0.6462941       131.593
2012    18      0       0.4612915       104.3763
2012    18      1       0.3553484       85.86035
2012    18      2       0.336834        82.24692
2012    18      3       0.3437124       83.34874
2012    18      4       0.2907829       73.02316
2012    18      5       0.2559453       65.85171
2012    18      6       0.31721         77.80473
2012    18      7       0.4352904       98.86276
2012    19      0       0.564542        119.4982
2012    19      1       0.5293328       114.655
2012    19      2       0.5580666       119.2458
2012    19      3       0.6526892       132.893
2012    19      4       0.5778361       122.217
2012    19      5       0.5374377       115.9987
2012    19      6       0.6144605       127.5268
2012    19      7       0.7105456       140.9666
2012    20      0       0.8294034       155.592
2012    20      1       0.8883528       162.125
2012    20      2       0.8282475       155.3582
2012    20      3       0.5326652       116.2905
2012    20      4       0.3692198       88.41471
2012    20      5       0.3646692       87.64013
2012    20      6       0.5086651       112.9445
2012    20      7       0.7453997       146.2179
2012    21      0       0.9362248       167.8853
2012    21      1       0.8413141       156.8667
2012    21      2       0.7765793       149.0504
2012    21      3       0.6591527       134.1789
2012    21      4       0.5680649       121.587
2012    21      5       0.5872549       124.5464
2012    21      6       0.6885299       138.8922
2012    21      7       0.8761153       161.8799
2012    22      0       1.032323        178.3279
2012    22      1       1.026374        176.7706
2012    22      2       0.7766877       149.282
2012    22      3       0.7531841       146.8607
2012    22      4       0.6724183       136.7369
2012    22      5       0.6971665       139.8009
2012    22      6       0.8852771       161.7084
2012    22      7       0.9601733       170.3506
2012    23      0       1.042729        178.7075
2012    23      1       0.9268894       167.0038
2012    23      2       0.7532027       147.2457
2012    23      3       0.7125568       142.4072
2012    23      4       0.6295471       130.8955
2012    23      5       0.6852504       138.4882
2012    23      6       1.001421        174.6266
2012    23      7       1.094957        184.3636
2012    24      0       1.12958         187.3715
2012    24      1       1.026043        176.6608
2012    24      2       0.9126073       165.563
2012    24      3       0.7991382       153.5479
2012    24      4       0.7258617       144.3037
2012    24      5       0.7379399       145.7599
2012    24      6       1.123084        185.8957
2012    24      7       1.191098        192.3131
2012    25      0       0.9665886       171.8945
2012    25      1       0.8914661       163.5503
2012    25      2       0.8844324       162.5085
2012    25      3       0.9444887       168.6145
2012    25      4       0.8676801       160.4038
2012    25      5       0.6162149       128.6347
2012    25      6       0.7728026       149.1043
2012    25      7       0.8526071       158.0851
2012    26      0       0.8747829       161.0807
2012    26      1       0.6014124       126.9165
2012    26      2       0.5171835       113.972
2012    26      3       0.4552015       103.7579
2012    26      4       0.4187485       97.32323
2012    26      5       0.4428985       101.0617
2012    26      6       0.4622529       104.2244
2012    26      7       0.4832256       107.8423
2012    27      0       0.4895791       108.9997
2012    27      1       0.4417308       101.3814
2012    27      2       0.4453217       102.5139
2012    27      3       0.4729981       107.2441
2012    27      4       0.3434871       84.16187
2012    27      5       0.3530321       85.77315
2012    27      6       0.5648399       121.1643
2012    27      7       0.9303861       166.9472
2012    28      0       1.094955        183.0199
2012    28      1       1.031376        177.0585
2012    28      2       0.9542174       169.1407
2012    28      3       0.7731443       147.4225
2012    28      4       0.581072        122.4133
2012    28      5       0.5659344       120.581
2012    28      6       0.7523386       146.0583
2012    28      7       0.9116776       164.6583
2012    29      0       0.9051453       164.5612
2012    29      1       0.7689257       148.858
2012    29      2       0.7442119       145.5123
2012    29      3       0.6651116       135.1033
2012    29      4       0.6362069       131.0458
2012    29      5       0.6483437       132.5807
2012    29      6       1.015592        174.0548
2012    29      7       1.047513        176.8756
2012    30      0       0.7809088       148.7975
2012    30      1       0.7088909       140.6136
2012    30      2       0.680504        137.2438
2012    30      3       0.6391501       131.7136
2012    30      4       0.6115602       127.4148
2012    30      5       0.6382493       130.5938
2012    30      6       0.8793285       160.4444
2012    30      7       1.03898         176.7621
2012    31      0       0.9526018       168.4192
2012    31      1       0.7605898       146.7548
2012    31      2       0.6399031       131.4446
2012    31      3       0.5947617       125.4414
2012    31      4       0.5630231       120.7134
2012    31      5       0.6211954       129.1041
2012    31      6       0.8438151       157.4639
2012    31      7       0.9832212       171.9135
2013    1       0       0.7512434       146.5895
2013    1       1       0.5693969       121.6929
2013    1       2       0.5306098       115.4743
2013    1       3       0.5154614       113.2237
2013    1       4       0.4839638       108.273
2013    1       5       0.6893962       137.984
2013    1       6       0.786771        149.951
2013    1       7       0.6894539       137.779
2013    2       0       0.6687713       135.2913
2013    2       1       0.4737715       106.698
2013    2       2       0.3534267       85.41733
2013    2       3       0.3451274       83.69239
2013    2       4       0.4330225       99.67891
2013    2       5       0.5766726       122.592
2013    2       6       0.6589333       134.445
2013    2       7       0.7327714       144.1081
2013    3       0       0.6011862       126.471
2013    3       1       0.4719303       106.3556
2013    3       2       0.3733419       88.79169
2013    3       3       0.3309514       80.90378
2013    3       4       0.3609668       86.72879
2013    3       5       0.3541391       85.11805
2013    3       6       0.4370255       100.0988
2013    3       7       0.5553558       119.0902
2013    4       0       0.7315524       143.8033
2013    4       1       0.7455681       145.6721
2013    4       2       0.6716836       135.9358
2013    4       3       0.548523        118.5434
2013    4       4       0.5357951       116.8471
2013    4       5       0.5728812       122.325
2013    4       6       0.7068664       140.6245
2013    4       7       0.7847119       150.8941
2013    5       0       0.9240449       166.7862
2013    5       1       0.9999037       173.6872
2013    5       2       0.9109452       164.9336
2013    5       3       0.9253289       167.0479
2013    5       4       0.8017829       154.1743
2013    5       5       0.6229075       130.6162
2013    5       6       0.8008552       153.3829
2013    5       7       1.149574        188.7114
2013    6       0       0.9383329       168.7415
2013    6       1       0.5762019       124.1032
2013    6       2       0.4860071       109.5112
2013    6       3       0.5648673       121.6125
2013    6       4       0.7525807       147.099
2013    6       5       0.7680979       148.5219
2013    6       6       0.9961215       174.0995
2013    6       7       1.086242        182.9053
2013    7       0       0.8478613       158.6592
2013    7       1       0.707428        141.701
2013    7       2       0.7272008       144.442
2013    7       3       0.6539895       134.5531
2013    7       4       0.6919271       139.6545
2013    7       5       0.653837        134.4871
2013    7       6       0.6220917       130.0127
2013    7       7       0.6576507       134.8203
2013    8       0       0.6212598       129.3712
2013    8       1       0.5479568       118.79
2013    8       2       0.5948006       125.8373
2013    8       3       0.6539962       134.0187
2013    8       4       0.5284122       115.6323
2013    8       5       0.5256089       114.5943
2013    8       6       0.5892309       124.4046
2013    8       7       0.6271393       129.848
2013    9       0       0.5808309       123.4454
2013    9       1       0.4951595       110.0945
2013    9       2       0.5462407       118.0525
2013    9       3       0.5318477       116.5922
2013    9       4       0.3458612       84.37515
2013    9       5       0.3067521       76.44863
2013    9       6       0.3871609       91.5661
2013    9       7       0.4567385       103.343
2013    10      0       0.5005246       110.4258
2013    10      1       0.534366        115.661
2013    10      2       0.5432783       117.7357
2013    10      3       0.5265285       115.9633
2013    10      4       0.4992986       111.6646
2013    10      5       0.5281928       115.964
2013    10      6       0.5640456       121.1471
2013    10      7       0.5721832       122.2442
2013    11      0       0.5510604       119.0175
2013    11      1       0.5077823       112.5034
2013    11      2       0.4224608       98.45719
2013    11      3       0.3926964       92.73691
2013    11      4       0.3850091       90.55806
2013    11      5       0.3851449       90.39164
2013    11      6       0.549068        118.9648
2013    11      7       0.7772935       150.6372
2013    12      0       0.9146072       166.6418
2013    12      1       1.18797         191.9845
2013    12      2       1.175299        190.6843
2013    12      3       0.8800857       162.7287
2013    12      4       1.042214        179.9072
2013    12      5       1.027268        178.0119
2013    12      6       1.29412         199.7615
2013    12      7       1.370378        204.7457
2013    13      0       0.8452737       158.1898
2013    13      1       0.7625638       148.5914
2013    13      2       0.7323553       145.0917
2013    13      3       0.700694        141.1962
2013    13      4       0.7971431       152.9293
2013    13      5       0.908286        165.0367
2013    13      6       1.255979        196.4159
2013    13      7       1.231155        194.79
2013    14      0       1.097678        183.2945
2013    14      1       0.8228717       155.9313
2013    14      2       0.7073231       141.8419
2013    14      3       0.6138273       128.7276
2013    14      4       0.6315581       131.0177
2013    14      5       0.67589         137.0638
2013    14      6       1.035335        178.0608
2013    14      7       1.347142        203.2536
2013    15      0       1.461129        211.3871
2013    15      1       1.147907        188.7648
2013    15      2       0.9031417       165.0272
2013    15      3       0.7791081       150.1759
2013    15      4       0.6439282       132.2119
2013    15      5       0.6376761       131.4252
2013    15      6       0.8600554       159.6077
2013    15      7       1.068732        181.2527
2013    16      0       1.059084        181.1229
2013    16      1       0.7818461       151.1353
2013    16      2       0.603701        127.0877
2013    16      3       0.4920992       109.4336
2013    16      4       0.4365759       100.0146
2013    16      5       0.3884547       91.71734
2013    16      6       0.3832521       91.05762
2013    16      7       0.3932819       92.9221
2013    17      0       0.4137061       96.82043
2013    17      1       0.3762593       90.04322
2013    17      2       0.3583922       86.64282
2013    17      3       0.4688824       106.405
2013    17      4       0.5375119       117.8764
2013    17      5       0.4806492       108.455
2013    17      6       0.5750136       123.3487
2013    17      7       0.7173707       142.9761
2013    18      0       0.7807626       150.8743
2013    18      1       0.6192126       129.4116
2013    18      2       0.5214354       114.719
2013    18      3       0.4900223       109.6681
2013    18      4       0.5416588       117.7071
2013    18      5       0.6081625       127.5699
2013    18      6       0.7795665       150.4026
2013    18      7       1.068677        180.7174
2013    19      0       1.107896        184.2272
2013    19      1       0.8621351       159.5528
2013    19      2       0.8768115       161.6687
2013    19      3       0.8496559       158.4875
2013    19      4       0.7478029       146.3791
2013    19      5       0.7886882       151.6283
2013    19      6       1.012681        176.2946
2013    19      7       0.9445777       169.26
2013    20      0       0.8215245       155.8776
2013    20      1       0.5086947       113.1556
2013    20      2       0.5149539       114.0206
2013    20      3       0.5092169       112.6416
2013    20      4       0.4006104       93.507
2013    20      5       0.2984392       74.18144
2013    20      6       0.4256316       98.26079
2013    20      7       0.5982759       125.4471
2013    21      0       0.7643772       147.9197
2013    21      1       0.5025169       111.365
2013    21      2       0.2946925       73.97364
2013    21      3       0.1718646       47.69625
2013    21      4       0.2423156       63.20185
2013    21      5       0.2717222       69.32862
2013    21      6       0.2971544       74.41986
2013    21      7       0.3109602       76.97616
2013    22      0       0.3277842       79.73827
2013    22      1       0.2676094       67.55705
2013    22      2       0.2014865       53.42936
2013    22      3       0.2117862       55.47821
2013    22      4       0.1598199       44.79487
2013    22      5       0.1569459       44.61668
2013    22      6       0.2013036       54.31918
2013    22      7       0.2176067       57.67081
2013    23      0       0.191448        51.79622
2013    23      1       0.1380604       39.64975
2013    23      2       0.1487384       42.27059
2013    23      3       0.1655544       46.22709
2013    23      4       0.1561124       44.01344
2013    23      5       0.1749957       48.45176
2013    23      6       0.2365182       61.88976
2013    23      7       0.2591559       66.59085
2013    24      0       0.3013807       75.13185
2013    24      1       0.367958        88.33531
2013    24      2       0.3235325       80.0357
2013    24      3       0.2829901       71.61952
2013    24      4       0.2741005       69.49882
2013    24      5       0.3045799       75.22465
2013    24      6       0.4937002       109.1546
2013    24      7       0.7611786       146.6682
2013    25      0       0.8406672       155.8015
2013    25      1       0.6108409       125.9196
2013    25      2       0.5010866       109.3425
2013    25      3       0.5539714       118.1663
2013    25      4       0.6138448       127.1853
2013    25      5       0.4935361       108.1948
2013    25      6       0.6832712       135.67
2013    25      7       0.8041611       150.4774
2013    26      0       0.583111        121.752
2013    26      1       0.4029745       93.0305
2013    26      2       0.3722708       87.21865
2013    26      3       0.4805953       105.7491
2013    26      4       0.4594307       102.953
2013    26      5       0.3667092       86.89512
2013    26      6       0.3923942       91.42821
2013    26      7       0.5070869       110.7592
2013    27      0       0.5159003       112.599
2013    27      1       0.4638516       104.5263
2013    27      2       0.4621551       104.3973
2013    27      3       0.4880733       108.3015
2013    27      4       0.4406375       100.173
2013    27      5       0.4242596       97.47837
2013    27      6       0.5292434       114.7736
2013    27      7       0.8207348       153.2666
2013    28      0       0.9372465       166.3146
2013    28      1       0.7949751       150.7959
2013    28      2       0.9904524       171.8862
2013    28      3       0.9711716       169.3451
2013    28      4       0.7892567       150.1179
2013    28      5       0.7494581       145.3709
2013    28      6       1.069335        180.0944
2013    28      7       1.017479        174.6912
2013    29      0       0.8321475       154.7839
2013    29      1       0.574919        121.1228
2013    29      2       0.4985532       109.2366
2013    29      3       0.473226        104.9976
2013    29      4       0.5305646       114.2203
2013    29      5       0.6513709       131.9988
2013    29      6       0.8920189       160.5489
2013    29      7       0.984287        170.6031
2013    30      0       1.036459        176.0056
2013    30      1       0.9652522       168.9026
2013    30      2       0.8072311       151.2242
2013    30      3       0.5306604       114.3269
2013    30      4       0.3893873       90.78016
2013    30      5       0.2643433       66.50157
2013    30      6       0.4299806       97.89222
2013    30      7       0.6027674       125.1848
2013    31      0       0.569963        120.6446
2013    31      1       0.5236772       113.6559
2013    31      2       0.6952559       137.4267
2013    31      3       0.461831        103.6596
2013    31      4       0.3369285       81.32594
2013    31      5       0.4007366       93.04121
2013    31      6       0.4549989       102.5664
2013    31      7       0.6345689       129.9289
2014    1       0       0.2122011       56.13941
2014    1       1       0.1680065       46.2021
2014    1       2       0.2084179       54.85969
2014    1       3       0.2108205       55.54689
2014    1       4       0.181254        49.16017
2014    1       5       0.1765684       48.03326
2014    1       6       0.1901921       51.12178
2014    1       7       0.229519        59.62713
2014    2       0       0.2901458       72.0668
2014    2       1       0.3641196       86.07445
2014    2       2       0.3755645       88.26597
2014    2       3       0.3093182       76.28725
2014    2       4       0.2462807       63.61854
2014    2       5       0.2020376       54.16816
2014    2       6       0.2325191       60.78044
2014    2       7       0.2769761       70.08828
2014    3       0       0.3222627       79.15926
2014    3       1       0.3196836       78.69793
2014    3       2       0.24483         63.30705
2014    3       3       0.2496366       64.07811
2014    3       4       0.2913237       72.23479
2014    3       5       0.3270816       79.02489
2014    3       6       0.3994318       92.67264
2014    3       7       0.5707089       120.4834
2014    4       0       0.7336788       142.816
2014    4       1       0.6275826       129.0611
2014    4       2       0.7298873       142.1997
2014    4       3       0.5129679       112.4067
2014    4       4       0.3945673       92.482
2014    4       5       0.4665066       104.7674
2014    4       6       0.6199919       127.9299
2014    4       7       0.8079115       152.5005
2014    5       0       0.5935856       124.6205
2014    5       1       0.4441592       100.5893
2014    5       2       0.3817833       89.52547
2014    5       3       0.3965996       92.70685
2014    5       4       0.3601328       86.43675
2014    5       5       0.3724288       88.55227
2014    5       6       0.5647268       119.9726
2014    5       7       0.7010054       139.3981
2014    6       0       0.6398871       131.3329
2014    6       1       0.6158702       127.667
2014    6       2       0.5568761       119.1365
2014    6       3       0.5003451       110.5712
2014    6       4       0.4603545       103.9036
2014    6       5       0.4500068       102.1155
2014    6       6       0.5480132       118.0408
2014    6       7       0.6189677       128.1494
2014    7       0       0.4860351       107.9816
2014    7       1       0.3456741       83.59647
2014    7       2       0.345902        83.66273
2014    7       3       0.381958        90.36528
2014    7       4       0.4059969       94.39564
2014    7       5       0.4000146       93.04227
2014    7       6       0.3607172       86.23761
2014    7       7       0.2949721       73.63204
2014    8       0       0.375639        89.2444
2014    8       1       0.581228        124.1627
2014    8       2       0.5352721       117.2178
2014    8       3       0.4501808       103.0111
2014    8       4       0.4088792       95.47656
2014    8       5       0.3955345       92.98579
2014    8       6       0.418227        97.17877
2014    8       7       0.4702019       106.0533
2014    9       0       0.5136784       113.1954
2014    9       1       0.4214601       98.06089
2014    9       2       0.357034        86.28804
2014    9       3       0.3456116       83.96501
2014    9       4       0.4127828       95.86897
2014    9       5       0.4057047       94.39108
2014    9       6       0.5010052       110.8021
2014    9       7       0.5449131       117.7789
2014    10      0       0.536831        116.4071
2014    10      1       0.5637631       120.2759
2014    10      2       0.5199677       113.974
2014    10      3       0.5086827       112.4231
2014    10      4       0.5225617       114.4024
2014    10      5       0.5367572       115.8271
2014    10      6       0.7658918       147.7402
2014    10      7       0.9638503       170.4693
2014    11      0       0.9005082       163.8288
2014    11      1       0.8285274       155.9056
2014    11      2       0.9989292       174.4482
2014    11      3       0.7299794       144.1327
2014    11      4       0.6943417       139.4099
2014    11      5       0.7744213       149.3469
2014    11      6       1.229868        194.9254
2014    11      7       1.322741        202.105
2014    12      0       0.9737529       171.6298
2014    12      1       0.8350515       157.2338
2014    12      2       0.7486462       147.2906
2014    12      3       0.6923872       140.0961
2014    12      4       0.6660702       136.1336
2014    12      5       0.6797811       137.6112
2014    12      6       1.222605        193.8483
2014    12      7       1.276561        198.0909
2014    13      0       1.123699        185.9158
2014    13      1       0.6902429       138.5793
2014    13      2       0.4897322       108.8897
2014    13      3       0.473526        105.7072
2014    13      4       0.4203832       96.5111
2014    13      5       0.4342914       99.12942
2014    13      6       0.6718045       135.5548
2014    13      7       0.8101899       153.1962
2014    14      0       0.9159682       165.7422
2014    14      1       0.6127913       128.2498
2014    14      2       0.4678105       105.5597
2014    14      3       0.4425433       100.9336
2014    14      4       0.5092849       111.7378
2014    14      5       0.5576949       118.7949
2014    14      6       0.6221828       128.0708
2014    14      7       0.6499999       132.0232
2014    15      0       0.612674        126.8638
2014    15      1       0.5357063       115.46
2014    15      2       0.4368859       99.54403
2014    15      3       0.4826807       107.0621
2014    15      4       0.4528385       102.8736
2014    15      5       0.5627709       120.3706
2014    15      6       0.6503927       132.8583
2014    15      7       0.6804462       137.0246
2014    16      0       0.8887124       162.6422
2014    16      1       0.9129528       165.9275
2014    16      2       0.5240857       114.8423
2014    16      3       0.3534004       85.11784
2014    16      4       0.3733857       87.9758
2014    16      5       0.4599494       102.6975
2014    16      6       0.7402043       142.9747
2014    16      7       0.9117119       163.1702
2014    17      0       1.03073         176.4972
2014    17      1       0.6791718       135.8551
2014    17      2       0.4885343       107.4158
2014    17      3       0.3748082       88.02126
2014    17      4       0.2845935       70.81816
2014    17      5       0.2324678       60.45248
2014    17      6       0.2708199       68.84612
2014    17      7       0.3396406       82.6244
2014    18      0       0.3835195       90.83598
2014    18      1       0.3876502       91.61625
2014    18      2       0.3383325       82.3267
2014    18      3       0.4498028       101.5848
2014    18      4       0.585601        123.5737
2014    18      5       0.5671668       120.3782
2014    18      6       0.6972686       138.3459
2014    18      7       0.6450777       132.1075
2014    19      0       0.5887761       124.4544
2014    19      1       0.5369429       116.7248
2014    19      2       0.4494736       102.6668
2014    19      3       0.4554291       103.8037
2014    19      4       0.325001        79.81245
2014    19      5       0.3330015       81.40851
2014    19      6       0.4156814       96.83188
2014    19      7       0.4687209       106.0338
2014    20      0       0.4736415       106.8328
2014    20      1       0.4008075       94.18209
2014    20      2       0.3408167       83.15649
2014    20      3       0.3873618       91.98891
2014    20      4       0.3791068       90.35506
2014    20      5       0.3777241       89.7884
2014    20      6       0.492625        109.8516
2014    20      7       0.6467703       133.1572
2014    21      0       0.7023338       141.1386
2014    21      1       0.6190735       129.4965
2014    21      2       0.641153        132.4528
2014    21      3       0.6060482       127.8283
2014    21      4       0.5618781       121.2496
2014    21      5       0.4276254       99.41375
2014    21      6       0.5103359       113.5854
2014    21      7       0.5780552       124.1784
2014    22      0       0.4717278       107.2279
2014    22      1       0.3827188       91.15144
2014    22      2       0.3697031       88.39118
2014    22      3       0.2952966       74.01441
2014    22      4       0.2595836       66.44923
2014    22      5       0.2434469       62.98596
2014    22      6       0.271329        68.89583
2014    22      7       0.3276177       80.08425
2014    23      0       0.3805007       90.07473
2014    23      1       0.4102776       95.80632
2014    23      2       0.3949969       93.67661
2014    23      3       0.3135978       78.4529
2014    23      4       0.3151609       78.01623
2014    23      5       0.2981166       74.61591
2014    23      6       0.3720523       89.10527
2014    23      7       0.5367105       116.4488
2014    24      0       0.6743579       136.3109
2014    24      1       0.593377        125.2106
2014    24      2       0.6443297       132.6043
2014    24      3       0.6487327       133.5368
2014    24      4       0.6541479       134.09
2014    24      5       0.6183571       129.2846
2014    24      6       0.8103553       154.7392
2014    24      7       1.028874        177.2447
2014    25      0       0.5644595       121.3913
2014    25      1       0.6044111       127.356
2014    25      2       0.8865819       162.158
2014    25      3       0.8883742       162.8776
2014    25      4       0.6103889       127.3397
2014    25      5       0.5707931       121.5902
2014    25      6       0.7062102       140.9841
2014    25      7       0.8317439       156.5128
2014    26      0       0.6372724       132.1815
2014    26      1       0.7342082       145.3534
2014    26      2       0.7020379       140.214
2014    26      3       0.4572432       102.6789
2014    26      4       0.4327355       97.86385
2014    26      5       0.4187609       95.86837
2014    26      6       0.5986562       125.3376
2014    26      7       0.7033142       139.6669
2014    27      0       0.6543728       133.0469
2014    27      1       0.4388333       98.46661
2014    27      2       0.4561352       101.3929
2014    27      3       0.3841361       89.55561
2014    27      4       0.3478318       83.18276
2014    27      5       0.3313999       80.27066
2014    27      6       0.4461245       101.1496
2014    27      7       0.6486195       132.1399
2014    28      0       0.8248985       155.3627
2014    28      1       0.679285        137.3844
2014    28      2       0.5944324       125.7318
2014    28      3       0.4580492       103.8945
2014    28      4       0.3102649       76.47935
2014    28      5       0.4183211       96.69484
2014    28      6       0.5333279       115.5471
2014    28      7       0.6786213       136.6349
2014    29      0       0.7452718       145.5782
2014    29      1       0.6341875       131.0019
2014    29      2       0.5935651       124.3854
2014    29      3       0.6409663       130.6845
2014    29      4       0.7157613       140.5907
2014    29      5       0.9612421       167.9755
2014    29      6       1.29346         197.3061
2014    29      7       1.219519        192.8884
2014    30      0       1.113749        183.698
2014    30      1       1.311127        200.1957
2014    30      2       1.155065        187.7428
2014    30      3       1.057098        178.0501
2014    30      4       1.242255        194.179
2014    30      5       1.135357        185.4874
2014    30      6       1.27589         196.8485
2014    30      7       1.375639        204.0158
2014    31      0       1.224725        193.0423
2014    31      1       0.96071         168.8312
2014    31      2       0.8037864       151.6533
2014    31      3       0.7657862       147.3384
2014    31      4       0.716701        141.1201
2014    31      5       0.5265051       113.5608
2014    31      6       0.5446359       116.6461
2014    31      7       0.4907697       108.0206
2015    1       0       1.360924        205.9772
2015    1       1       0.9364497       169.204
2015    1       2       0.65123         134.8226
2015    1       3       0.6649825       136.9373
2015    1       4       0.6754732       137.666
2015    1       5       0.6194904       129.4276
2015    1       6       0.843595        157.4695
2015    1       7       0.9228231       166.0806
2015    2       0       0.825786        155.8356
2015    2       1       0.6111914       128.5222
2015    2       2       0.5978386       126.725
2015    2       3       0.6357488       132.0574
2015    2       4       0.5650201       121.6031
2015    2       5       0.5484162       118.4467
2015    2       6       0.7074577       140.4208
2015    2       7       0.7847242       150.3692
2015    3       0       0.7157126       142.0229
2015    3       1       0.5812845       123.6487
2015    3       2       0.5928469       125.4962
2015    3       3       0.6282735       130.7397
2015    3       4       0.4578191       104.3844
2015    3       5       0.330767        81.03308
2015    3       6       0.3622812       87.35271
2015    3       7       0.4669155       105.8418
2015    4       0       0.5287408       115.7666
2015    4       1       0.5129293       113.3986
2015    4       2       0.5389664       117.3178
2015    4       3       0.5236579       114.8774
2015    4       4       0.5241449       115.2358
2015    4       5       0.650597        133.9052
2015    4       6       0.767941        148.8422
2015    4       7       0.8225565       155.6004
2015    5       0       1.028508        178.1254
2015    5       1       0.9055935       165.5158
2015    5       2       0.7257715       144.3272
2015    5       3       0.6815852       138.6222
2015    5       4       0.7115332       142.1231
2015    5       5       0.7148499       141.6264
2015    5       6       1.118762        183.9298
2015    5       7       1.360131        204.3428
2015    6       0       1.104003        183.1947
2015    6       1       1.239456        195.3358
2015    6       2       0.7503332       146.5216
2015    6       3       0.5174606       113.4415
2015    6       4       0.5002112       110.2765
2015    6       5       0.5744901       121.5651
2015    6       6       0.8847024       161.4536
2015    6       7       1.068296        178.9498
2015    7       0       1.061955        179.2919
2015    7       1       0.5820001       122.3238
2015    7       2       0.464776        103.8012
2015    7       3       0.5736266       120.2366
2015    7       4       0.5696955       119.3532
2015    7       5       0.703624        138.0503
2015    7       6       0.9998246       172.0152
2015    7       7       1.04212         176.1863
2015    8       0       0.988331        170.1099
2015    8       1       0.6729766       133.4074
2015    8       2       0.6855793       135.2825
2015    8       3       0.8333689       153.435
2015    8       4       0.9392087       165.1892
2015    8       5       1.04476         175.5757
2015    8       6       1.06201         176.5984
2015    8       7       1.066348        177.2075
2015    9       0       0.9885703       170.4301
2015    9       1       0.8162389       152.3563
2015    9       2       0.7029701       138.0517
2015    9       3       0.6452178       130.421
2015    9       4       0.6707497       133.4178
2015    9       5       0.6164416       126.2856
2015    9       6       0.8976376       160.6909
2015    9       7       0.9068306       161.572
2015    10      0       0.8484011       155.1542
2015    10      1       0.6471989       130.4828
2015    10      2       0.569684        119.6052
2015    10      3       0.5758653       119.4504
2015    10      4       0.4116316       94.25694
2015    10      5       0.3493305       83.43629
2015    10      6       0.6141479       127.0147
2015    10      7       0.6531527       132.241
2015    11      0       0.5362532       115.3151
2015    11      1       0.4825073       106.9051
2015    11      2       0.4276284       97.64013
2015    11      3       0.3825889       89.44169
2015    11      4       0.3067803       75.12159
2015    11      5       0.2721986       68.28613
2015    11      6       0.3912467       90.7944
2015    11      7       0.6279208       128.1348
2015    12      0       0.55854         118.7849
2015    12      1       0.4826876       107.163
2015    12      2       0.4736156       105.9756
2015    12      3       0.5934306       124.9019
2015    12      4       0.5692876       120.9089
2015    12      5       0.4669389       104.4722
2015    12      6       0.4716427       104.9507
2015    12      7       0.4718862       105.5147
2015    13      0       0.4794938       106.7554
2015    13      1       0.4058381       94.06514
2015    13      2       0.4193624       96.54205
2015    13      3       0.475461        105.7988
2015    13      4       0.6459604       130.4513
2015    13      5       0.5746675       120.7387
2015    13      6       0.7904843       150.264
2015    13      7       0.8330705       155.7322
2015    14      0       0.7138421       141.1493
2015    14      1       0.6053976       126.2666
2015    14      2       0.5581188       119.0474
2015    14      3       0.5325844       115.1154
2015    14      4       0.5218542       113.4978
2015    14      5       0.525219        114.14
2015    14      6       0.6747008       135.1902
2015    14      7       0.8742798       159.6025
2015    15      0       0.9420561       167.5535
2015    15      1       0.7552536       145.6426
2015    15      2       0.7123492       140.4344
2015    15      3       0.6287903       129.3267
2015    15      4       0.6746832       135.5059
2015    15      5       0.6625956       133.8169
2015    15      6       1.007189        174.3663
2015    15      7       0.9034878       163.7018
2015    16      0       0.6831226       136.6857
2015    16      1       0.6866812       137.4772
2015    16      2       0.7002924       138.7574
2015    16      3       0.500866        110.8267
2015    16      4       0.4757142       106.6864
2015    16      5       0.4330632       99.32843
2015    16      6       0.6247182       128.8692
2015    16      7       0.672814        135.5242
2015    17      0       0.5429468       117.2433
2015    17      1       0.4848235       107.5248
2015    17      2       0.5176269       112.7879
2015    17      3       0.4899791       108.6515
2015    17      4       0.4035589       93.97413
2015    17      5       0.3630994       86.48301
2015    17      6       0.4201721       96.5484
2015    17      7       0.406837        94.07229
2015    18      0       0.4591591       102.6124
2015    18      1       0.4240818       96.69418
2015    18      2       0.3894934       90.99693
2015    18      3       0.458987        102.5967
2015    18      4       0.4025657       93.37055
2015    18      5       0.347524        83.53431
2015    18      6       0.4830912       106.8686
2015    18      7       0.7651276       146.2178
2015    19      0       1.058088        178.0209
2015    19      1       0.9720328       170.3317
2015    19      2       0.6818725       136.5859
2015    19      3       0.6099122       126.3211
2015    19      4       0.6739044       134.8475
2015    19      5       0.8348892       154.742
2015    19      6       1.31742         199.4284
2015    19      7       1.179081        189.3087
2015    20      0       0.5438146       116.6604
2015    20      1       0.2775652       69.46395
2015    20      2       0.3133225       76.64164
2015    20      3       0.3367164       81.19064
2015    20      4       0.3356664       80.79899
2015    20      5       0.3538457       84.04755
2015    20      6       0.4362301       98.75206
2015    20      7       0.6903369       136.7056
2015    21      0       0.9197212       164.4798
2015    21      1       0.9483647       167.9373
2015    21      2       0.723031        141.8295
2015    21      3       0.7357868       143.2883
2015    21      4       0.897375        162.1768
2015    21      5       0.9589475       168.6989
2015    21      6       1.086849        181.3177
2015    21      7       0.9711077       168.7061
2015    22      0       1.022845        173.346
2015    22      1       0.6096534       125.2785
2015    22      2       0.475999        105.4603
2015    22      3       0.4431552       100.2759
2015    22      4       0.417211        95.8617
2015    22      5       0.408863        94.28749
2015    22      6       0.7034471       138.2112
2015    22      7       0.9722857       169.0
2015    23      0       0.7552402       145.2586
2015    23      1       0.5088846       111.8242
2015    23      2       0.5011959       110.5073
2015    23      3       0.5478154       117.8676
2015    23      4       0.4591167       103.7847
2015    23      5       0.5349673       115.8626
2015    23      6       0.4300371       99.0643
2015    23      7       0.3715805       88.82441
2015    24      0       0.3687791       88.34929
2015    24      1       0.3415183       83.18976
2015    24      2       0.2650815       68.02825
2015    24      3       0.2449545       63.67069
2015    24      4       0.249417        64.37924
2015    24      5       0.3089241       76.17647
2015    24      6       0.3714678       88.10846
2015    24      7       0.3725432       88.58626
2015    25      0       0.3487284       84.1997
2015    25      1       0.3372463       81.74868
2015    25      2       0.3275236       80.54312
2015    25      3       0.3169944       78.72996
2015    25      4       0.3208319       79.29443
2015    25      5       0.3295431       80.84448
2015    25      6       0.390982        92.3119
2015    25      7       0.4539106       103.2616
2015    26      0       0.4863104       108.6712
2015    26      1       0.4706643       106.0654
2015    26      2       0.4214923       97.60741
2015    26      3       0.3646252       87.45132
2015    26      4       0.2886924       72.77536
2015    26      5       0.2725736       69.28677
2015    26      6       0.3607404       86.07658
2015    26      7       0.4487773       101.4785
2015    27      0       0.5297998       114.4832
2015    27      1       0.5001922       109.6392
2015    27      2       0.4777515       106.4522
2015    27      3       0.4489911       102.0964
2015    27      4       0.432555        99.80772
2015    27      5       0.4441054       101.647
2015    27      6       0.5089341       112.034
2015    27      7       0.5531504       119.223
2015    28      0       0.4415554       101.2258
2015    28      1       0.3176133       78.25164
2015    28      2       0.2891384       72.84661
2015    28      3       0.2534091       65.46096
2015    28      4       0.2100384       55.93294
2015    28      5       0.175729        48.02784
2015    28      6       0.1870771       50.50385
2015    28      7       0.220788        57.92335
2015    29      0       0.2399358       61.96407
2015    29      1       0.2789593       69.89777
2015    29      2       0.3531716       84.33088
2015    29      3       0.2758583       69.64392
2015    29      4       0.2078053       55.07643
2015    29      5       0.1818996       49.31982
2015    29      6       0.1842177       50.04797
2015    29      7       0.1947121       52.34892
2015    30      0       0.2128437       56.33836
2015    30      1       0.2292364       59.907
2015    30      2       0.2212503       58.28404
2015    30      3       0.1713023       47.17634
2015    30      4       0.1392672       39.70839
2015    30      5       0.126199        36.67622
2015    30      6       0.16287         45.20595
2015    30      7       0.2093907       55.54258
2015    31      0       0.2457065       63.15481
2015    31      1       0.2516704       64.34888
2015    31      2       0.3047947       75.5567
2015    31      3       0.3124757       77.2563
2015    31      4       0.2847361       71.78773
2015    31      5       0.3965438       92.98154
2015    31      6       0.6170291       128.5743
2015    31      7       0.6746399       136.664
2016    1       0       1.183461        189.5705
2016    1       1       0.9259012       165.179
2016    1       2       0.8242762       154.824
2016    1       3       0.7424403       144.6189
2016    1       4       0.6190836       127.6061
2016    1       5       0.6184015       126.6826
2016    1       6       0.980601        170.3474
2016    1       7       1.13205         184.711
2016    2       0       1.130208        184.5102
2016    2       1       0.884099        160.3955
2016    2       2       0.6553775       132.1922
2016    2       3       0.5974329       123.6454
2016    2       4       0.6006141       124.2237
2016    2       5       0.7363238       142.4767
2016    2       6       0.9459547       165.9332
2016    2       7       1.150723        185.2799
2016    3       0       0.7973038       149.8697
2016    3       1       0.4890105       107.6938
2016    3       2       0.3983029       92.42717
2016    3       3       0.4540352       101.797
2016    3       4       0.3729603       87.40397
2016    3       5       0.2564282       64.65553
2016    3       6       0.4472211       100.3276
2016    3       7       0.6656445       132.7193
2016    4       0       0.7080678       138.4311
2016    4       1       0.5736693       120.6242
2016    4       2       0.4831135       107.1804
2016    4       3       0.5292048       114.519
2016    4       4       0.5154499       112.1948
2016    4       5       0.521186        112.81
2016    4       6       0.5543677       118.3241
2016    4       7       0.7220242       141.6685
2016    5       0       0.6092699       126.4035
2016    5       1       0.5142814       112.7398
2016    5       2       0.7941582       150.3242
2016    5       3       0.7103985       140.803
2016    5       4       0.5899986       123.8785
2016    5       5       0.5146741       111.6123
2016    5       6       0.6098194       126.4136
2016    5       7       0.7187999       141.9996
2016    6       0       0.7572548       147.0671
2016    6       1       0.6073108       126.7829
2016    6       2       0.5338753       115.2664
2016    6       3       0.5788044       121.6968
2016    6       4       0.3446904       83.10969
2016    6       5       0.2919891       72.93888
2016    6       6       0.3184572       78.13474
2016    6       7       0.3352755       81.08077
2016    7       0       0.3220743       78.43271
2016    7       1       0.3514287       83.56459
2016    7       2       0.3701325       87.47808
2016    7       3       0.3633997       86.07383
2016    7       4       0.3992611       92.12559
2016    7       5       0.4733322       104.7178
2016    7       6       0.4506305       101.1654
2016    7       7       0.461496        103.0885
2016    8       0       0.527777        113.8968
2016    8       1       0.5506395       117.4054
2016    8       2       0.5452074       116.4356
2016    8       3       0.5078924       110.678
2016    8       4       0.4336916       98.44881
2016    8       5       0.3977821       92.247
2016    8       6       0.4496466       101.3101
2016    8       7       0.5450866       116.4714
2016    9       0       0.4618787       103.3871
2016    9       1       0.4147217       95.52175
2016    9       2       0.3867621       90.54886
2016    9       3       0.4141552       95.67972
2016    9       4       0.4137911       95.74419
2016    9       5       0.412651        95.46694
2016    9       6       0.4268441       98.47044
2016    9       7       0.418407        97.24541
2016    10      0       0.3871989       91.57538
2016    10      1       0.3403395       82.69263
2016    10      2       0.3877286       91.681
2016    10      3       0.4854885       108.9351
2016    10      4       0.4270571       98.85049
2016    10      5       0.4365227       100.1387
2016    10      6       0.3844962       91.44571
2016    10      7       0.3891269       92.36052
2016    11      0       0.4358549       100.5543
2016    11      1       0.3669764       88.12578
2016    11      2       0.3686017       88.35122
2016    11      3       0.4516211       103.4396
2016    11      4       0.3621136       87.06888
2016    11      5       0.204812        54.49973
2016    11      6       0.2186658       57.13138
2016    11      7       0.168823        46.33338
2016    12      0       0.1289232       37.03933
2016    12      1       0.1177992       34.16198
2016    12      2       0.1673893       45.23419
2016    12      3       0.2115525       54.9635
2016    12      4       0.2252982       57.83766
2016    12      5       0.2077556       54.29187
2016    12      6       0.2142631       55.94154
2016    12      7       0.2479144       63.20819
2016    13      0       0.293152        72.37907
2016    13      1       0.3282381       78.69662
2016    13      2       0.3391167       80.9942
2016    13      3       0.3158044       76.58156
2016    13      4       0.2720705       68.31383
2016    13      5       0.2618246       66.32603
2016    13      6       0.2943631       72.89511
2016    13      7       0.2922549       72.546
2016    14      0       0.290878        72.13887
2016    14      1       0.3053929       74.80625
2016    14      2       0.3307688       79.37602
2016    14      3       0.3277083       78.70081
2016    14      4       0.2301479       59.45923
2016    14      5       0.1755365       47.9861
2016    14      6       0.2332486       60.45966
2016    14      7       0.276932        69.53725
2016    15      0       0.3177768       77.82456
2016    15      1       0.475847        105.2183
2016    15      2       0.4420588       100.0531
2016    15      3       0.2883461       72.03492
2016    15      4       0.1647889       45.81577
2016    15      5       0.2080258       55.00633
2016    15      6       0.4163599       94.94506
2016    15      7       0.50987         110.545
2016    16      0       0.4260959       97.70417
2016    16      1       0.6297999       128.1994
2016    16      2       0.5862037       121.7745
2016    16      3       0.5238203       112.5907
2016    16      4       0.4928279       107.9247
2016    16      5       0.4359994       98.7093
2016    16      6       0.4567937       102.3896
2016    16      7       0.4993121       108.7546
2016    17      0       0.4223397       95.87641
2016    17      1       0.3837495       89.22742
2016    17      2       0.4784684       105.6848
2016    17      3       0.6589313       132.1541
2016    17      4       0.5888114       122.7119
2016    17      5       0.4877596       107.7538
2016    17      6       0.5133388       111.8539
2016    17      7       0.5017611       109.8467
2016    18      0       0.4036058       93.44833
2016    18      1       0.3673384       87.03167
2016    18      2       0.5906421       123.9729
2016    18      3       0.5495063       118.5146
2016    18      4       0.3847262       90.78134
2016    18      5       0.350313        83.94537
2016    18      6       0.5974072       123.5263
2016    18      7       0.858306        157.5018
2016    19      0       0.7788809       149.8576
2016    19      1       0.6140106       128.1656
2016    19      2       0.5679732       120.8422
2016    19      3       0.5580555       119.6491
2016    19      4       0.6002485       125.1365
2016    19      5       0.638006        130.9351
2016    19      6       0.9158337       165.1383
2016    19      7       0.9219727       165.4912
2016    20      0       0.6436153       131.8379
2016    20      1       0.3988082       92.66286
2016    20      2       0.371974        88.05864
2016    20      3       0.5432268       117.5873
2016    20      4       0.6115008       127.9985
2016    20      5       0.6993373       139.8881
2016    20      6       1.018572        175.3416
2016    20      7       1.305637        200.0054
2016    21      0       1.031282        176.7942
2016    21      1       0.7258122       142.6236
2016    21      2       0.636015        130.7175
2016    21      3       0.5797096       123.1872
2016    21      4       0.5919831       124.8127
2016    21      5       0.5497153       117.8013
2016    21      6       0.5361985       115.4954
2016    21      7       0.6662035       133.3984
2016    22      0       0.7232086       141.2035
2016    22      1       0.7335051       142.5286
2016    22      2       0.7232964       142.4857
2016    22      3       0.7204758       142.847
2016    22      4       0.6814985       137.5504
2016    22      5       0.6175787       128.8849
2016    22      6       0.8144564       154.2498
2016    22      7       1.023492        176.3339
2016    23      0       0.7027664       140.6898
2016    23      1       0.5610699       120.9221
2016    23      2       0.5905081       124.2531
2016    23      3       0.5507028       118.4039
2016    23      4       0.4418636       100.713
2016    23      5       0.375856        88.83144
2016    23      6       0.4642381       104.889
2016    23      7       0.5226852       114.6027
2016    24      0       0.6422135       132.5281
2016    24      1       0.7420148       145.6992
2016    24      2       0.6955087       139.1462
2016    24      3       0.6011499       125.3372
2016    24      4       0.4631745       103.0421
2016    24      5       0.2698035       68.11887
2016    24      6       0.3238569       78.79107
2016    24      7       0.3841733       89.93743
2016    25      0       0.3594823       85.91743
2016    25      1       0.3364195       81.68162
2016    25      2       0.2969861       74.09372
2016    25      3       0.2835699       71.32504
2016    25      4       0.2165968       57.22083
2016    25      5       0.1750559       48.01346
2016    25      6       0.2172492       57.52184
2016    25      7       0.2704531       68.24979
2016    26      0       0.3815863       89.63035
2016    26      1       0.4857473       107.1208
2016    26      2       0.4598554       102.9378
2016    26      3       0.4139571       95.31815
2016    26      4       0.3502492       84.19556
2016    26      5       0.3264408       79.93484
2016    26      6       0.4480228       101.9785
2016    26      7       0.6335635       129.7291
2016    27      0       0.6410118       130.856
2016    27      1       0.4882293       108.3471
2016    27      2       0.4986163       109.6332
2016    27      3       0.4420586       100.3704
2016    27      4       0.3453164       83.36254
2016    27      5       0.2976162       73.94384
2016    27      6       0.3394359       82.25863
2016    27      7       0.4007118       93.69074
2016    28      0       0.3541846       85.03617
2016    28      1       0.3288575       80.53668
2016    28      2       0.3366579       82.57912
2016    28      3       0.2444115       63.61083
2016    28      4       0.2099558       55.84536
2016    28      5       0.3667792       87.7375
2016    28      6       0.4099514       95.72048
2016    28      7       0.4546289       103.4876
2016    29      0       0.4479581       101.9035
2016    29      1       0.4523835       102.5916
2016    29      2       0.423258        98.20599
2016    29      3       0.4930942       110.1124
2016    29      4       0.4650346       105.3509
2016    29      5       0.3475952       84.16485
2016    29      6       0.4769805       106.8129
2016    29      7       0.562209        120.123
2016    30      0       0.6208378       128.5326
2016    30      1       0.488272        109.0604
2016    30      2       0.3607476       87.11314
2016    30      3       0.3573221       86.25867
2016    30      4       0.4712289       106.8826
2016    30      5       0.335417        82.53665
2016    30      6       0.425192        98.71495
2016    30      7       0.5534599       119.5197
2016    31      0       0.5381024       117.3944
2016    31      1       0.5543362       119.954
2016    31      2       0.6611663       135.5327
2016    31      3       0.6492886       133.8717
2016    31      4       0.7166262       142.6002
2016    31      5       0.6305215       130.7437
2016    31      6       0.7560438       147.1334
2016    31      7       0.8334993       155.9939
2017    1       0       0.3651889       86.00346
2017    1       1       0.316469        76.78542
2017    1       2       0.2959198       72.92292
2017    1       3       0.2182876       56.99348
2017    1       4       0.1813447       48.66804
2017    1       5       0.2096789       54.76434
2017    1       6       0.2249622       58.22748
2017    1       7       0.2558699       64.90316
2017    2       0       0.2635718       66.68197
2017    2       1       0.2592222       65.72345
2017    2       2       0.2994574       73.63091
2017    2       3       0.300526        74.0695
2017    2       4       0.2521796       64.45114
2017    2       5       0.2594349       65.67974
2017    2       6       0.4130409       94.08416
2017    2       7       0.5582721       117.5038
2017    3       0       0.6305783       129.0086
2017    3       1       0.8210312       153.4905
2017    3       2       0.4386529       99.18938
2017    3       3       0.4098275       94.44946
2017    3       4       0.4364936       98.94292
2017    3       5       0.5096139       111.0202
2017    3       6       0.5532369       117.6686
2017    3       7       0.6250353       128.2919
2017    4       0       0.5912887       123.8099
2017    4       1       0.5398037       115.9372
2017    4       2       0.4811544       107.1378
2017    4       3       0.445375        101.3889
2017    4       4       0.4080161       94.70743
2017    4       5       0.4309134       98.44905
2017    4       6       0.4899083       108.1713
2017    4       7       0.610022        126.3639
2017    5       0       0.5902085       123.9605
2017    5       1       0.4611503       104.3047
2017    5       2       0.4310325       99.38581
2017    5       3       0.4253584       98.42269
2017    5       4       0.3934225       92.82452
2017    5       5       0.359382        86.60019
2017    5       6       0.3738829       89.28039
2017    5       7       0.386477        91.28112
2017    6       0       0.353412        84.91422
2017    6       1       0.3202287       78.83722
2017    6       2       0.4008258       94.05813
2017    6       3       0.4857512       108.5208
2017    6       4       0.4816088       108.1499
2017    6       5       0.4781          107.6918
2017    6       6       0.6241632       129.8017
2017    6       7       0.858205        159.0487
2017    7       0       0.4576207       104.0084
2017    7       1       0.3793815       90.03523
2017    7       2       0.4042255       94.05474
2017    7       3       0.4535952       102.1781
2017    7       4       0.4238144       97.10484
2017    7       5       0.4101076       94.92493
2017    7       6       0.5393909       116.2992
2017    7       7       0.6484869       132.5064
2017    8       0       0.6327492       130.446
2017    8       1       0.6154814       127.9108
2017    8       2       0.598721        125.663
2017    8       3       0.5232936       114.6478
2017    8       4       0.5712536       121.1805
2017    8       5       0.7036496       138.9743
2017    8       6       0.7684171       147.1807
2017    8       7       0.7084309       140.5374
2017    9       0       0.5615725       120.6878
2017    9       1       0.4411303       101.5961
2017    9       2       0.4003372       94.56119
2017    9       3       0.3443517       84.20646
2017    9       4       0.311172        77.25475
2017    9       5       0.4236455       97.87337
2017    9       6       0.5182971       113.3109
2017    9       7       0.6657527       134.8701
2017    10      0       0.7495902       145.9178
2017    10      1       0.6638738       135.0499
2017    10      2       0.5872017       124.4593
2017    10      3       0.5957402       125.5362
2017    10      4       0.6250844       129.8284
2017    10      5       0.7494906       146.1798
2017    10      6       0.9620516       170.0544
2017    10      7       0.6325277       130.7475
2017    11      0       0.6931677       139.5028
2017    11      1       0.8525861       158.9079
2017    11      2       0.8804582       161.6629
2017    11      3       0.6941239       139.0016
2017    11      4       0.4558213       102.519
2017    11      5       0.3424463       82.21036
2017    11      6       0.4736687       105.5557
2017    11      7       0.7519077       144.673
2017    12      0       0.7572948       145.6142
2017    12      1       0.6933346       137.4055
2017    12      2       0.7265379       141.5547
2017    12      3       0.7916896       150.1413
2017    12      4       0.708989        139.961
2017    12      5       0.8214969       153.5185
2017    12      6       1.020209        174.6484
2017    12      7       1.120731        184.3444
2017    13      0       0.8459161       156.518
2017    13      1       0.6165627       127.6894
2017    13      2       0.5199424       113.3639
2017    13      3       0.3826725       89.92024
2017    13      4       0.2736163       68.93627
2017    13      5       0.3136056       77.18978
2017    13      6       0.4741682       106.1384
2017    13      7       0.6796319       137.2727
2017    14      0       0.7906736       151.2951
2017    14      1       0.5343687       116.6171
2017    14      2       0.3652179       87.74745
2017    14      3       0.2045993       54.60377
2017    14      4       0.1606747       44.45788
2017    14      5       0.1588458       43.85386
2017    14      6       0.2491974       63.46103
2017    14      7       0.3542749       84.28104
2017    15      0       0.3682298       87.25592
2017    15      1       0.251348        63.59361
2017    15      2       0.1578423       43.09235
2017    15      3       0.1339835       38.00621
2017    15      4       0.1184411       34.0419
2017    15      5       0.1241196       35.61973
2017    15      6       0.2238731       58.74458
2017    15      7       0.2977088       74.45676
2017    16      0       0.3700504       88.72283
2017    16      1       0.3040599       76.18679
2017    16      2       0.2284385       60.14018
2017    16      3       0.3580399       86.42119
2017    16      4       0.3372781       82.56496
2017    16      5       0.3280425       80.61432
2017    16      6       0.4955457       110.4969
2017    16      7       0.7122104       142.1344
2017    17      0       0.7472273       146.1749
2017    17      1       0.4974387       110.978
2017    17      2       0.4868605       109.2275
2017    17      3       0.6032462       127.2632
2017    17      4       0.6678898       136.4749
2017    17      5       0.6335598       131.0587
2017    17      6       0.6525309       133.4498
2017    17      7       0.7007734       140.2139
2017    18      0       0.6232576       129.7353
2017    18      1       0.7031689       140.3856
2017    18      2       0.6131697       128.4664
2017    18      3       0.7715341       148.9813
2017    18      4       0.752486        147.0901
2017    18      5       0.640238        131.7356
2017    18      6       0.6625885       134.7358
2017    18      7       0.7502235       146.2217
2017    19      0       0.7465777       146.5476
2017    19      1       0.6189942       129.7552
2017    19      2       0.6059157       128.0542
2017    19      3       0.5155382       114.5772
2017    19      4       0.4368394       101.3548
2017    19      5       0.4033856       95.25724
2017    19      6       0.7665767       149.5326
2017    19      7       1.188014        192.838
2017    20      0       0.8072715       153.7435
2017    20      1       0.6846604       137.0836
2017    20      2       0.6530318       133.4595
2017    20      3       0.697399        139.8054
2017    20      4       0.6184869       128.9329
2017    20      5       0.6275864       130.6411
2017    20      6       0.7168971       143.4429
2017    20      7       1.085012        183.4209
2017    21      0       0.6977799       141.4841
2017    21      1       0.6759847       138.8511
2017    21      2       0.7860148       151.7807
2017    21      3       0.7508622       147.7546
2017    21      4       0.7923967       152.4042
2017    21      5       0.8183914       154.3702
2017    21      6       0.9078225       164.756
2017    21      7       1.274249        198.7712
2017    22      0       1.30324         201.1924
2017    22      1       0.7555659       147.6492
2017    22      2       0.6297677       131.247
2017    22      3       0.5499635       119.5088
2017    22      4       0.4186048       97.82383
2017    22      5       0.3467425       84.39944
2017    22      6       0.4044756       95.2418
2017    22      7       0.5091066       113.135
2017    23      0       0.4678436       106.3192
2017    23      1       0.3964188       93.96545
2017    23      2       0.4062255       95.90978
2017    23      3       0.4214306       98.47269
2017    23      4       0.3893351       92.42447
2017    23      5       0.3984987       93.91056
2017    23      6       0.4402454       101.2642
2017    23      7       0.6061954       127.1174
2017    24      0       0.7724983       149.9425
2017    24      1       0.7469244       146.87
2017    24      2       0.6149377       129.217
2017    24      3       0.5021075       111.3412
2017    24      4       0.4945615       109.1812
2017    24      5       0.5335839       115.5908
2017    24      6       0.5554387       119.0937
2017    24      7       0.7441594       145.1346
2017    25      0       1.006569        174.3518
2017    25      1       0.7344564       145.3343
2017    25      2       0.6396595       132.7284
2017    25      3       0.6420598       132.7709
2017    25      4       0.7677582       148.8982
2017    25      5       0.8880804       162.3161
2017    25      6       1.396458        206.8194
2017    25      7       1.63108         221.8855
2017    26      0       1.579393        218.7442
2017    26      1       1.415666        208.8263
2017    26      2       1.274971        199.0527
2017    26      3       1.253316        197.5461
2017    26      4       1.36056         205.4473
2017    26      5       1.342204        204.413
2017    26      6       1.546308        217.9214
2017    26      7       1.666906        224.6479
2017    27      0       1.587774        220.0861
2017    27      1       1.291837        199.9998
2017    27      2       1.021373        177.6527
2017    27      3       0.8846383       163.6033
2017    27      4       0.7353465       145.739
2017    27      5       0.6006379       126.823
2017    27      6       0.9425804       168.6491
2017    27      7       1.115226        185.0851
2017    28      0       0.9191414       166.344
2017    28      1       0.6487781       133.7357
2017    28      2       0.5873434       125.0694
2017    28      3       0.5783721       123.8725
2017    28      4       0.6244045       130.0416
2017    28      5       0.5619445       120.3413
2017    28      6       0.511893        112.4603
2017    28      7       0.5431191       116.9495
2017    29      0       0.5934343       123.715
2017    29      1       0.6662388       134.3493
2017    29      2       0.6802593       136.8234
2017    29      3       0.7954574       151.8028
2017    29      4       0.9015855       163.5191
2017    29      5       1.011179        173.579
2017    29      6       0.9073697       163.2435
2017    29      7       1.020969        174.8406
2017    30      0       1.006938        173.5059
2017    30      1       0.7153723       141.1534
2017    30      2       0.4718065       106.1112
2017    30      3       0.4509461       102.7531
2017    30      4       0.4577089       103.6186
2017    30      5       0.4930697       109.1531
2017    30      6       0.8710293       159.6677
2017    30      7       0.9790465       170.5798
2017    31      0       0.779405        148.8059
2017    31      1       0.5753925       121.9682
2017    31      2       0.4914889       108.9489
2017    31      3       0.5120905       112.4195
2017    31      4       0.5055459       111.0608
2017    31      5       0.481324        107.0695
2017    31      6       0.5467292       117.3349
2017    31      7       0.5660242       120.0565
2018    1       0       0.3769131       87.56262
2018    1       1       0.197662        52.50771
2018    1       2       0.1575208       43.39613
2018    1       3       0.1871018       49.80345
2018    1       4       0.1637159       44.70117
2018    1       5       0.152031        42.37706
2018    1       6       0.2253917       58.73854
2018    1       7       0.2689352       67.95666
2018    2       0       0.3165205       77.44543
2018    2       1       0.3134861       76.95766
2018    2       2       0.3290487       80.23394
2018    2       3       0.3274274       80.21582
2018    2       4       0.3056926       75.87258
2018    2       5       0.3060128       75.87747
2018    2       6       0.3291205       80.47632
2018    2       7       0.3478225       84.10567
2018    3       0       0.3330772       81.23723
2018    3       1       0.3513729       84.13721
2018    3       2       0.4542548       101.4351
2018    3       3       0.4109429       94.60248
2018    3       4       0.4027868       93.59268
2018    3       5       0.3992786       93.2567
2018    3       6       0.4011286       93.51978
2018    3       7       0.4328819       98.89051
2018    4       0       0.5004768       109.423
2018    4       1       0.5127118       110.7656
2018    4       2       0.4485711       100.6893
2018    4       3       0.3603375       85.33237
2018    4       4       0.277399        69.42975
2018    4       5       0.2573493       65.52266
2018    4       6       0.3046862       75.07206
2018    4       7       0.3661684       86.3452
2018    5       0       0.4445812       100.3339
2018    5       1       0.4591293       103.5293
2018    5       2       0.4086157       94.8067
2018    5       3       0.396113        91.93939
2018    5       4       0.3598023       85.49423
2018    5       5       0.3550587       85.08671
2018    5       6       0.5668495       121.217
2018    5       7       0.8602333       158.5637
2018    6       0       0.8237511       153.9654
2018    6       1       0.5413072       116.8179
2018    6       2       0.4037953       94.59867
2018    6       3       0.4165981       96.73025
2018    6       4       0.4267147       98.70923
2018    6       5       0.5278791       115.2637
2018    6       6       0.7538379       146.8273
2018    6       7       0.7933163       151.8618
2018    7       0       0.7066171       140.8709
2018    7       1       0.6332976       131.1478
2018    7       2       0.5470145       118.66
2018    7       3       0.4899868       109.6843
2018    7       4       0.480173        107.88
2018    7       5       0.5146172       113.3273
2018    7       6       0.6222452       129.6315
2018    7       7       0.7765929       150.1897
2018    8       0       0.8204954       155.9803
2018    8       1       0.7218491       144.1146
2018    8       2       0.7701674       149.8905
2018    8       3       0.6966828       140.6226
2018    8       4       0.6619146       135.5623
2018    8       5       0.6328374       131.1697
2018    8       6       0.6301542       130.5912
2018    8       7       0.6907637       138.7276
2018    9       0       0.7485374       146.1213
2018    9       1       0.6534137       134.4649
2018    9       2       0.6775746       138.6259
2018    9       3       0.5935533       126.2158
2018    9       4       0.4511477       103.2684
2018    9       5       0.3528573       85.38939
2018    9       6       0.3960021       93.34765
2018    9       7       0.4402918       101.1241
2018    10      0       0.4289195       98.98849
2018    10      1       0.3729819       88.89712
2018    10      2       0.3954729       92.98939
2018    10      3       0.3860408       91.23279
2018    10      4       0.4193859       97.16755
2018    10      5       0.4112051       96.14321
2018    10      6       0.5591748       121.3302
2018    10      7       0.7300027       144.92
2018    11      0       0.828202        156.5496
2018    11      1       0.6918761       139.3293
2018    11      2       0.5159475       114.1017
2018    11      3       0.4663953       106.098
2018    11      4       0.4500702       103.3888
2018    11      5       0.5506726       119.468
2018    11      6       0.9486397       169.6285
2018    11      7       1.155296        189.4761
2018    12      0       0.9181476       166.268
2018    12      1       0.5442442       118.1205
2018    12      2       0.4610023       104.3676
2018    12      3       0.4598928       104.0223
2018    12      4       0.5067727       111.4311
2018    12      5       0.7018336       139.0821
2018    12      6       1.221431        192.4579
2018    12      7       1.236517        194.29
2018    13      0       0.856959        159.1355
2018    13      1       0.4631501       105.499
2018    13      2       0.4668378       105.7315
2018    13      3       0.471216        106.3958
2018    13      4       0.4508212       102.9513
2018    13      5       0.5029022       111.1743
2018    13      6       0.6172971       128.5666
2018    13      7       0.7241475       143.4151
2018    14      0       0.8362029       157.4473
2018    14      1       0.6436895       133.5106
2018    14      2       0.5350593       117.588
2018    14      3       0.4413597       102.0737
2018    14      4       0.3374361       82.61441
2018    14      5       0.3508779       85.27783
2018    14      6       0.4146508       97.15832
2018    14      7       0.5882148       125.0457
2018    15      0       0.7628483       148.9109
2018    15      1       0.8517848       159.0615
2018    15      2       0.7000623       140.7028
2018    15      3       0.7757117       150.0366
2018    15      4       1.022603        176.3197
2018    15      5       1.279921        198.5076
2018    15      6       1.380185        206.2109
2018    15      7       1.447243        210.4571
2018    16      0       1.049633        180.1965
2018    16      1       0.4879884       110.0882
2018    16      2       0.2928389       74.0754
2018    16      3       0.2987385       74.55642
2018    16      4       0.4292054       98.59135
2018    16      5       0.4483099       101.8352
2018    16      6       0.5793884       122.8647
2018    16      7       0.9494599       169.3049
2018    17      0       0.876709        162.1927
2018    17      1       0.6757364       137.2981
2018    17      2       0.6565118       133.6876
2018    17      3       0.529299        116.3522
2018    17      4       0.5088952       113.1569
2018    17      5       0.5153388       113.2536
2018    17      6       0.7593721       146.9106
2018    17      7       0.7215742       142.3245
2018    18      0       0.6416664       132.9589
2018    18      1       0.7035057       141.2486
2018    18      2       0.5407046       118.0585
2018    18      3       0.443184        102.1659
2018    18      4       0.2630896       67.76415
2018    18      5       0.1863623       51.09829
2018    18      6       0.2657384       68.23528
2018    18      7       0.2602369       67.03317
2018    19      0       0.2253257       59.57548
2018    19      1       0.2100888       56.00906
2018    19      2       0.2297789       60.03764
2018    19      3       0.2379291       61.7961
2018    19      4       0.2653056       67.64253
2018    19      5       0.3244332       79.47973
2018    19      6       0.3495763       84.50816
2018    19      7       0.3541607       85.48929
2018    20      0       0.3574402       86.12944
2018    20      1       0.4322304       99.14482
2018    20      2       0.5902453       124.492
2018    20      3       0.5072438       112.1809
2018    20      4       0.2510431       64.57314
2018    20      5       0.2947253       73.8287
2018    20      6       0.42445         98.17905
2018    20      7       0.5814814       122.8646
2018    21      0       0.7892114       150.2279
2018    21      1       0.605246        126.9387
2018    21      2       0.6813408       137.5745
2018    21      3       0.6768573       137.3774
2018    21      4       0.7005743       140.1718
2018    21      5       0.7381332       145.3606
2018    21      6       1.012171        175.6785
2018    21      7       0.9660946       171.5254
2018    22      0       0.9240443       167.6008
2018    22      1       1.056153        181.2926
2018    22      2       0.9831652       173.3476
2018    22      3       0.6423654       132.9338
2018    22      4       0.6317027       131.4531
2018    22      5       0.7005843       140.8625
2018    22      6       1.063531        180.6352
2018    22      7       1.168965        190.7979
2018    23      0       1.190445        192.7417
2018    23      1       1.041348        179.2316
2018    23      2       1.074136        182.2937
2018    23      3       1.204134        193.8929
2018    23      4       0.9804691       173.8274
2018    23      5       0.9291512       168.5642
2018    23      6       1.138812        187.7612
2018    23      7       1.358112        205.2156
2018    24      0       1.06836         181.9506
2018    24      1       0.7592188       148.1306
2018    24      2       0.5532283       119.6199
2018    24      3       0.5330517       116.3867
2018    24      4       0.5772882       123.5345
2018    24      5       0.5837075       124.8585
2018    24      6       0.6698808       137.1167
2018    24      7       0.8169056       155.6211
2018    25      0       0.7998244       153.8279
2018    25      1       0.533871        117.2526
2018    25      2       0.4525526       103.5072
2018    25      3       0.4724192       106.1086
2018    25      4       0.4652419       105.1134
2018    25      5       0.645284        132.7118
2018    25      6       0.8866128       162.2674
2018    25      7       0.9955622       174.471
2018    26      0       0.8963867       164.593
2018    26      1       1.292968        201.0474
2018    26      2       0.7519035       148.4352
2018    26      3       0.7553368       148.3239
2018    26      4       0.8682388       160.2176
2018    26      5       0.647902        132.8006
2018    26      6       0.7295284       142.7022
2018    26      7       0.5808999       123.3454
2018    27      0       0.5612911       120.1226
2018    27      1       0.5807797       123.1654
2018    27      2       0.5076861       112.0151
2018    27      3       0.3954145       92.80975
2018    27      4       0.3983854       92.42891
2018    27      5       0.4640674       104.4152
2018    27      6       0.4383053       100.7051
2018    27      7       0.5732058       121.7641
2018    28      0       0.622043        128.4524
2018    28      1       0.5373149       116.8959
2018    28      2       0.4343458       100.4429
2018    28      3       0.451844        102.886
2018    28      4       0.5370209       116.1811
2018    28      5       0.4972579       110.0304
2018    28      6       0.6422471       132.1263
2018    28      7       0.6620045       135.1428
2018    29      0       0.8319001       155.8528
2018    29      1       0.7366107       144.6318
2018    29      2       0.5077512       112.5326
2018    29      3       0.4189667       97.27265
2018    29      4       0.4198252       97.23814
2018    29      5       0.4823444       107.6386
2018    29      6       0.5477582       118.5493
2018    29      7       0.5502455       118.7498
2018    30      0       0.6322017       130.5327
2018    30      1       0.6660658       135.1694
2018    30      2       0.567015        120.8467
2018    30      3       0.4558545       102.2346
2018    30      4       0.3668852       86.62881
2018    30      5       0.2205219       57.92198
2018    30      6       0.2331773       60.79578
2018    30      7       0.2699333       68.5586
2018    31      0       0.2762148       70.05654
2018    31      1       0.2492985       64.64426
2018    31      2       0.2003294       54.24053
2018    31      3       0.1422002       40.74998
2018    31      4       0.213858        56.45328
2018    31      5       0.2410033       62.11716
2018    31      6       0.2898677       72.29168
2018    31      7       0.3485077       83.50534
