####################################################################################################
# Month: 06Jun                                                                                     #
# Station: PAM                                                                                     #
# Frequency: 230 GHz                                                                               #
# Columns are: year    day     segment         tau     Tb (K)                                      #
####################################################################################################
2009    1       0       0.2268998       56.22403
2009    1       1       0.2685564       64.47614
2009    1       2       0.2185887       54.86463
2009    1       3       0.1922714       49.51775
2009    1       4       0.2825251       66.87261
2009    1       5       0.2063298       52.44183
2009    1       6       0.2153349       54.20475
2009    1       7       0.2015735       51.36565
2009    2       0       0.1183443       33.57758
2009    2       1       0.2463505       60.24556
2009    2       2       0.2196384       54.64559
2009    2       3       0.1866858       47.96082
2009    2       4       0.2111887       53.03076
2009    2       5       0.1711031       44.80777
2009    2       6       0.08578702      25.82206
2009    2       7       0.05907453      19.4411
2009    3       0       0.05766375      18.97757
2009    3       1       0.08819646      26.21867
2009    3       2       0.1473014       39.24486
2009    3       3       0.1833662       47.0006
2009    3       4       0.1795272       46.31027
2009    3       5       0.1447748       38.95783
2009    3       6       0.121476        33.8175
2009    3       7       0.1485844       39.57182
2009    4       0       0.1891994       48.11454
2009    4       1       0.2564101       61.62596
2009    4       2       0.3191722       73.83648
2009    4       3       0.2696738       64.85874
2009    4       4       0.25305         61.75262
2009    4       5       0.3515935       80.03532
2009    4       6       0.3522026       80.38703
2009    4       7       0.2657378       64.28003
2009    5       0       0.2044563       51.87375
2009    5       1       0.2005049       51.14223
2009    5       2       0.2463515       59.78604
2009    5       3       0.2698998       64.46415
2009    5       4       0.2457003       59.82611
2009    5       5       0.1815701       46.84954
2009    5       6       0.1252821       34.8544
2009    5       7       0.19626         49.87635
2009    6       0       0.2852134       66.97079
2009    6       1       0.2396316       57.97994
2009    6       2       0.2457092       59.38429
2009    6       3       0.2607866       62.47587
2009    6       4       0.2704905       64.56009
2009    6       5       0.2630037       63.02594
2009    6       6       0.1881209       48.01934
2009    6       7       0.1445656       38.77405
2009    7       0       0.1606402       42.08332
2009    7       1       0.2512832       60.31735
2009    7       2       0.1789491       45.88798
2009    7       3       0.1813596       46.28698
2009    7       4       0.2102335       52.39103
2009    7       5       0.3037445       70.43862
2009    7       6       0.3151093       72.54524
2009    7       7       0.2938362       68.68194
2009    8       0       0.2403877       58.58024
2009    8       1       0.3093159       71.53259
2009    8       2       0.2312776       56.68466
2009    8       3       0.2300105       56.54765
2009    8       4       0.2611821       62.75761
2009    8       5       0.2489106       60.38777
2009    8       6       0.2170096       54.10309
2009    8       7       0.1799397       46.55619
2009    9       0       0.1570787       41.74757
2009    9       1       0.2173508       54.0812
2009    9       2       0.2546119       61.36541
2009    9       3       0.2116562       52.96108
2009    9       4       0.2319329       57.19624
2009    9       5       0.3053721       71.37091
2009    9       6       0.3089918       72.14698
2009    9       7       0.2555234       62.04742
2009    10      0       0.2451509       59.89054
2009    10      1       0.3241494       74.79103
2009    10      2       0.2601196       62.5816
2009    10      3       0.2325277       57.25734
2009    10      4       0.2596482       62.6648
2009    10      5       0.2784712       66.37542
2009    10      6       0.2194104       54.83997
2009    10      7       0.1734397       45.28096
2009    11      0       0.1732995       45.10774
2009    11      1       0.2981007       69.59113
2009    11      2       0.252884        61.16535
2009    11      3       0.2516393       61.0048
2009    11      4       0.2259654       56.01326
2009    11      5       0.2075435       52.24054
2009    11      6       0.2678254       64.27122
2009    11      7       0.2650102       63.72315
2009    12      0       0.212353        53.36831
2009    12      1       0.2248663       55.58933
2009    12      2       0.1826058       46.98511
2009    12      3       0.1707495       44.38937
2009    12      4       0.1778499       45.8355
2009    12      5       0.1785742       46.13524
2009    12      6       0.1580178       41.77216
2009    12      7       0.1344258       36.77179
2009    13      0       0.1307296       35.97979
2009    13      1       0.1727103       44.72127
2009    13      2       0.1519076       40.37394
2009    13      3       0.1476257       39.52229
2009    13      4       0.1737176       45.06464
2009    13      5       0.2074253       52.05755
2009    13      6       0.1786177       46.26386
2009    13      7       0.1726496       44.95608
2009    14      0       0.1739012       45.24053
2009    14      1       0.2590116       62.32839
2009    14      2       0.2516482       60.84096
2009    14      3       0.2569585       62.01828
2009    14      4       0.3070996       71.6552
2009    14      5       0.3483257       78.87331
2009    14      6       0.2819068       67.06193
2009    14      7       0.2516027       61.35578
2009    15      0       0.2367211       58.43772
2009    15      1       0.3396896       77.4207
2009    15      2       0.2348276       57.89884
2009    15      3       0.2285942       56.64199
2009    15      4       0.2558301       62.18615
2009    15      5       0.3271542       75.76139
2009    15      6       0.3433523       79.02099
2009    15      7       0.3438261       79.30153
2009    16      0       0.3449256       79.31841
2009    16      1       0.4261641       92.5312
2009    16      2       0.3816412       84.87966
2009    16      3       0.3234685       74.98904
2009    16      4       0.3393527       77.87766
2009    16      5       0.3587887       81.04189
2009    16      6       0.2237693       55.58766
2009    16      7       0.1728923       44.91944
2009    17      0       0.1480973       39.39293
2009    17      1       0.1417331       38.04615
2009    17      2       0.1420948       38.21202
2009    17      3       0.1735848       44.82039
2009    17      4       0.2288446       56.2276
2009    17      5       0.2878663       67.62222
2009    17      6       0.1980698       49.88579
2009    17      7       0.133397        36.22448
2009    18      0       0.09939762      28.74843
2009    18      1       0.08841101      26.26919
2009    18      2       0.08656867      25.86943
2009    18      3       0.09886554      28.67671
2009    18      4       0.09578218      27.93295
2009    18      5       0.1008431       29.18895
2009    18      6       0.1415498       38.55547
2009    18      7       0.1454443       39.4342
2009    19      0       0.1467945       39.67496
2009    19      1       0.1605677       42.53738
2009    19      2       0.1699884       44.56424
2009    19      3       0.1888672       48.43276
2009    19      4       0.2183916       54.58165
2009    19      5       0.3008815       70.66089
2009    19      6       0.2527852       61.90634
2009    19      7       0.2182867       55.0588
2009    20      0       0.2095931       53.15928
2009    20      1       0.2638689       63.72069
2009    20      2       0.2690751       64.61427
2009    20      3       0.2979151       70.24017
2009    20      4       0.3448992       79.02408
2009    20      5       0.3764994       84.53496
2009    20      6       0.3612388       81.8317
2009    20      7       0.336399        77.69604
2009    21      0       0.3185916       74.44978
2009    21      1       0.4357256       93.92834
2009    21      2       0.3223349       74.52793
2009    21      3       0.3136001       73.16007
2009    21      4       0.3168841       73.93851
2009    21      5       0.3316137       76.6457
2009    21      6       0.3008793       71.075
2009    21      7       0.2656786       64.34546
2009    22      0       0.2716458       65.58273
2009    22      1       0.3643774       82.1367
2009    22      2       0.2735791       65.70288
2009    22      3       0.2281733       56.9836
2009    22      4       0.2843587       68.1127
2009    22      5       0.3526516       80.7953
2009    22      6       0.2653318       64.6859
2009    22      7       0.2461922       60.73079
2009    23      0       0.2571364       62.82589
2009    23      1       0.2919486       69.48521
2009    23      2       0.2677354       64.78996
2009    23      3       0.3699683       82.42035
2009    23      4       0.4065324       88.58908
2009    23      5       0.3626598       81.93653
2009    23      6       0.2906713       69.20592
2009    23      7       0.2099722       53.40752
2009    24      0       0.1330169       36.95427
2009    24      1       0.1055468       30.82903
2009    24      2       0.08982903      27.00115
2009    24      3       0.0976404       28.79081
2009    24      4       0.1280304       35.62927
2009    24      5       0.1331924       36.90166
2009    24      6       0.1216236       34.45232
2009    24      7       0.1257245       35.44304
2009    25      0       0.140696        38.86906
2009    25      1       0.1269012       35.7372
2009    25      2       0.1208259       34.26916
2009    25      3       0.1233938       34.85342
2009    25      4       0.1282657       35.90061
2009    25      5       0.1191011       33.83444
2009    25      6       0.1271719       35.59001
2009    25      7       0.151892        41.07632
2009    26      0       0.1659825       44.1742
2009    26      1       0.1720389       45.4743
2009    26      2       0.1851203       48.35676
2009    26      3       0.1922266       49.73329
2009    26      4       0.1870221       48.5857
2009    26      5       0.1819749       47.36975
2009    26      6       0.2380357       58.45335
2009    26      7       0.2539914       61.70696
2009    27      0       0.1860619       48.30437
2009    27      1       0.1511912       41.04479
2009    27      2       0.1086645       31.46815
2009    27      3       0.08396647      25.61664
2009    27      4       0.0836833       25.52682
2009    27      5       0.09489203      28.21095
2009    27      6       0.0997233       29.48699
2009    27      7       0.08835676      26.92688
2009    28      0       0.07676065      24.18849
2009    28      1       0.06840272      22.06263
2009    28      2       0.06592485      21.4212
2009    28      3       0.08478768      25.98553
2009    28      4       0.1149294       33.11093
2009    28      5       0.1332417       37.42984
2009    28      6       0.1268085       36.13505
2009    28      7       0.1002521       29.83097
2009    29      0       0.1100955       32.02809
2009    29      1       0.1588506       42.958
2009    29      2       0.1646025       44.19264
2009    29      3       0.1720704       45.73379
2009    29      4       0.1871483       48.90229
2009    29      5       0.229657        57.6679
2009    29      6       0.2406757       60.1403
2009    29      7       0.3205902       75.05482
2009    30      0       0.3259922       75.83302
2009    30      1       0.3235532       74.8893
2009    30      2       0.2444662       59.97402
2009    30      3       0.1916713       49.23345
2009    30      4       0.1303343       35.96552
2009    30      5       0.09620729      28.11947
2009    30      6       0.07397938      23.07558
2009    30      7       0.06039608      19.88838
2010    1       0       0.07779891      23.88123
2010    1       1       0.1015752       29.48098
2010    1       2       0.1298059       35.83159
2010    1       3       0.156826        41.68672
2010    1       4       0.166823        43.74698
2010    1       5       0.1483057       39.77854
2010    1       6       0.1197217       33.42659
2010    1       7       0.09514083      28.08912
2010    2       0       0.09009426      26.81147
2010    2       1       0.1467941       39.38473
2010    2       2       0.2276536       56.08661
2010    2       3       0.2741072       65.25885
2010    2       4       0.2985819       69.82458
2010    2       5       0.1734162       45.10653
2010    2       6       0.1197254       33.28811
2010    2       7       0.0949029       27.59334
2010    3       0       0.1106746       31.05666
2010    3       1       0.1819695       46.37504
2010    3       2       0.2671521       63.45077
2010    3       3       0.2326851       56.99884
2010    3       4       0.2441128       59.18191
2010    3       5       0.2005866       50.49307
2010    3       6       0.1534124       40.66869
2010    3       7       0.2095515       52.16613
2010    4       0       0.2662212       63.23221
2010    4       1       0.3221056       73.79292
2010    4       2       0.2924852       68.43519
2010    4       3       0.2714645       64.62834
2010    4       4       0.3087608       71.6163
2010    4       5       0.3242156       74.50777
2010    4       6       0.338365        76.84968
2010    4       7       0.3225537       73.94682
2010    5       0       0.3330719       75.80136
2010    5       1       0.306336        70.90606
2010    5       2       0.2670806       63.59008
2010    5       3       0.2400301       58.53141
2010    5       4       0.2549567       61.61422
2010    5       5       0.3089154       71.68404
2010    5       6       0.2857057       67.42761
2010    5       7       0.2340453       57.54649
2010    6       0       0.1989351       50.39058
2010    6       1       0.2816023       66.43591
2010    6       2       0.251679        60.80515
2010    6       3       0.2854195       67.41932
2010    6       4       0.1890468       48.36495
2010    6       5       0.170255        44.34211
2010    6       6       0.141776        38.34499
2010    6       7       0.1377058       37.42431
2010    7       0       0.1460453       39.15051
2010    7       1       0.2198447       54.29443
2010    7       2       0.2646451       63.00383
2010    7       3       0.2417368       58.94033
2010    7       4       0.2500786       60.7618
2010    7       5       0.2555616       61.8752
2010    7       6       0.2437434       59.74043
2010    7       7       0.2556479       62.01073
2010    8       0       0.283059        67.09271
2010    8       1       0.2804224       66.59567
2010    8       2       0.2700199       64.51113
2010    8       3       0.2444245       59.66561
2010    8       4       0.2357558       58.07189
2010    8       5       0.2798808       66.71549
2010    8       6       0.276215        66.1249
2010    8       7       0.2762502       66.14762
2010    9       0       0.3157826       73.45337
2010    9       1       0.3545078       80.22448
2010    9       2       0.3328636       76.38552
2010    9       3       0.3119392       72.72524
2010    9       4       0.2944953       69.52173
2010    9       5       0.324845        75.07368
2010    9       6       0.2424317       59.63397
2010    9       7       0.1960988       50.26044
2010    10      0       0.1948436       49.98227
2010    10      1       0.2351702       58.18407
2010    10      2       0.2575509       62.37456
2010    10      3       0.2633681       63.54701
2010    10      4       0.358408        80.18411
2010    10      5       0.312212        72.77495
2010    10      6       0.219877        55.09887
2010    10      7       0.2072127       52.60697
2010    11      0       0.1865759       48.28074
2010    11      1       0.2836373       67.45203
2010    11      2       0.286252        67.82041
2010    11      3       0.2280094       56.64311
2010    11      4       0.2553193       62.0479
2010    11      5       0.2509038       61.18639
2010    11      6       0.2240998       55.80768
2010    11      7       0.2664899       64.13127
2010    12      0       0.2448997       60.07654
2010    12      1       0.3056638       71.55099
2010    12      2       0.2632209       63.62554
2010    12      3       0.3013714       70.81139
2010    12      4       0.2922645       69.23574
2010    12      5       0.276477        66.23366
2010    12      6       0.233174        57.71736
2010    12      7       0.2955904       69.7914
2010    13      0       0.2977635       70.48639
2010    13      1       0.3455144       78.5422
2010    13      2       0.3154778       72.97671
2010    13      3       0.2870057       67.97214
2010    13      4       0.2954442       69.85682
2010    13      5       0.338091        77.83645
2010    13      6       0.3502559       79.93295
2010    13      7       0.3441061       78.57416
2010    14      0       0.3426912       78.45921
2010    14      1       0.4111342       90.13983
2010    14      2       0.2760479       65.79979
2010    14      3       0.2585019       62.5391
2010    14      4       0.267214        64.2529
2010    14      5       0.2447651       59.96946
2010    14      6       0.2328897       57.60961
2010    14      7       0.2368911       58.5588
2010    15      0       0.2244142       56.14061
2010    15      1       0.2475954       60.85487
2010    15      2       0.2476776       60.65011
2010    15      3       0.3057039       71.01929
2010    15      4       0.351246        79.37922
2010    15      5       0.321946        74.86913
2010    15      6       0.2272934       56.90669
2010    15      7       0.2017226       51.5964
2010    16      0       0.2137764       53.91376
2010    16      1       0.3669029       82.4187
2010    16      2       0.336808        76.93537
2010    16      3       0.3604237       81.11588
2010    16      4       0.4353749       93.59961
2010    16      5       0.334027        77.02818
2010    16      6       0.2546826       62.28526
2010    16      7       0.2250198       56.27843
2010    17      0       0.2173136       54.68128
2010    17      1       0.3693092       83.02986
2010    17      2       0.3308846       75.95048
2010    17      3       0.3528436       80.21532
2010    17      4       0.3903449       86.96527
2010    17      5       0.287898        68.70165
2010    17      6       0.2055728       52.35449
2010    17      7       0.1140698       32.4024
2010    18      0       0.0521083       17.6884
2010    18      1       0.07199166      22.69271
2010    18      2       0.1301993       36.22205
2010    18      3       0.2163332       54.37687
2010    18      4       0.2382096       58.678
2010    18      5       0.1690929       44.77785
2010    18      6       0.1079259       31.31097
2010    18      7       0.08526155      25.99138
2010    19      0       0.07653568      23.85177
2010    19      1       0.0848133       25.77034
2010    19      2       0.1008765       29.48624
2010    19      3       0.1150134       32.73786
2010    19      4       0.1661751       43.77671
2010    19      5       0.181044        46.97718
2010    19      6       0.1365384       37.65904
2010    19      7       0.09831448      29.03784
2010    20      0       0.08881129      26.71423
2010    20      1       0.09935601      29.11529
2010    20      2       0.1193944       33.74472
2010    20      3       0.1485788       40.13817
2010    20      4       0.187           48.22335
2010    20      5       0.1726616       45.356
2010    20      6       0.1739347       45.69508
2010    20      7       0.1742821       45.66356
2010    21      0       0.1899689       48.94327
2010    21      1       0.2346275       58.33373
2010    21      2       0.2067989       52.50829
2010    21      3       0.1920038       49.36401
2010    21      4       0.209284        52.78205
2010    21      5       0.2018438       51.33506
2010    21      6       0.1792551       46.74228
2010    21      7       0.1637152       43.61192
2010    22      0       0.1135164       32.37229
2010    22      1       0.1024567       29.8315
2010    22      2       0.1182233       33.54792
2010    22      3       0.1812424       47.13859
2010    22      4       0.217656        54.78961
2010    22      5       0.1946866       50.3691
2010    22      6       0.1097287       31.72817
2010    22      7       0.07560353      23.67336
2010    23      0       0.09335861      27.81958
2010    23      1       0.1269119       35.62303
2010    23      2       0.1858347       48.36292
2010    23      3       0.2697465       65.2516
2010    23      4       0.30571         71.94188
2010    23      5       0.277303        66.88894
2010    23      6       0.1841765       48.26397
2010    23      7       0.1662551       44.26811
2010    24      0       0.2580636       62.86665
2010    24      1       0.4017346       88.73626
2010    24      2       0.5089061       106.0592
2010    24      3       0.4443492       95.67479
2010    24      4       0.3641602       82.34402
2010    24      5       0.2846824       67.90908
2010    24      6       0.1240335       34.57656
2010    24      7       0.1270909       35.51785
2010    25      0       0.1847513       47.67563
2010    25      1       0.2469731       60.21391
2010    25      2       0.2667282       64.42134
2010    25      3       0.293975        69.68097
2010    25      4       0.2764145       66.59082
2010    25      5       0.1773505       46.78575
2010    25      6       0.120499        34.30157
2010    25      7       0.1220447       34.60712
2010    26      0       0.1156238       33.16918
2010    26      1       0.1250427       35.24371
2010    26      2       0.1618511       43.25581
2010    26      3       0.2029942       51.90484
2010    26      4       0.2178637       54.95935
2010    26      5       0.2086119       53.13874
2010    26      6       0.1593647       42.90184
2010    26      7       0.1407789       38.73046
2010    27      0       0.1414107       38.76778
2010    27      1       0.1494          40.46875
2010    27      2       0.1598583       42.5249
2010    27      3       0.1989015       50.74365
2010    27      4       0.2530544       61.67155
2010    27      5       0.2621912       63.51993
2010    27      6       0.200577        51.4291
2010    27      7       0.1765772       46.42686
2010    28      0       0.164233        43.74725
2010    28      1       0.2787668       66.5934
2010    28      2       0.2512025       61.1318
2010    28      3       0.2439687       59.97417
2010    28      4       0.293936        69.72408
2010    28      5       0.2918276       69.14038
2010    28      6       0.1816822       47.15711
2010    28      7       0.1573554       41.95508
2010    29      0       0.1596264       42.47662
2010    29      1       0.1914303       49.24899
2010    29      2       0.2416865       59.24177
2010    29      3       0.2995141       70.24778
2010    29      4       0.3529989       80.0634
2010    29      5       0.3469023       79.5819
2010    29      6       0.3115489       73.09235
2010    29      7       0.2895072       68.98054
2010    30      0       0.283975        67.83006
2010    30      1       0.318784        73.71516
2010    30      2       0.2908822       68.45035
2010    30      3       0.2705329       64.88173
2010    30      4       0.281329        67.20933
2010    30      5       0.2567227       62.47226
2010    30      6       0.248895        60.94875
2010    30      7       0.1972537       50.48192
2011    1       0       0.1461351       39.07509
2011    1       1       0.1198861       33.33379
2011    1       2       0.09412423      27.46722
2011    1       3       0.09333163      27.14364
2011    1       4       0.09493561      27.41872
2011    1       5       0.1563291       40.8476
2011    1       6       0.1381994       37.27292
2011    1       7       0.1100843       31.21188
2011    2       0       0.1044238       29.93441
2011    2       1       0.1231049       33.88633
2011    2       2       0.1181758       32.88577
2011    2       3       0.1264497       34.53947
2011    2       4       0.1259346       34.40824
2011    2       5       0.1278541       34.9463
2011    2       6       0.1078822       30.74482
2011    2       7       0.08334484      25.07255
2011    3       0       0.06253043      20.14871
2011    3       1       0.05490828      18.31465
2011    3       2       0.05987343      19.44045
2011    3       3       0.06970844      21.73008
2011    3       4       0.07373191      22.77393
2011    3       5       0.07823401      23.89625
2011    3       6       0.0723042       22.50531
2011    3       7       0.07050059      21.98715
2011    4       0       0.09589934      27.97231
2011    4       1       0.08110265      24.72338
2011    4       2       0.07891511      24.2839
2011    4       3       0.1081127       30.75752
2011    4       4       0.1247376       34.49454
2011    4       5       0.1614566       42.54887
2011    4       6       0.09454086      28.07911
2011    4       7       0.06959682      22.1307
2011    5       0       0.1030388       30.01384
2011    5       1       0.2138639       53.65156
2011    5       2       0.2191584       54.69151
2011    5       3       0.198416        50.50047
2011    5       4       0.1814158       46.80116
2011    5       5       0.1785713       46.22973
2011    5       6       0.1295468       35.86565
2011    5       7       0.08828206      26.47877
2011    6       0       0.07281355      22.72422
2011    6       1       0.08261853      24.98863
2011    6       2       0.09784464      28.47913
2011    6       3       0.1528659       40.60466
2011    6       4       0.1730602       45.15211
2011    6       5       0.1914573       48.94133
2011    6       6       0.1758627       46.0386
2011    6       7       0.1522857       41.20625
2011    7       0       0.1360571       37.66981
2011    7       1       0.1543899       41.51042
2011    7       2       0.1481363       40.13098
2011    7       3       0.1548864       41.40562
2011    7       4       0.1877356       48.2219
2011    7       5       0.1997432       50.94915
2011    7       6       0.1810294       47.21706
2011    7       7       0.169256        44.74004
2011    8       0       0.2044756       51.95247
2011    8       1       0.2959957       69.57191
2011    8       2       0.2044394       51.78225
2011    8       3       0.1619918       42.85852
2011    8       4       0.1696642       44.34397
2011    8       5       0.1474713       39.79786
2011    8       6       0.1577224       42.13384
2011    8       7       0.1897239       48.86882
2011    9       0       0.2526603       61.42173
2011    9       1       0.3564099       80.62578
2011    9       2       0.261532        63.35637
2011    9       3       0.2356456       58.07201
2011    9       4       0.221502        55.21033
2011    9       5       0.1825726       47.40752
2011    9       6       0.1506419       40.80368
2011    9       7       0.1482743       40.20877
2011    10      0       0.132382        36.7088
2011    10      1       0.1396339       38.34408
2011    10      2       0.1400503       38.44136
2011    10      3       0.1588847       42.56299
2011    10      4       0.1847272       47.9164
2011    10      5       0.1924381       49.66189
2011    10      6       0.1741545       46.22494
2011    10      7       0.1696011       45.23393
2011    11      0       0.1821506       47.70786
2011    11      1       0.2294325       57.22894
2011    11      2       0.2796301       66.9253
2011    11      3       0.3556376       80.6118
2011    11      4       0.3680548       82.89941
2011    11      5       0.3363177       77.84212
2011    11      6       0.3108765       73.47636
2011    11      7       0.2799183       67.31676
2011    12      0       0.2398061       59.51817
2011    12      1       0.2933962       69.72576
2011    12      2       0.295082        70.2186
2011    12      3       0.3351447       77.87159
2011    12      4       0.307034        72.18749
2011    12      5       0.1793466       47.01402
2011    12      6       0.1559177       41.94357
2011    12      7       0.121721        34.4067
2011    13      0       0.08151467      24.66249
2011    13      1       0.09688167      28.36064
2011    13      2       0.1330068       36.90808
2011    13      3       0.1781684       46.49003
2011    13      4       0.2114792       53.33391
2011    13      5       0.2136584       54.07257
2011    13      6       0.1458143       40.03403
2011    13      7       0.08098672      25.02599
2011    14      0       0.08031642      24.64535
2011    14      1       0.09934624      29.21619
2011    14      2       0.1101766       31.65701
2011    14      3       0.1722003       45.13599
2011    14      4       0.2239111       56.23358
2011    14      5       0.2495018       61.55279
2011    14      6       0.3063816       72.50576
2011    14      7       0.2770203       67.10136
2011    15      0       0.2193081       55.79585
2011    15      1       0.2247989       56.81232
2011    15      2       0.1925522       50.22595
2011    15      3       0.1816067       47.9255
2011    15      4       0.1738627       46.36611
2011    15      5       0.1730739       46.31375
2011    15      6       0.2151943       55.19756
2011    15      7       0.2438731       61.01737
2011    16      0       0.2493266       62.048
2011    16      1       0.2564838       63.36048
2011    16      2       0.2398416       59.99301
2011    16      3       0.2379484       59.40714
2011    16      4       0.3245742       75.53215
2011    16      5       0.379517        85.32557
2011    16      6       0.3172918       74.64459
2011    16      7       0.2112829       53.95622
2011    17      0       0.1773324       46.62701
2011    17      1       0.279071        66.55094
2011    17      2       0.2357819       58.31366
2011    17      3       0.2318011       57.56538
2011    17      4       0.2181538       54.99493
2011    17      5       0.2108104       53.44658
2011    17      6       0.2068253       52.6477
2011    17      7       0.2212117       55.63365
2011    18      0       0.195574        50.31876
2011    18      1       0.2828313       67.23308
2011    18      2       0.2473393       60.68036
2011    18      3       0.2471857       60.60997
2011    18      4       0.22026         55.18695
2011    18      5       0.1797252       46.83586
2011    18      6       0.2132625       53.69831
2011    18      7       0.3015929       71.08039
2011    19      0       0.3259787       75.56983
2011    19      1       0.3322943       76.74308
2011    19      2       0.3160463       73.79222
2011    19      3       0.3132318       73.41779
2011    19      4       0.2469907       60.73651
2011    19      5       0.1879834       48.59328
2011    19      6       0.1936129       49.76668
2011    19      7       0.1789737       46.78788
2011    20      0       0.1267595       35.66077
2011    20      1       0.09991894      29.48641
2011    20      2       0.07616893      23.80107
2011    20      3       0.06610564      21.31766
2011    20      4       0.06449342      20.86415
2011    20      5       0.0737292       23.1215
2011    20      6       0.1080211       31.36362
2011    20      7       0.1395124       38.60117
2011    21      0       0.1459553       40.21155
2011    21      1       0.1199537       34.29224
2011    21      2       0.1222022       34.70651
2011    21      3       0.1104605       32.07327
2011    21      4       0.1150707       33.08678
2011    21      5       0.1323405       36.95368
2011    21      6       0.1417148       39.10916
2011    21      7       0.1401964       38.76499
2011    22      0       0.1322205       36.8579
2011    22      1       0.1438985       39.42612
2011    22      2       0.1481475       40.40059
2011    22      3       0.1917392       49.51523
2011    22      4       0.2531529       62.21529
2011    22      5       0.2811083       67.66534
2011    22      6       0.2076342       53.15127
2011    22      7       0.1882355       48.98941
2011    23      0       0.2269802       56.7588
2011    23      1       0.2227556       56.01202
2011    23      2       0.2039031       52.2619
2011    23      3       0.2179081       55.18639
2011    23      4       0.2441646       60.59907
2011    23      5       0.2547164       62.74581
2011    23      6       0.2221219       56.34227
2011    23      7       0.1908857       49.96466
2011    24      0       0.1537987       42.08758
2011    24      1       0.1547566       42.33474
2011    24      2       0.1427673       39.70609
2011    24      3       0.1432332       39.82634
2011    24      4       0.1542469       42.12684
2011    24      5       0.1740791       46.27159
2011    24      6       0.1874019       49.43565
2011    24      7       0.1855351       49.27507
2011    25      0       0.1701425       45.95677
2011    25      1       0.172867        46.53742
2011    25      2       0.1862948       49.36833
2011    25      3       0.1997238       52.04473
2011    25      4       0.1936233       50.77943
2011    25      5       0.1926646       50.64536
2011    25      6       0.2183723       56.30463
2011    25      7       0.2309774       58.83199
2011    26      0       0.241879        60.89878
2011    26      1       0.2728813       66.93034
2011    26      2       0.2310501       58.55575
2011    26      3       0.1756712       46.92481
2011    26      4       0.1433796       39.64351
2011    26      5       0.1188893       34.06426
2011    26      6       0.1212803       34.76349
2011    26      7       0.1309166       36.953
2011    27      0       0.1199469       34.35443
2011    27      1       0.1291883       36.41723
2011    27      2       0.1110241       32.23482
2011    27      3       0.09749245      29.02596
2011    27      4       0.09785208      29.0676
2011    27      5       0.1320407       37.00799
2011    27      6       0.2340829       58.91204
2011    27      7       0.2769507       67.43011
2011    28      0       0.2266387       57.40689
2011    28      1       0.2372975       59.14936
2011    28      2       0.1580679       42.79266
2011    28      3       0.1471456       40.30354
2011    28      4       0.1617537       43.3867
2011    28      5       0.1913123       49.76784
2011    28      6       0.2204402       56.00169
2011    28      7       0.1925178       50.20213
2011    29      0       0.1573998       42.70724
2011    29      1       0.2217871       55.93955
2011    29      2       0.1822788       47.86936
2011    29      3       0.1542886       41.84041
2011    29      4       0.163252        43.67919
2011    29      5       0.1861171       48.53011
2011    29      6       0.1671085       44.58594
2011    29      7       0.08191222      25.25479
2011    30      0       0.07266851      22.98055
2011    30      1       0.07833735      24.32872
2011    30      2       0.09294032      27.76314
2011    30      3       0.1015832       29.68804
2011    30      4       0.1183811       33.505
2011    30      5       0.1487203       40.28737
2011    30      6       0.1276076       35.74327
2011    30      7       0.08021929      24.77182
2012    1       0       0.3001786       70.20052
2012    1       1       0.3168408       73.33704
2012    1       2       0.2903316       67.99253
2012    1       3       0.2641981       63.11706
2012    1       4       0.2441884       59.31346
2012    1       5       0.1871269       47.70483
2012    1       6       0.1275646       35.09149
2012    1       7       0.08181373      24.79647
2012    2       0       0.06763749      21.41971
2012    2       1       0.0956051       27.86737
2012    2       2       0.08703636      25.92888
2012    2       3       0.08429115      25.23649
2012    2       4       0.09219802      26.93268
2012    2       5       0.1293191       35.12133
2012    2       6       0.1540852       40.70465
2012    2       7       0.1282558       35.25078
2012    3       0       0.1244816       34.50575
2012    3       1       0.1245346       34.42739
2012    3       2       0.09196506      27.06849
2012    3       3       0.09464484      27.48858
2012    3       4       0.136526        36.73166
2012    3       5       0.1442715       38.66153
2012    3       6       0.1028595       29.6646
2012    3       7       0.07435216      23.06166
2012    4       0       0.06026993      19.673
2012    4       1       0.0638806       20.52784
2012    4       2       0.07240408      22.55102
2012    4       3       0.1044458       29.78551
2012    4       4       0.17229         44.46502
2012    4       5       0.2689774       63.99145
2012    4       6       0.2704018       64.17414
2012    4       7       0.2080587       52.11237
2012    5       0       0.1664686       43.56175
2012    5       1       0.3132958       72.20095
2012    5       2       0.2680341       63.52878
2012    5       3       0.2117873       52.83216
2012    5       4       0.2528949       61.12718
2012    5       5       0.2629376       63.12551
2012    5       6       0.2720836       64.95739
2012    5       7       0.256939        62.16123
2012    6       0       0.2361207       58.05237
2012    6       1       0.2243307       55.41707
2012    6       2       0.2285067       56.16493
2012    6       3       0.2229507       55.15946
2012    6       4       0.2470763       60.07863
2012    6       5       0.2715276       64.9951
2012    6       6       0.2512586       61.17099
2012    6       7       0.2089304       52.70059
2012    7       0       0.2145412       53.80825
2012    7       1       0.3309056       75.83421
2012    7       2       0.3017661       70.47361
2012    7       3       0.2454692       60.0177
2012    7       4       0.2876566       68.25235
2012    7       5       0.3362038       77.35574
2012    7       6       0.3410364       78.37779
2012    7       7       0.3008488       71.09991
2012    8       0       0.2203204       55.35389
2012    8       1       0.3555418       80.43768
2012    8       2       0.297409        69.70064
2012    8       3       0.3090789       71.69248
2012    8       4       0.390891        86.07599
2012    8       5       0.3423913       78.32855
2012    8       6       0.2838758       67.79523
2012    8       7       0.250478        61.32929
2012    9       0       0.2911303       69.19668
2012    9       1       0.3633487       81.74565
2012    9       2       0.3077524       71.79829
2012    9       3       0.2851925       67.71521
2012    9       4       0.2996525       70.4651
2012    9       5       0.3034276       70.93734
2012    9       6       0.2442232       59.62103
2012    9       7       0.2166953       54.06513
2012    10      0       0.220752        54.80796
2012    10      1       0.3360126       76.24156
2012    10      2       0.2521519       60.7502
2012    10      3       0.1913824       48.61254
2012    10      4       0.222766        55.08982
2012    10      5       0.2342121       57.35984
2012    10      6       0.1495933       40.15846
2012    10      7       0.121134        33.95521
2012    11      0       0.09584031      28.16687
2012    11      1       0.09583346      28.13589
2012    11      2       0.09086003      26.89308
2012    11      3       0.1020482       29.27562
2012    11      4       0.1364043       36.93473
2012    11      5       0.2515937       60.88343
2012    11      6       0.2243007       55.85456
2012    11      7       0.1697379       44.47635
2012    12      0       0.1617475       42.5646
2012    12      1       0.2259644       55.57875
2012    12      2       0.2184633       54.32571
2012    12      3       0.2378045       58.25695
2012    12      4       0.2448715       59.79949
2012    12      5       0.270281        64.7033
2012    12      6       0.2384112       58.43452
2012    12      7       0.180306        46.36244
2012    13      0       0.1039334       29.82166
2012    13      1       0.1100483       31.18015
2012    13      2       0.09139974      27.0522
2012    13      3       0.1250454       34.73401
2012    13      4       0.1486867       39.87629
2012    13      5       0.1580945       41.82668
2012    13      6       0.1148014       32.42232
2012    13      7       0.09230608      27.30722
2012    14      0       0.07218826      22.58269
2012    14      1       0.07878837      24.15274
2012    14      2       0.08498205      25.5909
2012    14      3       0.1093469       31.0956
2012    14      4       0.1594892       42.03685
2012    14      5       0.1613088       42.54709
2012    14      6       0.1380368       37.62239
2012    14      7       0.113695        32.2671
2012    15      0       0.09343011      27.70183
2012    15      1       0.08766285      26.37244
2012    15      2       0.08830723      26.49924
2012    15      3       0.09086724      27.03193
2012    15      4       0.108231        30.87091
2012    15      5       0.1790579       46.19724
2012    15      6       0.2237418       55.6834
2012    15      7       0.1866153       48.34034
2012    16      0       0.1556434       41.90185
2012    16      1       0.1494894       40.42875
2012    16      2       0.1434699       39.19093
2012    16      3       0.1553387       41.6814
2012    16      4       0.1945599       49.85476
2012    16      5       0.2723018       65.73745
2012    16      6       0.2559481       62.92382
2012    16      7       0.2045888       52.74691
2012    17      0       0.1865241       48.9646
2012    17      1       0.1961937       50.69217
2012    17      2       0.1666095       44.38652
2012    17      3       0.1871106       48.4341
2012    17      4       0.220204        55.30886
2012    17      5       0.2943073       69.9355
2012    17      6       0.2589724       63.5588
2012    17      7       0.2460392       60.9692
2012    18      0       0.2436798       60.27673
2012    18      1       0.3341121       76.57353
2012    18      2       0.3386205       77.26435
2012    18      3       0.3614798       81.44506
2012    18      4       0.3813941       85.0366
2012    18      5       0.3745383       84.20919
2012    18      6       0.2687731       65.16656
2012    18      7       0.2338341       58.27493
2012    19      0       0.2305153       57.57321
2012    19      1       0.3333637       76.93299
2012    19      2       0.3193705       74.33837
2012    19      3       0.2797317       67.15082
2012    19      4       0.3054166       72.26311
2012    19      5       0.3564851       81.5655
2012    19      6       0.3523001       81.06736
2012    19      7       0.2957277       70.79523
2012    20      0       0.2607379       63.98597
2012    20      1       0.4001839       88.75839
2012    20      2       0.38359         85.62488
2012    20      3       0.324228        75.53856
2012    20      4       0.3667105       83.37258
2012    20      5       0.4327046       94.65688
2012    20      6       0.4224564       92.85493
2012    20      7       0.3385077       78.31917
2012    21      0       0.2460013       60.96416
2012    21      1       0.284658        68.54503
2012    21      2       0.314586        73.75311
2012    21      3       0.3118661       73.45729
2012    21      4       0.4046961       90.03415
2012    21      5       0.4747613       101.6559
2012    21      6       0.4713228       101.2926
2012    21      7       0.4077608       90.76022
2012    22      0       0.2950867       70.62746
2012    22      1       0.3660245       83.26024
2012    22      2       0.3702992       83.54312
2012    22      3       0.3838748       86.17294
2012    22      4       0.3892377       87.43094
2012    22      5       0.3249166       76.22065
2012    22      6       0.2869718       69.27678
2012    22      7       0.3312856       77.24943
2012    23      0       0.2910548       69.4816
2012    23      1       0.3817838       85.23907
2012    23      2       0.3381612       77.69337
2012    23      3       0.2915727       69.28131
2012    23      4       0.3190573       74.65854
2012    23      5       0.3647426       82.9922
2012    23      6       0.4226912       92.79246
2012    23      7       0.3651444       82.9224
2012    24      0       0.2905519       69.16816
2012    24      1       0.4203989       92.18962
2012    24      2       0.3658065       82.65156
2012    24      3       0.3974355       87.86049
2012    24      4       0.3783269       84.81649
2012    24      5       0.3727233       84.07997
2012    24      6       0.2856991       68.78467
2012    24      7       0.269213        65.3711
2012    25      0       0.1639704       44.17435
2012    25      1       0.1348859       37.43755
2012    25      2       0.1005966       29.5579
2012    25      3       0.1076787       31.08464
2012    25      4       0.1461202       39.6294
2012    25      5       0.2327506       57.69463
2012    25      6       0.2754255       66.43317
2012    25      7       0.2598569       63.5451
2012    26      0       0.2484107       61.18006
2012    26      1       0.26834         64.90648
2012    26      2       0.235602        58.24087
2012    26      3       0.1979489       50.66198
2012    26      4       0.2108697       53.37949
2012    26      5       0.2414159       59.61631
2012    26      6       0.2071247       52.8321
2012    26      7       0.1576887       42.43701
2012    27      0       0.1279203       35.65106
2012    27      1       0.1838556       47.43823
2012    27      2       0.197289        50.36653
2012    27      3       0.1876941       48.45595
2012    27      4       0.175036        45.80304
2012    27      5       0.172362        45.27758
2012    27      6       0.1473817       40.18057
2012    27      7       0.1328894       37.07865
2012    28      0       0.1323486       36.9142
2012    28      1       0.1549574       41.87414
2012    28      2       0.1567544       42.18198
2012    28      3       0.1508889       40.84842
2012    28      4       0.1523604       41.05594
2012    28      5       0.1760236       46.04378
2012    28      6       0.2061587       52.96341
2012    28      7       0.2068946       53.41676
2012    29      0       0.177629        47.35173
2012    29      1       0.1758509       46.9231
2012    29      2       0.1334358       37.38108
2012    29      3       0.1036482       30.41898
2012    29      4       0.1002724       29.59528
2012    29      5       0.1248332       35.28108
2012    29      6       0.1526206       41.65464
2012    29      7       0.148832        40.93326
2012    30      0       0.1337152       37.49129
2012    30      1       0.1421759       39.29258
2012    30      2       0.1370683       38.13606
2012    30      3       0.1501961       40.92927
2012    30      4       0.1980572       50.99949
2012    30      5       0.3160467       74.43579
2012    30      6       0.3427219       79.47727
2012    30      7       0.298466        71.41567
2013    1       0       0.09983455      29.47345
2013    1       1       0.09195666      27.47849
2013    1       2       0.08685144      26.15876
2013    1       3       0.08075469      24.69059
2013    1       4       0.09474957      27.99714
2013    1       5       0.1021985       29.7779
2013    1       6       0.09003848      27.03935
2013    1       7       0.1304553       36.12406
2013    2       0       0.1641671       43.24516
2013    2       1       0.1884327       48.61891
2013    2       2       0.2508032       61.27663
2013    2       3       0.2399769       59.37929
2013    2       4       0.2852502       67.65417
2013    2       5       0.2150592       53.99015
2013    2       6       0.1738326       45.5945
2013    2       7       0.1646776       43.77973
2013    3       0       0.1624429       43.12505
2013    3       1       0.171069        45.07451
2013    3       2       0.220051        55.01416
2013    3       3       0.2702021       64.37061
2013    3       4       0.2575074       62.39986
2013    3       5       0.3182746       73.95821
2013    3       6       0.1085232       31.0508
2013    3       7       0.1043256       30.03145
2013    4       0       0.1097619       31.39248
2013    4       1       0.168779        44.22464
2013    4       2       0.2500859       60.81882
2013    4       3       0.2857853       67.54439
2013    4       4       0.271302        65.07863
2013    4       5       0.1773511       46.65701
2013    4       6       0.04812767      16.9326
2013    4       7       0.0442302       15.84193
2013    5       0       0.04561272      16.2207
2013    5       1       0.0858569       26.03385
2013    5       2       0.1168984       33.13601
2013    5       3       0.1436634       38.96887
2013    5       4       0.2023839       51.2318
2013    5       5       0.2027303       51.66239
2013    5       6       0.1551605       41.73786
2013    5       7       0.07211072      22.71257
2013    6       0       0.0957334       28.25314
2013    6       1       0.1689245       44.34561
2013    6       2       0.1168394       33.02653
2013    6       3       0.0856613       25.93932
2013    6       4       0.08438999      25.63567
2013    6       5       0.09500778      28.1032
2013    6       6       0.08804087      26.55004
2013    6       7       0.07701804      23.98756
2013    7       0       0.06383394      20.80224
2013    7       1       0.06443714      20.92897
2013    7       2       0.06480143      21.00656
2013    7       3       0.05717043      19.17668
2013    7       4       0.0583027       19.44623
2013    7       5       0.060695        20.05665
2013    7       6       0.05904308      19.69375
2013    7       7       0.05875824      19.65691
2013    8       0       0.05207516      17.98699
2013    8       1       0.05204848      17.98945
2013    8       2       0.06344045      20.90055
2013    8       3       0.07183333      22.94322
2013    8       4       0.06971409      22.40233
2013    8       5       0.06880712      22.21345
2013    8       6       0.08179696      25.4734
2013    8       7       0.07121531      22.92095
2013    9       0       0.0596426       20.03866
2013    9       1       0.05933748      19.97668
2013    9       2       0.08497233      26.29704
2013    9       3       0.0927488       28.18669
2013    9       4       0.08964096      27.41303
2013    9       5       0.08604008      26.51537
2013    9       6       0.1053194       31.31962
2013    9       7       0.1062613       31.54077
2013    10      0       0.09432466      28.67557
2013    10      1       0.1042685       30.99148
2013    10      2       0.1023436       30.53672
2013    10      3       0.09162478      28.00809
2013    10      4       0.09144412      27.93466
2013    10      5       0.1114278       32.74233
2013    10      6       0.1443021       40.4396
2013    10      7       0.1512986       41.96178
2013    11      0       0.1277657       36.60492
2013    11      1       0.1079153       31.91589
2013    11      2       0.110535        32.53469
2013    11      3       0.1240708       35.73582
2013    11      4       0.1407432       39.4728
2013    11      5       0.1648286       44.90495
2013    11      6       0.1382053       38.96707
2013    11      7       0.08888625      27.29289
2013    12      0       0.07344974      23.48941
2013    12      1       0.1021023       30.30153
2013    12      2       0.1269195       36.03031
2013    12      3       0.1330203       37.51443
2013    12      4       0.1549279       42.42307
2013    12      5       0.1775661       47.23904
2013    12      6       0.1513841       41.51407
2013    12      7       0.1130048       32.7636
2013    13      0       0.1151879       33.10875
2013    13      1       0.1615459       43.36363
2013    13      2       0.2378971       59.36531
2013    13      3       0.3062506       72.55218
2013    13      4       0.3376113       78.24421
2013    13      5       0.2337995       58.84069
2013    13      6       0.1733467       46.23362
2013    13      7       0.3096761       73.10202
2013    14      0       0.1561632       42.12729
2013    14      1       0.2075836       52.304
2013    14      2       0.19708         50.23213
2013    14      3       0.1789272       46.48708
2013    14      4       0.1689937       44.35034
2013    14      5       0.1336591       36.74755
2013    14      6       0.1171001       33.19182
2013    14      7       0.1027416       29.87419
2013    15      0       0.1021449       29.65848
2013    15      1       0.1205331       33.60202
2013    15      2       0.1377069       37.24877
2013    15      3       0.1456894       38.9766
2013    15      4       0.1969923       49.84885
2013    15      5       0.2760726       65.79963
2013    15      6       0.3677071       82.58069
2013    15      7       0.3362304       76.66751
2013    16      0       0.2799974       66.17912
2013    16      1       0.319194        73.35512
2013    16      2       0.3025095       70.14136
2013    16      3       0.2597313       62.21439
2013    16      4       0.2880603       67.66005
2013    16      5       0.3092631       71.67708
2013    16      6       0.2993272       70.04344
2013    16      7       0.2200667       54.90315
2013    17      0       0.1887811       48.39561
2013    17      1       0.2263211       55.86028
2013    17      2       0.1977017       50.22998
2013    17      3       0.2013386       50.84647
2013    17      4       0.2215946       55.14527
2013    17      5       0.1905553       48.8833
2013    17      6       0.1544271       41.46973
2013    17      7       0.1243683       34.85504
2013    18      0       0.09950421      29.20539
2013    18      1       0.1119864       31.97293
2013    18      2       0.1113624       31.86544
2013    18      3       0.1092508       31.29743
2013    18      4       0.1088543       31.16777
2013    18      5       0.1191283       33.49467
2013    18      6       0.116942        33.19421
2013    18      7       0.1183282       33.69009
2013    19      0       0.106183        31.00928
2013    19      1       0.0928206       27.84443
2013    19      2       0.08479001      25.91221
2013    19      3       0.0790483       24.51644
2013    19      4       0.08056805      24.89095
2013    19      5       0.08801112      26.72696
2013    19      6       0.09998463      29.61097
2013    19      7       0.1007666       29.9002
2013    20      0       0.09317527      28.1783
2013    20      1       0.08362049      25.84309
2013    20      2       0.07691549      24.11488
2013    20      3       0.07257395      23.00465
2013    20      4       0.07967595      24.68019
2013    20      5       0.09691671      28.84414
2013    20      6       0.1220481       34.79326
2013    20      7       0.1402288       38.94773
2013    21      0       0.1451867       40.08958
2013    21      1       0.145003        39.98292
2013    21      2       0.1383008       38.3901
2013    21      3       0.1275778       35.9218
2013    21      4       0.1286158       36.05565
2013    21      5       0.1435774       39.53894
2013    21      6       0.1883461       49.42067
2013    21      7       0.1989452       51.63644
2013    22      0       0.1892389       49.59693
2013    22      1       0.1808307       47.77591
2013    22      2       0.1742429       46.42154
2013    22      3       0.1892218       49.36396
2013    22      4       0.1928903       49.85636
2013    22      5       0.2187171       55.25564
2013    22      6       0.2748975       66.68225
2013    22      7       0.3105812       73.53951
2013    23      0       0.2538024       62.87199
2013    23      1       0.3147157       73.93159
2013    23      2       0.2530935       62.43153
2013    23      3       0.2218099       56.23745
2013    23      4       0.2635098       64.55671
2013    23      5       0.3081502       73.35703
2013    23      6       0.2593059       64.2
2013    23      7       0.219202        56.24041
2013    24      0       0.183431        48.76235
2013    24      1       0.1703913       45.85733
2013    24      2       0.1674903       45.21636
2013    24      3       0.1780451       47.48999
2013    24      4       0.201142        52.19974
2013    24      5       0.2248658       57.00876
2013    24      6       0.2497303       62.26779
2013    24      7       0.2358781       59.92891
2013    25      0       0.2367434       60.19523
2013    25      1       0.2290126       58.53542
2013    25      2       0.2280199       58.36018
2013    25      3       0.2091419       54.34089
2013    25      4       0.2078368       53.92031
2013    25      5       0.2220554       56.98328
2013    25      6       0.2245864       57.70052
2013    25      7       0.1994063       52.48288
2013    26      0       0.1450011       40.46191
2013    26      1       0.1335095       37.63666
2013    26      2       0.1456343       40.36569
2013    26      3       0.1802051       48.04429
2013    26      4       0.2306022       58.64133
2013    26      5       0.2386763       60.3835
2013    26      6       0.2224048       57.13531
2013    26      7       0.1945127       51.16971
2013    27      0       0.1901997       50.21203
2013    27      1       0.2384347       60.1457
2013    27      2       0.3242745       76.76035
2013    27      3       0.2664633       65.82996
2013    27      4       0.3334521       78.26918
2013    27      5       0.330908        78.29589
2013    27      6       0.1881647       49.74962
2013    27      7       0.2019312       52.42148
2013    28      0       0.210944        54.24377
2013    28      1       0.261334        64.25033
2013    28      2       0.265556        64.97521
2013    28      3       0.3278609       76.62887
2013    28      4       0.3214974       75.69262
2013    28      5       0.2599185       64.18876
2013    28      6       0.194147        50.90739
2013    28      7       0.1546048       42.03667
2013    29      0       0.2391475       59.3886
2013    29      1       0.3704063       83.27005
2013    29      2       0.3218297       75.14577
2013    29      3       0.3495492       80.42947
2013    29      4       0.2799368       67.61219
2013    29      5       0.2410511       59.65004
2013    29      6       0.1749247       46.43338
2013    29      7       0.1659559       44.10382
2013    30      0       0.2463853       60.39882
2013    30      1       0.4163124       91.00302
2013    30      2       0.4046744       88.90831
2013    30      3       0.3696604       83.05361
2013    30      4       0.315983        73.41154
2013    30      5       0.3196326       74.10385
2013    30      6       0.3244108       74.8411
2013    30      7       0.3066579       71.51058
2014    1       0       0.2178081       54.19928
2014    1       1       0.2661502       63.55777
2014    1       2       0.2557448       61.64512
2014    1       3       0.1920755       48.80048
2014    1       4       0.2308815       56.44683
2014    1       5       0.1777768       45.96268
2014    1       6       0.1034252       29.8266
2014    1       7       0.07360025      22.76264
2014    2       0       0.06236578      20.04777
2014    2       1       0.1152552       32.46607
2014    2       2       0.2154523       53.61667
2014    2       3       0.1976302       50.04847
2014    2       4       0.219226        54.34865
2014    2       5       0.1813823       46.90245
2014    2       6       0.1534794       41.10531
2014    2       7       0.1489432       40.06387
2014    3       0       0.1720076       45.08172
2014    3       1       0.2473117       60.5794
2014    3       2       0.2795091       66.58749
2014    3       3       0.2131773       53.67321
2014    3       4       0.2210777       55.29753
2014    3       5       0.2027627       51.59477
2014    3       6       0.1842297       47.72847
2014    3       7       0.1800186       46.88554
2014    4       0       0.1781908       46.50524
2014    4       1       0.2264509       56.34152
2014    4       2       0.2482953       60.1954
2014    4       3       0.207222        52.26888
2014    4       4       0.2126463       53.30295
2014    4       5       0.1563166       41.79946
2014    4       6       0.0945142       28.04588
2014    4       7       0.06729561      21.47393
2014    5       0       0.04477514      15.83527
2014    5       1       0.07370639      22.91539
2014    5       2       0.1178405       33.01709
2014    5       3       0.229269        56.56166
2014    5       4       0.2288488       56.95376
2014    5       5       0.2136828       53.83762
2014    5       6       0.161199        43.11079
2014    5       7       0.1147309       32.83642
2014    6       0       0.1167915       33.14317
2014    6       1       0.1374916       37.65978
2014    6       2       0.1559572       41.54921
2014    6       3       0.1619666       42.89683
2014    6       4       0.1616379       42.8436
2014    6       5       0.163533        43.41857
2014    6       6       0.1569962       42.18671
2014    6       7       0.2098921       53.03603
2014    7       0       0.3702934       83.15539
2014    7       1       0.3325161       76.43175
2014    7       2       0.1450429       39.50272
2014    7       3       0.108209        31.23032
2014    7       4       0.1241344       34.74991
2014    7       5       0.1826406       47.28492
2014    7       6       0.1357161       37.30462
2014    7       7       0.08343086      25.28133
2014    8       0       0.1015126       29.32846
2014    8       1       0.2243379       55.58345
2014    8       2       0.1975871       50.28645
2014    8       3       0.1757139       45.69474
2014    8       4       0.2002534       50.64351
2014    8       5       0.194367        49.39502
2014    8       6       0.1708017       44.57635
2014    8       7       0.1421872       38.47178
2014    9       0       0.1473119       39.62474
2014    9       1       0.2236604       55.07021
2014    9       2       0.2030563       51.00859
2014    9       3       0.1894843       48.22675
2014    9       4       0.1742497       45.08603
2014    9       5       0.1836922       46.95385
2014    9       6       0.1794321       46.10847
2014    9       7       0.1475591       39.43483
2014    10      0       0.09355875      27.38719
2014    10      1       0.08584125      25.63562
2014    10      2       0.07242225      22.46376
2014    10      3       0.07109957      22.09205
2014    10      4       0.07824299      23.63432
2014    10      5       0.09639645      27.75298
2014    10      6       0.1280442       34.84782
2014    10      7       0.1128257       31.79168
2014    11      0       0.1093986       31.0558
2014    11      1       0.1606623       41.79574
2014    11      2       0.1525191       40.26406
2014    11      3       0.1587623       41.57203
2014    11      4       0.1918892       48.59374
2014    11      5       0.2708036       64.34356
2014    11      6       0.2622025       62.69208
2014    11      7       0.2481102       59.99414
2014    12      0       0.1646824       43.14372
2014    12      1       0.1875854       47.95705
2014    12      2       0.1878629       47.94313
2014    12      3       0.1890431       48.1621
2014    12      4       0.2138493       53.42138
2014    12      5       0.2356932       57.87831
2014    12      6       0.1638623       43.29599
2014    12      7       0.1220598       34.28114
2014    13      0       0.09455365      28.0386
2014    13      1       0.09755011      28.78151
2014    13      2       0.09638223      28.46976
2014    13      3       0.09767824      28.72896
2014    13      4       0.1030242       29.86599
2014    13      5       0.1178199       33.25744
2014    13      6       0.1370812       37.90263
2014    13      7       0.1262332       35.74335
2014    14      0       0.1053395       30.97369
2014    14      1       0.09145271      27.68731
2014    14      2       0.083367        25.66915
2014    14      3       0.0908285       27.37789
2014    14      4       0.1214918       34.51349
2014    14      5       0.2018932       52.10687
2014    14      6       0.2529752       62.91905
2014    14      7       0.2325742       58.83811
2014    15      0       0.2093874       54.09013
2014    15      1       0.2083276       53.75198
2014    15      2       0.1780641       47.49586
2014    15      3       0.2025285       52.43426
2014    15      4       0.2259429       57.17992
2014    15      5       0.2748188       67.06821
2014    15      6       0.2359573       59.89655
2014    15      7       0.2479042       62.01966
2014    16      0       0.242975        60.84126
2014    16      1       0.3935365       88.51811
2014    16      2       0.416731        92.85434
2014    16      3       0.4716201       102.0834
2014    16      4       0.3881735       88.42992
2014    16      5       0.3506949       81.63627
2014    16      6       0.4689016       101.4558
2014    16      7       0.4531967       99.11134
2014    17      0       0.3961821       89.6653
2014    17      1       0.3677902       84.29718
2014    17      2       0.4166668       92.6647
2014    17      3       0.4067332       91.04373
2014    17      4       0.4110739       91.5363
2014    17      5       0.2809128       68.55642
2014    17      6       0.3050935       72.93001
2014    17      7       0.3735266       84.96565
2014    18      0       0.3034621       72.30951
2014    18      1       0.2986972       71.20018
2014    18      2       0.2366745       59.12378
2014    18      3       0.2006786       51.84397
2014    18      4       0.2038511       52.31634
2014    18      5       0.2404018       59.65348
2014    18      6       0.2187733       55.36492
2014    18      7       0.18368         48.04453
2014    19      0       0.1685238       44.67315
2014    19      1       0.1883048       48.74811
2014    19      2       0.207138        52.54206
2014    19      3       0.1822324       47.41561
2014    19      4       0.1908797       49.08532
2014    19      5       0.2108803       53.19825
2014    19      6       0.2017573       51.47322
2014    19      7       0.1940971       49.73524
2014    20      0       0.1610873       42.75631
2014    20      1       0.2679794       63.96759
2014    20      2       0.2134562       53.58699
2014    20      3       0.2167458       54.41601
2014    20      4       0.2847777       67.85667
2014    20      5       0.3006314       70.89896
2014    20      6       0.2418075       59.64865
2014    20      7       0.1939531       49.95441
2014    21      0       0.1627781       43.31724
2014    21      1       0.2490281       60.82463
2014    21      2       0.2381829       58.63771
2014    21      3       0.2421333       59.50763
2014    21      4       0.2972536       70.27738
2014    21      5       0.3595817       81.60149
2014    21      6       0.3306646       76.18169
2014    21      7       0.2285752       56.8806
2014    22      0       0.2164552       54.39054
2014    22      1       0.2462523       60.05644
2014    22      2       0.2051789       51.90173
2014    22      3       0.1981963       50.56891
2014    22      4       0.2003584       50.92727
2014    22      5       0.1886737       48.62436
2014    22      6       0.2007447       51.35364
2014    22      7       0.187165        48.58076
2014    23      0       0.1548218       41.75181
2014    23      1       0.1848775       47.87621
2014    23      2       0.1446366       39.29439
2014    23      3       0.1596658       42.46801
2014    23      4       0.2003891       51.19207
2014    23      5       0.2124257       53.68814
2014    23      6       0.1955957       50.44163
2014    23      7       0.2104815       53.6286
2014    24      0       0.1843247       48.30854
2014    24      1       0.1539966       41.67447
2014    24      2       0.1108798       32.03503
2014    24      3       0.09809771      29.0291
2014    24      4       0.1086612       31.40385
2014    24      5       0.1364857       37.71727
2014    24      6       0.1418494       39.05325
2014    24      7       0.1422459       39.13578
2014    25      0       0.1294035       36.30278
2014    25      1       0.113971        32.82104
2014    25      2       0.1126774       32.38447
2014    25      3       0.1163024       33.02367
2014    25      4       0.1274903       35.43585
2014    25      5       0.1469164       39.76971
2014    25      6       0.1411592       38.77972
2014    25      7       0.1159619       33.23129
2014    26      0       0.08554836      26.17337
2014    26      1       0.09097423      27.41928
2014    26      2       0.08806953      26.69375
2014    26      3       0.08700778      26.40657
2014    26      4       0.0948272       28.06943
2014    26      5       0.1387149       38.04392
2014    26      6       0.1977537       50.87466
2014    26      7       0.1654951       44.19721
2014    27      0       0.1503261       40.85159
2014    27      1       0.1676129       44.66627
2014    27      2       0.2062037       52.59045
2014    27      3       0.2254014       56.58635
2014    27      4       0.2684362       65.00078
2014    27      5       0.2902547       69.39614
2014    27      6       0.2544777       62.76272
2014    27      7       0.2022387       52.17768
2014    28      0       0.1658024       44.45875
2014    28      1       0.2206851       55.62272
2014    28      2       0.2288858       57.37173
2014    28      3       0.2277627       57.1716
2014    28      4       0.2737137       66.27609
2014    28      5       0.348755        80.03542
2014    28      6       0.2744905       66.40564
2014    28      7       0.20484         52.51606
2014    29      0       0.1805974       47.43934
2014    29      1       0.2242991       56.41535
2014    29      2       0.2398957       59.69971
2014    29      3       0.2491489       61.7991
2014    29      4       0.3252938       76.15964
2014    29      5       0.3675689       84.00788
2014    29      6       0.3220651       76.08945
2014    29      7       0.2611251       64.45642
2014    30      0       0.2112636       54.36249
2014    30      1       0.2069665       53.48729
2014    30      2       0.1984574       51.70363
2014    30      3       0.1783929       47.51196
2014    30      4       0.214465        54.90697
2014    30      5       0.2268245       57.67714
2014    30      6       0.1991664       52.07352
2014    30      7       0.1534428       42.20411
2015    1       0       0.07566709      23.09607
2015    1       1       0.1538365       40.54835
2015    1       2       0.1745991       44.92266
2015    1       3       0.168313        43.73591
2015    1       4       0.1901657       48.29274
2015    1       5       0.162803        42.7162
2015    1       6       0.1167336       32.70467
2015    1       7       0.08348934      25.07801
2015    2       0       0.06934078      21.75802
2015    2       1       0.07857966      24.03389
2015    2       2       0.09585706      27.87073
2015    2       3       0.1381717       37.0296
2015    2       4       0.1721341       44.45994
2015    2       5       0.1576392       41.60064
2015    2       6       0.1455343       39.10104
2015    2       7       0.146553        39.36051
2015    3       0       0.1438665       38.89872
2015    3       1       0.2016891       50.93161
2015    3       2       0.2208435       54.4591
2015    3       3       0.1707161       44.38329
2015    3       4       0.1791366       46.11096
2015    3       5       0.1881938       48.11132
2015    3       6       0.181106        46.84512
2015    3       7       0.1466255       39.48679
2015    4       0       0.1342196       36.7783
2015    4       1       0.2009263       50.52421
2015    4       2       0.2246385       55.25353
2015    4       3       0.1906757       48.63303
2015    4       4       0.2376679       58.16217
2015    4       5       0.2846072       67.39003
2015    4       6       0.258456        62.62251
2015    4       7       0.216552        54.39314
2015    5       0       0.2410872       59.20144
2015    5       1       0.3228026       74.65506
2015    5       2       0.2758882       65.89321
2015    5       3       0.296154        69.742
2015    5       4       0.3333793       76.73961
2015    5       5       0.2726755       65.3409
2015    5       6       0.1673735       44.00567
2015    5       7       0.1270707       35.30081
2015    6       0       0.09636663      28.32708
2015    6       1       0.1143162       32.35622
2015    6       2       0.1342638       36.80542
2015    6       3       0.1736916       45.23005
2015    6       4       0.2186864       54.69088
2015    6       5       0.2649754       63.95493
2015    6       6       0.2752174       66.00482
2015    6       7       0.2665342       64.23389
2015    7       0       0.2281414       56.73341
2015    7       1       0.3186751       74.32803
2015    7       2       0.2527708       61.59877
2015    7       3       0.248153        60.63787
2015    7       4       0.2707869       65.12931
2015    7       5       0.3077933       72.27832
2015    7       6       0.253254        62.13836
2015    7       7       0.228798        57.27985
2015    8       0       0.1788257       47.00685
2015    8       1       0.2111342       53.44149
2015    8       2       0.2355568       58.21178
2015    8       3       0.2924407       69.31134
2015    8       4       0.3512833       80.37994
2015    8       5       0.3716273       84.06231
2015    8       6       0.2344946       58.32926
2015    8       7       0.2377905       58.81043
2015    9       0       0.2167495       54.57705
2015    9       1       0.3083492       72.38161
2015    9       2       0.249765        61.16469
2015    9       3       0.2555109       62.14525
2015    9       4       0.2420631       59.26005
2015    9       5       0.109392        31.07204
2015    9       6       0.06112531      19.64906
2015    9       7       0.05684939      18.44119
2015    10      0       0.05102493      17.12311
2015    10      1       0.04951629      16.99335
2015    10      2       0.04413735      15.76751
2015    10      3       0.04468696      15.94148
2015    10      4       0.04910861      17.01745
2015    10      5       0.05961439      19.65789
2015    10      6       0.05404775      18.36878
2015    10      7       0.04199353      15.34731
2015    11      0       0.04012296      14.80254
2015    11      1       0.05517303      18.58175
2015    11      2       0.05971026      19.71208
2015    11      3       0.07077965      22.29248
2015    11      4       0.08160168      24.70824
2015    11      5       0.1230998       34.10345
2015    11      6       0.1846886       47.47312
2015    11      7       0.1663396       43.86671
2015    12      0       0.1557172       41.69122
2015    12      1       0.1739529       45.49176
2015    12      2       0.214337        53.61082
2015    12      3       0.2367101       58.24831
2015    12      4       0.2839155       67.47893
2015    12      5       0.2269246       56.47229
2015    12      6       0.2386631       58.79164
2015    12      7       0.276702        66.20319
2015    13      0       0.2528437       61.64107
2015    13      1       0.2802854       66.82725
2015    13      2       0.2493032       60.73188
2015    13      3       0.2605331       62.9714
2015    13      4       0.2437453       59.73146
2015    13      5       0.200382        51.06457
2015    13      6       0.1830514       47.57086
2015    13      7       0.1761948       46.06012
2015    14      0       0.1725606       45.30765
2015    14      1       0.2796792       66.32227
2015    14      2       0.2266503       56.21197
2015    14      3       0.2543149       61.8231
2015    14      4       0.2748566       66.07649
2015    14      5       0.3158936       73.92059
2015    14      6       0.2836004       67.95268
2015    14      7       0.3625482       82.23745
2015    15      0       0.3052652       71.74756
2015    15      1       0.2773906       66.42923
2015    15      2       0.2529084       61.52296
2015    15      3       0.2325923       57.48759
2015    15      4       0.2237916       55.63099
2015    15      5       0.2381064       58.59136
2015    15      6       0.2152983       54.23488
2015    15      7       0.1865148       48.3538
2015    16      0       0.1646066       43.68543
2015    16      1       0.2242291       55.34261
2015    16      2       0.1760226       45.7974
2015    16      3       0.1627301       42.8892
2015    16      4       0.1445755       38.9681
2015    16      5       0.1662879       43.61109
2015    16      6       0.1633437       43.11732
2015    16      7       0.1292976       35.87505
2015    17      0       0.1134441       32.38289
2015    17      1       0.1149897       32.7409
2015    17      2       0.1264181       35.22987
2015    17      3       0.1333721       36.66881
2015    17      4       0.1205966       33.87567
2015    17      5       0.1399784       38.20308
2015    17      6       0.170079        44.7258
2015    17      7       0.1485897       40.2864
2015    18      0       0.1139481       32.68654
2015    18      1       0.1017902       29.91521
2015    18      2       0.095629        28.40032
2015    18      3       0.08770408      26.46921
2015    18      4       0.09015484      26.91236
2015    18      5       0.0994727       29.13399
2015    18      6       0.1186947       33.63449
2015    18      7       0.1436842       39.38812
2015    19      0       0.1514197       41.18801
2015    19      1       0.1702693       45.04152
2015    19      2       0.224842        56.32464
2015    19      3       0.255872        62.5002
2015    19      4       0.2260195       56.65404
2015    19      5       0.3035968       71.46403
2015    19      6       0.3327226       77.17315
2015    19      7       0.206713        53.23603
2015    20      0       0.2053871       52.63618
2015    20      1       0.2651741       64.22334
2015    20      2       0.3218373       74.48876
2015    20      3       0.3186768       74.28662
2015    20      4       0.3298775       76.26951
2015    20      5       0.2520163       61.96757
2015    20      6       0.1655736       44.2956
2015    20      7       0.1384852       38.30561
2015    21      0       0.1416948       38.90096
2015    21      1       0.2727398       65.32588
2015    21      2       0.2308783       57.20192
2015    21      3       0.2048514       51.90112
2015    21      4       0.2030199       51.45375
2015    21      5       0.1823016       47.32377
2015    21      6       0.2106909       53.17074
2015    21      7       0.213877        53.73364
2015    22      0       0.1701441       44.89477
2015    22      1       0.1974131       50.48051
2015    22      2       0.1879628       48.45544
2015    22      3       0.1695739       44.50053
2015    22      4       0.1754435       45.77067
2015    22      5       0.1555771       41.67347
2015    22      6       0.1454823       39.58822
2015    22      7       0.1362335       37.61613
2015    23      0       0.1195461       33.87863
2015    23      1       0.1713356       44.76866
2015    23      2       0.1863804       47.9507
2015    23      3       0.2075558       52.48965
2015    23      4       0.2077982       52.58796
2015    23      5       0.1912327       49.25642
2015    23      6       0.2283818       56.48592
2015    23      7       0.2317178       57.19352
2015    24      0       0.2229665       55.50614
2015    24      1       0.3348898       76.42166
2015    24      2       0.4121743       89.7946
2015    24      3       0.4109591       89.91263
2015    24      4       0.4113885       90.39761
2015    24      5       0.431023        93.7829
2015    24      6       0.403356        89.30281
2015    24      7       0.3923772       87.48963
2015    25      0       0.3993454       88.345
2015    25      1       0.457241        97.02841
2015    25      2       0.411414        89.3812
2015    25      3       0.3995959       87.39076
2015    25      4       0.4107657       89.53885
2015    25      5       0.3815528       85.01745
2015    25      6       0.3487201       79.4129
2015    25      7       0.2783807       66.54675
2015    26      0       0.2411467       59.17135
2015    26      1       0.3622204       81.31704
2015    26      2       0.2881014       68.03432
2015    26      3       0.2080437       52.46938
2015    26      4       0.1848435       47.60116
2015    26      5       0.172727        45.15267
2015    26      6       0.1401356       38.24213
2015    26      7       0.09079873      27.05974
2015    27      0       0.06555397      20.93042
2015    27      1       0.0896733       26.69801
2015    27      2       0.1106187       31.49733
2015    27      3       0.1699442       44.24662
2015    27      4       0.1787246       46.21432
2015    27      5       0.1957083       49.81028
2015    27      6       0.1988639       50.5393
2015    27      7       0.1523796       40.7299
2015    28      0       0.1398867       38.07955
2015    28      1       0.1416517       38.66812
2015    28      2       0.1617312       42.87364
2015    28      3       0.2213262       55.16694
2015    28      4       0.2341473       57.51946
2015    28      5       0.2334064       57.43701
2015    28      6       0.2551137       61.77472
2015    28      7       0.2309118       57.35817
2015    29      0       0.2384471       58.93714
2015    29      1       0.3351061       77.08886
2015    29      2       0.321536        74.37834
2015    29      3       0.3444922       78.84536
2015    29      4       0.3897421       87.10938
2015    29      5       0.4031871       89.49751
2015    29      6       0.4247494       93.03245
2015    29      7       0.4228241       92.74684
2015    30      0       0.3868282       86.90293
2015    30      1       0.3984241       88.58162
2015    30      2       0.4056118       89.44374
2015    30      3       0.3894101       86.97629
2015    30      4       0.433245        94.17093
2015    30      5       0.3793488       85.57483
2015    30      6       0.3143872       74.32871
2015    30      7       0.2886367       69.54093
2016    1       0       0.09261636      27.4877
2016    1       1       0.09022184      26.78615
2016    1       2       0.107785        30.66301
2016    1       3       0.1690817       44.01432
2016    1       4       0.1354879       37.24461
2016    1       5       0.1654749       43.72714
2016    1       6       0.1913261       49.10078
2016    1       7       0.3164158       73.02512
2016    2       0       0.3051361       71.70108
2016    2       1       0.2121764       53.3957
2016    2       2       0.2270697       56.39533
2016    2       3       0.240369        59.28728
2016    2       4       0.1852721       48.22007
2016    2       5       0.2596193       63.01518
2016    2       6       0.3127357       73.07213
2016    2       7       0.2038291       51.72898
2016    3       0       0.2534736       61.25687
2016    3       1       0.3882246       86.43105
2016    3       2       0.3353039       76.78677
2016    3       3       0.3226839       74.25814
2016    3       4       0.2228507       55.98471
2016    3       5       0.1539012       41.38366
2016    3       6       0.06827431      21.70774
2016    3       7       0.05348773      18.05067
2016    4       0       0.09627697      28.14532
2016    4       1       0.1258081       34.82341
2016    4       2       0.1948491       49.41508
2016    4       3       0.2228623       55.44663
2016    4       4       0.2455196       60.3465
2016    4       5       0.2378394       58.89364
2016    4       6       0.2294201       56.96571
2016    4       7       0.1658765       43.7347
2016    5       0       0.08421913      25.44334
2016    5       1       0.06628564      21.32071
2016    5       2       0.08101956      24.88906
2016    5       3       0.0991009       29.12806
2016    5       4       0.1281569       35.66554
2016    5       5       0.1686249       44.37633
2016    5       6       0.1717178       45.36582
2016    5       7       0.1609075       43.17012
2016    6       0       0.1411061       38.81359
2016    6       1       0.1401698       38.44237
2016    6       2       0.1339687       36.97687
2016    6       3       0.1505154       40.39838
2016    6       4       0.1853127       47.73733
2016    6       5       0.2985167       70.33406
2016    6       6       0.3109538       72.45093
2016    6       7       0.2841108       67.22685
2016    7       0       0.2080257       52.63945
2016    7       1       0.2595422       63.33875
2016    7       2       0.2293946       57.16795
2016    7       3       0.2275709       56.44279
2016    7       4       0.2343418       57.94374
2016    7       5       0.2727328       65.60503
2016    7       6       0.29747         70.53418
2016    7       7       0.231515        57.77103
2016    8       0       0.1817124       47.41737
2016    8       1       0.202271        51.6078
2016    8       2       0.3076742       71.15761
2016    8       3       0.3285518       74.96527
2016    8       4       0.3550072       79.77004
2016    8       5       0.3216349       74.48629
2016    8       6       0.2470175       60.78942
2016    8       7       0.2233093       56.03686
2016    9       0       0.2006449       51.32543
2016    9       1       0.2909151       69.00522
2016    9       2       0.3018406       70.84874
2016    9       3       0.307686        71.74706
2016    9       4       0.3373682       77.37291
2016    9       5       0.3465964       79.58241
2016    9       6       0.2632632       64.22133
2016    9       7       0.210552        53.50928
2016    10      0       0.1648109       43.72023
2016    10      1       0.2148655       54.44151
2016    10      2       0.2592832       63.27143
2016    10      3       0.2444284       60.43341
2016    10      4       0.3214929       75.21062
2016    10      5       0.3790606       85.56206
2016    10      6       0.3025699       71.80619
2016    10      7       0.2434354       60.2874
2016    11      0       0.2473739       60.9754
2016    11      1       0.2826299       67.96939
2016    11      2       0.3088772       73.01626
2016    11      3       0.3378808       78.27262
2016    11      4       0.3552883       81.74851
2016    11      5       0.3466427       80.41121
2016    11      6       0.3229162       76.17482
2016    11      7       0.2762435       67.25766
2016    12      0       0.260393        64.08098
2016    12      1       0.387584        87.19895
2016    12      2       0.4200381       92.32581
2016    12      3       0.3832598       86.06128
2016    12      4       0.4177628       92.17254
2016    12      5       0.3942031       88.8465
2016    12      6       0.3667039       84.40289
2016    12      7       0.3263349       76.9931
2016    13      0       0.2933165       70.55053
2016    13      1       0.3723353       84.82082
2016    13      2       0.3531411       81.45784
2016    13      3       0.3182582       75.52897
2016    13      4       0.3538348       82.16941
2016    13      5       0.3993797       90.34276
2016    13      6       0.4195855       93.93927
2016    13      7       0.392974        89.54248
2016    14      0       0.3191772       76.30369
2016    14      1       0.3417663       80.1945
2016    14      2       0.3182841       75.72026
2016    14      3       0.3103794       74.22927
2016    14      4       0.3424872       79.89776
2016    14      5       0.3415409       79.78058
2016    14      6       0.3314303       77.85361
2016    14      7       0.2976359       71.4568
2016    15      0       0.3493894       80.71362
2016    15      1       0.4450622       96.89048
2016    15      2       0.3886616       87.47013
2016    15      3       0.3561634       81.946
2016    15      4       0.2774626       67.41455
2016    15      5       0.2475623       61.42078
2016    15      6       0.3000396       71.49767
2016    15      7       0.2760758       67.04933
2016    16      0       0.2902693       69.79463
2016    16      1       0.3476481       80.3942
2016    16      2       0.3436273       79.2999
2016    16      3       0.2907192       69.48126
2016    16      4       0.2827504       67.85489
2016    16      5       0.329352        76.52201
2016    16      6       0.2406545       59.51886
2016    16      7       0.175928        46.51676
2016    17      0       0.1778605       47.17902
2016    17      1       0.1968712       51.02947
2016    17      2       0.1645982       44.32752
2016    17      3       0.1410306       39.12556
2016    17      4       0.1530745       41.75196
2016    17      5       0.1286902       36.44771
2016    17      6       0.07643181      24.1992
2016    17      7       0.06316357      20.89635
2016    18      0       0.03583222      13.85109
2016    18      1       0.04862077      17.18231
2016    18      2       0.06526411      21.29289
2016    18      3       0.0782155       24.46811
2016    18      4       0.08890288      26.98351
2016    18      5       0.08907953      27.00281
2016    18      6       0.1002504       29.70721
2016    18      7       0.1070849       31.38063
2016    19      0       0.09130616      27.6519
2016    19      1       0.08467693      26.01868
2016    19      2       0.08699347      26.52201
2016    19      3       0.1008935       29.78411
2016    19      4       0.1147281       33.02727
2016    19      5       0.127397        35.99958
2016    19      6       0.1725479       46.18122
2016    19      7       0.1714597       45.98862
2016    20      0       0.1446434       40.07926
2016    20      1       0.1325135       37.28526
2016    20      2       0.1402114       38.99008
2016    20      3       0.158461        43.01834
2016    20      4       0.1678397       44.96369
2016    20      5       0.1545038       42.08297
2016    20      6       0.1341595       37.6432
2016    20      7       0.1011399       30.03182
2016    21      0       0.07568773      23.89361
2016    21      1       0.0704523       22.53689
2016    21      2       0.07569073      23.75691
2016    21      3       0.08879574      26.91228
2016    21      4       0.1053147       30.76059
2016    21      5       0.1128675       32.57755
2016    21      6       0.1019842       30.08621
2016    21      7       0.09723936      28.87007
2016    22      0       0.07901315      24.39515
2016    22      1       0.08914584      26.88102
2016    22      2       0.1065193       30.90922
2016    22      3       0.1134295       32.4892
2016    22      4       0.1191805       33.74759
2016    22      5       0.1600209       42.72837
2016    22      6       0.1571666       42.10279
2016    22      7       0.1005162       29.43874
2016    23      0       0.06668913      21.35576
2016    23      1       0.0588984       19.43379
2016    23      2       0.0696117       21.95929
2016    23      3       0.08120728      24.76643
2016    23      4       0.0908368       27.01885
2016    23      5       0.1022636       29.75557
2016    23      6       0.0874415       26.33998
2016    23      7       0.06602282      21.17028
2016    24      0       0.05113433      17.4864
2016    24      1       0.05768198      19.15443
2016    24      2       0.06155658      20.09922
2016    24      3       0.06519908      20.99639
2016    24      4       0.06668847      21.35666
2016    24      5       0.07456167      23.24185
2016    24      6       0.08650708      26.12701
2016    24      7       0.08729211      26.37653
2016    25      0       0.07359775      23.17953
2016    25      1       0.07744385      24.11613
2016    25      2       0.08045712      24.76547
2016    25      3       0.08601655      26.00862
2016    25      4       0.089019        26.64253
2016    25      5       0.09328828      27.54681
2016    25      6       0.09065946      27.04399
2016    25      7       0.09215539      27.41879
2016    26      0       0.09594646      28.25567
2016    26      1       0.09027204      26.9891
2016    26      2       0.09202848      27.46764
2016    26      3       0.09828122      28.95513
2016    26      4       0.103545        30.14748
2016    26      5       0.1489402       40.10772
2016    26      6       0.2497138       61.08132
2016    26      7       0.3120804       73.07414
2016    27      0       0.3267131       75.78129
2016    27      1       0.3561883       81.45077
2016    27      2       0.3626108       82.43174
2016    27      3       0.3285752       76.72572
2016    27      4       0.288464        69.29101
2016    27      5       0.2666939       65.19294
2016    27      6       0.3863652       86.74383
2016    27      7       0.3654446       83.36601
2016    28      0       0.2211613       56.0957
2016    28      1       0.2603014       63.86342
2016    28      2       0.2621868       64.1995
2016    28      3       0.2600895       63.87728
2016    28      4       0.2929673       70.27465
2016    28      5       0.3042228       72.4274
2016    28      6       0.2896463       69.79569
2016    28      7       0.2662416       65.08874
2016    29      0       0.1513062       41.09115
2016    29      1       0.1230426       35.01447
2016    29      2       0.1101316       32.15423
2016    29      3       0.1233329       35.14125
2016    29      4       0.1601292       43.10093
2016    29      5       0.2098424       53.60635
2016    29      6       0.2375112       59.89289
2016    29      7       0.2351892       59.657
2016    30      0       0.2332655       59.27949
2016    30      1       0.2810819       68.20933
2016    30      2       0.3348169       78.07245
2016    30      3       0.3516663       81.41776
2016    30      4       0.3696322       84.83867
2016    30      5       0.3317916       78.04241
2016    30      6       0.2742369       67.24264
2016    30      7       0.2461848       61.76174
2017    1       0       0.1228997       34.27487
2017    1       1       0.1897384       48.25214
2017    1       2       0.1780927       45.87304
2017    1       3       0.1639353       42.9147
2017    1       4       0.1540552       40.86615
2017    1       5       0.1585699       42.01645
2017    1       6       0.1279405       35.54263
2017    1       7       0.08961349      26.72469
2017    2       0       0.06722768      21.36981
2017    2       1       0.08492529      25.50376
2017    2       2       0.08790945      26.24743
2017    2       3       0.1036845       29.92209
2017    2       4       0.1250917       34.78468
2017    2       5       0.1404892       38.34843
2017    2       6       0.1295865       35.99176
2017    2       7       0.1100741       31.51531
2017    3       0       0.1062704       30.48778
2017    3       1       0.1723205       45.38637
2017    3       2       0.1621999       43.29578
2017    3       3       0.2253511       56.36783
2017    3       4       0.3200942       74.1051
2017    3       5       0.2657606       64.55007
2017    3       6       0.1939159       50.48883
2017    3       7       0.1768618       46.80802
2017    4       0       0.1722556       45.93112
2017    4       1       0.1683099       45.11924
2017    4       2       0.3117138       73.53826
2017    4       3       0.2743739       66.34993
2017    4       4       0.287616        68.20134
2017    4       5       0.1790989       47.06933
2017    4       6       0.156984        42.43812
2017    4       7       0.1631578       43.64303
2017    5       0       0.1514375       40.97059
2017    5       1       0.1581609       42.29962
2017    5       2       0.1381278       37.87117
2017    5       3       0.1576786       42.05538
2017    5       4       0.1955865       49.95189
2017    5       5       0.1940259       49.74356
2017    5       6       0.1716187       45.31322
2017    5       7       0.1495747       40.57758
2017    6       0       0.195945        50.30249
2017    6       1       0.2580612       62.49027
2017    6       2       0.2248884       56.00436
2017    6       3       0.2473264       60.41404
2017    6       4       0.2007084       50.98942
2017    6       5       0.2038685       51.55959
2017    6       6       0.113131        32.28798
2017    6       7       0.08091449      24.86675
2017    7       0       0.08702116      26.2703
2017    7       1       0.1625817       42.97427
2017    7       2       0.1265128       35.13518
2017    7       3       0.1387075       37.7766
2017    7       4       0.1471933       39.56902
2017    7       5       0.1484357       39.87972
2017    7       6       0.1301507       36.00159
2017    7       7       0.1101353       31.58138
2017    8       0       0.08936508      26.80537
2017    8       1       0.08713362      26.24649
2017    8       2       0.0881147       26.43653
2017    8       3       0.102198        29.58318
2017    8       4       0.1261611       34.83978
2017    8       5       0.1510972       40.3437
2017    8       6       0.1297531       35.98821
2017    8       7       0.1195897       33.72984
2017    9       0       0.1228058       34.40258
2017    9       1       0.144331        39.02369
2017    9       2       0.1764381       45.51674
2017    9       3       0.1714397       44.504
2017    9       4       0.1981857       50.15998
2017    9       5       0.2393616       58.61907
2017    9       6       0.2073045       52.45138
2017    9       7       0.1878151       48.40783
2017    10      0       0.18255         47.11308
2017    10      1       0.2411076       58.62627
2017    10      2       0.1921078       48.89726
2017    10      3       0.1822514       46.79758
2017    10      4       0.2076385       52.1373
2017    10      5       0.2340917       57.51681
2017    10      6       0.1924957       49.25377
2017    10      7       0.1924336       49.32318
2017    11      0       0.1489959       40.16194
2017    11      1       0.1877219       48.29215
2017    11      2       0.1807641       46.83663
2017    11      3       0.1915116       48.89143
2017    11      4       0.2510505       60.97096
2017    11      5       0.2802082       66.82664
2017    11      6       0.214838        54.16309
2017    11      7       0.178425        46.63067
2017    12      0       0.1856825       48.14617
2017    12      1       0.2094334       53.10348
2017    12      2       0.2280665       56.76412
2017    12      3       0.2428584       59.58132
2017    12      4       0.2965717       69.99839
2017    12      5       0.3350865       77.06999
2017    12      6       0.3215356       74.77429
2017    12      7       0.3171493       74.11977
2017    13      0       0.3336613       77.06547
2017    13      1       0.3272331       75.69315
2017    13      2       0.2607461       63.10702
2017    13      3       0.2765312       66.20602
2017    13      4       0.3319243       76.64288
2017    13      5       0.3594175       81.54676
2017    13      6       0.3607722       81.88514
2017    13      7       0.3367803       77.65497
2017    14      0       0.2966236       70.26608
2017    14      1       0.3362438       77.36467
2017    14      2       0.2701195       65.09998
2017    14      3       0.271342        65.28883
2017    14      4       0.3113278       72.95089
2017    14      5       0.2931651       69.61209
2017    14      6       0.2479393       60.88073
2017    14      7       0.2255904       56.20496
2017    15      0       0.190944        48.95305
2017    15      1       0.2112501       52.9599
2017    15      2       0.1780669       46.2948
2017    15      3       0.1546328       41.31884
2017    15      4       0.1542238       41.36885
2017    15      5       0.147332        40.061
2017    15      6       0.123484        34.91326
2017    15      7       0.090712        27.23129
2017    16      0       0.08159518      24.98547
2017    16      1       0.1047324       30.36662
2017    16      2       0.1227285       34.40662
2017    16      3       0.1610581       42.61445
2017    16      4       0.2206479       55.16592
2017    16      5       0.2131171       53.83436
2017    16      6       0.1641218       43.88718
2017    16      7       0.186347        48.48506
2017    17      0       0.1451443       39.64247
2017    17      1       0.1801704       46.90133
2017    17      2       0.1635604       43.36351
2017    17      3       0.1943677       49.56833
2017    17      4       0.2317355       57.30909
2017    17      5       0.1895846       48.79631
2017    17      6       0.1550623       41.55176
2017    17      7       0.1434462       39.0006
2017    18      0       0.14754         39.86846
2017    18      1       0.1523342       41.05629
2017    18      2       0.207793        52.56892
2017    18      3       0.2468169       60.08021
2017    18      4       0.2747619       65.78724
2017    18      5       0.2514409       61.62419
2017    18      6       0.2103106       53.37491
2017    18      7       0.1872996       48.58393
2017    19      0       0.1731929       45.60241
2017    19      1       0.2894376       68.32645
2017    19      2       0.3219253       74.47082
2017    19      3       0.2902356       69.02656
2017    19      4       0.3156644       74.01813
2017    19      5       0.3724073       84.30848
2017    19      6       0.3373824       78.30536
2017    19      7       0.310077        73.23301
2017    20      0       0.308481        72.77202
2017    20      1       0.4065192       89.11465
2017    20      2       0.4138954       90.25186
2017    20      3       0.4276635       92.65245
2017    20      4       0.4082025       89.84707
2017    20      5       0.3910156       87.39244
2017    20      6       0.2814837       67.61501
2017    20      7       0.2277967       56.93667
2017    21      0       0.2474795       60.50897
2017    21      1       0.3075367       72.02209
2017    21      2       0.3393782       78.19276
2017    21      3       0.4053819       89.51418
2017    21      4       0.4313378       93.98341
2017    21      5       0.372805        84.51902
2017    21      6       0.3185591       74.83605
2017    21      7       0.2708028       65.73847
2017    22      0       0.2058384       52.53585
2017    22      1       0.2059237       52.55958
2017    22      2       0.2077731       52.98399
2017    22      3       0.2506711       61.40798
2017    22      4       0.3003759       71.11234
2017    22      5       0.2897266       69.20332
2017    22      6       0.2090064       53.66488
2017    22      7       0.1464123       40.38622
2017    23      0       0.1234444       35.19107
2017    23      1       0.1794056       47.41233
2017    23      2       0.1829906       48.08939
2017    23      3       0.1943551       50.37802
2017    23      4       0.1971728       50.95615
2017    23      5       0.1809578       47.7133
2017    23      6       0.1874079       49.31474
2017    23      7       0.1765266       47.16141
2017    24      0       0.1659103       44.79995
2017    24      1       0.1846497       48.69303
2017    24      2       0.1649847       44.44845
2017    24      3       0.1897163       49.68697
2017    24      4       0.2456844       61.25357
2017    24      5       0.250049        62.46188
2017    24      6       0.2097466       54.2261
2017    24      7       0.1394799       38.92702
2017    25      0       0.0801966       24.99635
2017    25      1       0.09710863      28.97729
2017    25      2       0.1135648       32.70503
2017    25      3       0.1392641       38.53428
2017    25      4       0.1770295       46.74376
2017    25      5       0.1412394       38.9853
2017    25      6       0.08591956      26.31524
2017    25      7       0.05977527      19.99427
2017    26      0       0.04624029      16.57898
2017    26      1       0.05279192      18.23165
2017    26      2       0.08009886      24.9227
2017    26      3       0.1684288       45.22906
2017    26      4       0.246707        61.66549
2017    26      5       0.2173129       55.75654
2017    26      6       0.1885869       49.59053
2017    26      7       0.145845        40.30747
2017    27      0       0.1077631       31.53414
2017    27      1       0.1431519       39.58761
2017    27      2       0.1466774       40.32372
2017    27      3       0.1497775       41.101
2017    27      4       0.1902482       49.69479
2017    27      5       0.2629664       64.09472
2017    27      6       0.3263255       76.07313
2017    27      7       0.2920254       69.92428
2017    28      0       0.191469        49.72541
2017    28      1       0.2754366       65.83219
2017    28      2       0.3190732       74.02862
2017    28      3       0.3122166       73.13399
2017    28      4       0.2610684       63.58742
2017    28      5       0.2826739       67.50472
2017    28      6       0.2324604       57.72486
2017    28      7       0.136048        37.6065
2017    29      0       0.1525354       40.80909
2017    29      1       0.1330718       36.57559
2017    29      2       0.1148077       32.64704
2017    29      3       0.09330393      27.8355
2017    29      4       0.09911064      29.17313
2017    29      5       0.1242354       35.03593
2017    29      6       0.159617        43.08456
2017    29      7       0.1756095       46.4878
2017    30      0       0.1715971       45.6668
2017    30      1       0.1699718       45.37233
2017    30      2       0.1695636       45.09555
2017    30      3       0.1868366       48.53173
2017    30      4       0.2011136       51.60295
2017    30      5       0.2814821       67.79677
2017    30      6       0.3003849       71.76208
2017    30      7       0.267942        65.7351
2018    1       0       0.1204306       34.02679
2018    1       1       0.1674537       44.35016
2018    1       2       0.1520933       41.07796
2018    1       3       0.1295381       36.1649
2018    1       4       0.1345146       37.22789
2018    1       5       0.1455182       39.80924
2018    1       6       0.1526524       41.47177
2018    1       7       0.1278499       36.08442
2018    2       0       0.09267656      27.90043
2018    2       1       0.08646565      26.31302
2018    2       2       0.09425539      28.01255
2018    2       3       0.1062087       30.63865
2018    2       4       0.1125932       32.12837
2018    2       5       0.1219444       34.27495
2018    2       6       0.1365603       37.51475
2018    2       7       0.1422339       38.71678
2018    3       0       0.1377151       37.8195
2018    3       1       0.1453905       39.74639
2018    3       2       0.169941        45.0221
2018    3       3       0.1871431       48.79547
2018    3       4       0.2328642       58.32729
2018    3       5       0.2464398       61.26229
2018    3       6       0.1872751       49.14499
2018    3       7       0.1995257       51.75705
2018    4       0       0.1639907       44.29394
2018    4       1       0.1833036       48.41386
2018    4       2       0.2610415       64.19309
2018    4       3       0.2905344       69.67521
2018    4       4       0.253172        62.65048
2018    4       5       0.2340097       59.35384
2018    4       6       0.1344513       38.0342
2018    4       7       0.1123337       32.80697
2018    5       0       0.0953885       28.62942
2018    5       1       0.1599547       43.17889
2018    5       2       0.206047        52.64052
2018    5       3       0.1792776       47.05517
2018    5       4       0.171592        45.34057
2018    5       5       0.1516943       41.12812
2018    5       6       0.112142        32.29821
2018    5       7       0.08931889      27.01496
2018    6       0       0.05982232      19.8484
2018    6       1       0.05934714      19.77045
2018    6       2       0.06887152      22.07648
2018    6       3       0.07677655      23.91173
2018    6       4       0.08902525      26.76526
2018    6       5       0.115708        33.0352
2018    6       6       0.1588008       42.99468
2018    6       7       0.1715454       45.77031
2018    7       0       0.1607239       43.45005
2018    7       1       0.1828718       47.97352
2018    7       2       0.1539096       41.65613
2018    7       3       0.1700856       45.09993
2018    7       4       0.2174046       54.96339
2018    7       5       0.2241982       56.11923
2018    7       6       0.1814132       47.55104
2018    7       7       0.178728        47.07378
2018    8       0       0.212828        54.05137
2018    8       1       0.3123103       73.31264
2018    8       2       0.2724452       65.66667
2018    8       3       0.2124578       53.89627
2018    8       4       0.1984439       51.05382
2018    8       5       0.2296367       57.3388
2018    8       6       0.2333765       58.27974
2018    8       7       0.2351494       58.67206
2018    9       0       0.2112704       53.69594
2018    9       1       0.3118318       72.48805
2018    9       2       0.2260522       56.39838
2018    9       3       0.2129024       53.7981
2018    9       4       0.2058256       52.44027
2018    9       5       0.2720674       65.28901
2018    9       6       0.2973661       69.93955
2018    9       7       0.1911721       49.4366
2018    10      0       0.1327972       36.98662
2018    10      1       0.1785588       46.53463
2018    10      2       0.2713062       65.03615
2018    10      3       0.3096825       72.6366
2018    10      4       0.3455962       79.02742
2018    10      5       0.2663104       64.50515
2018    10      6       0.186144        48.46586
2018    10      7       0.1918469       49.30588
2018    11      0       0.1584326       42.00061
2018    11      1       0.1477668       39.79245
2018    11      2       0.1237786       34.59212
2018    11      3       0.1321992       36.31051
2018    11      4       0.1653757       43.48717
2018    11      5       0.1819431       47.10157
2018    11      6       0.1544455       41.38814
2018    11      7       0.1161937       33.06216
2018    12      0       0.07977166      24.62893
2018    12      1       0.09059605      27.17753
2018    12      2       0.09117869      27.21634
2018    12      3       0.09265791      27.43302
2018    12      4       0.1039701       30.03223
2018    12      5       0.1294618       35.95336
2018    12      6       0.1344804       37.24407
2018    12      7       0.1258262       35.39314
2018    13      0       0.1107816       31.97028
2018    13      1       0.1372191       37.90095
2018    13      2       0.1593036       42.43368
2018    13      3       0.174879        45.5273
2018    13      4       0.175864        45.83565
2018    13      5       0.1709482       44.99276
2018    13      6       0.1533599       41.54096
2018    13      7       0.1389263       38.44715
2018    14      0       0.1206844       34.28822
2018    14      1       0.1353266       37.56371
2018    14      2       0.14525         39.55252
2018    14      3       0.1772079       46.284
2018    14      4       0.2364911       58.77333
2018    14      5       0.2464491       60.91605
2018    14      6       0.199007        51.23764
2018    14      7       0.1825195       47.52988
2018    15      0       0.1286731       35.98941
2018    15      1       0.1960752       50.41213
2018    15      2       0.2748218       66.10023
2018    15      3       0.3057075       72.21015
2018    15      4       0.2736149       66.17956
2018    15      5       0.2559786       62.60944
2018    15      6       0.2180227       55.40045
2018    15      7       0.219014        55.52186
2018    16      0       0.1964054       50.55405
2018    16      1       0.209005        52.88058
2018    16      2       0.1868433       48.16002
2018    16      3       0.1980644       50.46141
2018    16      4       0.2582004       62.70012
2018    16      5       0.3010183       71.14066
2018    16      6       0.2533041       62.23953
2018    16      7       0.1975068       51.09968
2018    17      0       0.1547804       42.11796
2018    17      1       0.1469848       40.25885
2018    17      2       0.1291894       36.20886
2018    17      3       0.1416494       38.79452
2018    17      4       0.1858213       48.231
2018    17      5       0.2869634       68.58026
2018    17      6       0.2934416       70.03943
2018    17      7       0.2465189       61.04123
2018    18      0       0.1922226       50.23804
2018    18      1       0.1611369       43.21064
2018    18      2       0.1275079       35.78036
2018    18      3       0.1213321       34.32518
2018    18      4       0.1258824       35.33458
2018    18      5       0.2127776       54.24609
2018    18      6       0.3096104       73.82955
2018    18      7       0.3363099       78.81852
2018    19      0       0.2919108       70.22012
2018    19      1       0.3655333       82.58519
2018    19      2       0.2660872       64.62968
2018    19      3       0.2041234       52.26096
2018    19      4       0.1684656       44.72055
2018    19      5       0.1994856       51.45681
2018    19      6       0.1988288       51.52672
2018    19      7       0.1684329       45.04163
2018    20      0       0.1270341       35.78706
2018    20      1       0.1120123       32.17214
2018    20      2       0.1240146       34.7414
2018    20      3       0.1714898       45.03602
2018    20      4       0.2021657       51.63081
2018    20      5       0.2353629       58.45817
2018    20      6       0.2545101       62.35517
2018    20      7       0.1867104       48.67504
2018    21      0       0.1122037       32.20366
2018    21      1       0.1094503       31.47161
2018    21      2       0.1072867       30.92076
2018    21      3       0.1169166       33.15043
2018    21      4       0.1523          40.90279
2018    21      5       0.1906572       49.20519
2018    21      6       0.2072572       52.80968
2018    21      7       0.1847913       48.264
2018    22      0       0.1966291       50.57826
2018    22      1       0.2008999       51.29176
2018    22      2       0.1522218       41.05114
2018    22      3       0.1498093       40.27619
2018    22      4       0.1582234       42.19657
2018    22      5       0.2121491       53.57475
2018    22      6       0.206964        52.96094
2018    22      7       0.228626        57.12205
2018    23      0       0.1931131       49.84004
2018    23      1       0.2020921       51.67463
2018    23      2       0.2210165       55.46249
2018    23      3       0.2276208       56.84034
2018    23      4       0.2036735       51.9067
2018    23      5       0.1898828       49.10151
2018    23      6       0.1714289       45.54751
2018    23      7       0.1809933       47.56926
2018    24      0       0.1408136       38.81045
2018    24      1       0.1175082       33.39459
2018    24      2       0.1090591       31.37973
2018    24      3       0.1377912       37.76262
2018    24      4       0.1867466       48.22021
2018    24      5       0.2239472       55.81076
2018    24      6       0.1995449       50.97006
2018    24      7       0.2150508       54.41703
2018    25      0       0.1385638       38.2134
2018    25      1       0.1407772       38.70294
2018    25      2       0.1209528       34.179
2018    25      3       0.138077        37.89003
2018    25      4       0.1526252       41.10386
2018    25      5       0.1574595       42.24389
2018    25      6       0.1568048       42.16959
2018    25      7       0.1457577       39.76475
2018    26      0       0.1285475       35.83703
2018    26      1       0.1220738       34.29882
2018    26      2       0.09044708      26.99162
2018    26      3       0.07845043      24.20309
2018    26      4       0.08433257      25.54228
2018    26      5       0.09123041      27.18791
2018    26      6       0.1174733       33.2143
2018    26      7       0.1289858       35.91112
2018    27      0       0.1213912       34.29009
2018    27      1       0.1230892       34.65585
2018    27      2       0.1260298       35.17379
2018    27      3       0.143483        38.8715
2018    27      4       0.1578122       42.01875
2018    27      5       0.2355987       58.17961
2018    27      6       0.2972011       70.0391
2018    27      7       0.235882        58.65137
2018    28      0       0.1964716       50.73057
2018    28      1       0.1349954       37.36061
2018    28      2       0.110997        31.68665
2018    28      3       0.1017974       29.6532
2018    28      4       0.1104441       31.6926
2018    28      5       0.1218488       34.23336
2018    28      6       0.1414016       38.6969
2018    28      7       0.164235        43.68747
2018    29      0       0.1445446       39.23166
2018    29      1       0.146014        39.22793
2018    29      2       0.165675        43.33435
2018    29      3       0.236551        57.94675
2018    29      4       0.3004908       70.47661
2018    29      5       0.2394511       59.25628
2018    29      6       0.1743943       46.19426
2018    29      7       0.1216438       34.69799
2018    30      0       0.07409593      23.5109
2018    30      1       0.06716295      21.80971
2018    30      2       0.07040619      22.59094
2018    30      3       0.07387649      23.47401
2018    30      4       0.0819578       25.37818
2018    30      5       0.09544659      28.62827
2018    30      6       0.1293719       36.56317
2018    30      7       0.1363706       38.25685
