####################################################################################################
# Month: 06Jun                                                                                     #
# Station: BAJA                                                                                    #
# Frequency: 345 GHz                                                                               #
# Columns are: year    day     segment         tau     Tb (K)                                      #
####################################################################################################
2009    1       0       0.9999023       175.7869
2009    1       1       0.7993517       153.869
2009    1       2       0.7185787       143.1252
2009    1       3       0.7163904       142.3522
2009    1       4       0.7071423       140.1976
2009    1       5       0.819372        153.1263
2009    1       6       1.04731         176.4356
2009    1       7       0.9638402       169.0235
2009    2       0       0.7093274       138.9622
2009    2       1       0.6394398       128.0314
2009    2       2       0.5811651       120.8473
2009    2       3       0.5934745       123.2512
2009    2       4       0.6689997       133.1688
2009    2       5       0.7759822       145.4425
2009    2       6       0.7573659       143.7225
2009    2       7       0.7900384       148.0065
2009    3       0       0.7864754       148.0117
2009    3       1       0.6880669       135.7765
2009    3       2       0.6690581       132.7056
2009    3       3       0.732053        140.355
2009    3       4       0.7564615       142.6145
2009    3       5       0.7199478       138.9748
2009    3       6       0.7351922       141.2451
2009    3       7       0.7209545       139.8106
2009    4       0       0.656184        131.7202
2009    4       1       0.6399284       130.4823
2009    4       2       0.6365929       130.6093
2009    4       3       0.6993641       139.4295
2009    4       4       0.8525106       157.7929
2009    4       5       1.174532        187.9112
2009    4       6       1.97052         233.4123
2009    4       7       1.967887        233.7024
2009    5       0       1.455993        209.0554
2009    5       1       1.525846        214.1104
2009    5       2       1.566652        217.354
2009    5       3       1.162835        188.9558
2009    5       4       0.882996        161.4336
2009    5       5       0.6118913       126.4184
2009    5       6       0.4753641       104.4814
2009    5       7       0.4792881       104.214
2009    6       0       0.5041049       107.9593
2009    6       1       0.5033184       107.9682
2009    6       2       0.5958286       122.1935
2009    6       3       0.6271869       127.2484
2009    6       4       0.5464432       115.6329
2009    6       5       0.4937559       106.6136
2009    6       6       0.6316495       126.9319
2009    6       7       0.5448322       116.7029
2009    7       0       0.4544168       102.9303
2009    7       1       0.3366699       81.46609
2009    7       2       0.2530902       64.55121
2009    7       3       0.2183643       57.42846
2009    7       4       0.2048924       54.38322
2009    7       5       0.21698         56.59571
2009    7       6       0.2902743       70.75221
2009    7       7       0.4988881       108.7973
2009    8       0       0.6223986       127.8418
2009    8       1       0.6349172       128.7783
2009    8       2       0.8037624       148.3569
2009    8       3       0.7882944       147.3766
2009    8       4       0.8855062       159.1224
2009    8       5       1.038358        174.1907
2009    8       6       0.9447644       166.327
2009    8       7       0.8005805       149.8073
2009    9       0       0.9871248       169.323
2009    9       1       1.102573        179.6022
2009    9       2       1.234144        190.257
2009    9       3       1.324953        198.6948
2009    9       4       1.126494        184.9051
2009    9       5       1.138489        185.0452
2009    9       6       1.082022        180.1179
2009    9       7       1.048266        176.7583
2009    10      0       0.9217283       164.2177
2009    10      1       0.5971078       123.1854
2009    10      2       0.3602911       85.67964
2009    10      3       0.3896714       91.85579
2009    10      4       0.4499741       101.9379
2009    10      5       0.4376302       99.22289
2009    10      6       0.4101224       93.92788
2009    10      7       0.4007145       92.11653
2009    11      0       0.403712        92.84508
2009    11      1       0.4268007       96.29918
2009    11      2       0.439036        97.81441
2009    11      3       0.5012696       106.8066
2009    11      4       0.6455711       128.0911
2009    11      5       0.9070836       160.2495
2009    11      6       1.545536        211.9995
2009    11      7       1.504675        210.1279
2009    12      0       1.326914        198.916
2009    12      1       1.2777          196.8476
2009    12      2       1.361975        203.6688
2009    12      3       1.244208        196.0768
2009    12      4       1.243274        196.4272
2009    12      5       1.235028        195.9837
2009    12      6       1.164535        190.6825
2009    12      7       1.094145        183.7945
2009    13      0       0.989066        172.5632
2009    13      1       0.9734056       170.3488
2009    13      2       1.194167        189.9936
2009    13      3       1.25626         195.3798
2009    13      4       1.03479         176.8667
2009    13      5       0.768406        148.6179
2009    13      6       0.69242         138.9564
2009    13      7       0.6062425       126.9799
2009    14      0       0.5933164       124.7642
2009    14      1       0.6654309       134.4171
2009    14      2       0.7080884       139.6426
2009    14      3       0.6894561       137.5635
2009    14      4       0.6972994       139.0289
2009    14      5       0.6666331       135.2842
2009    14      6       0.7099075       140.7538
2009    14      7       0.701037        139.8633
2009    15      0       0.5906924       124.6865
2009    15      1       0.5235902       113.9347
2009    15      2       0.5231282       112.8737
2009    15      3       0.7669356       146.4742
2009    15      4       1.057067        178.2073
2009    15      5       0.9842578       172.8646
2009    15      6       0.8178405       155.8974
2009    15      7       0.9270841       167.3749
2009    16      0       0.9917544       173.6775
2009    16      1       0.9268986       167.0
2009    16      2       1.006532        174.5819
2009    16      3       1.243857        195.163
2009    16      4       1.779719        226.4897
2009    16      5       2.141356        239.4664
2009    16      6       2.221903        241.8948
2009    16      7       2.221723        241.9699
2009    17      0       1.84828         229.4721
2009    17      1       1.324054        201.3361
2009    17      2       1.152786        187.9897
2009    17      3       0.9292618       166.9833
2009    17      4       0.7827108       150.3437
2009    17      5       0.7313497       144.0576
2009    17      6       0.9160927       165.625
2009    17      7       1.227802        193.9104
2009    18      0       1.506284        213.7471
2009    18      1       1.300265        199.9873
2009    18      2       1.170309        189.8076
2009    18      3       1.146215        187.5948
2009    18      4       1.153034        188.3037
2009    18      5       1.053705        180.0054
2009    18      6       1.12592         186.7539
2009    18      7       1.258297        197.9276
2009    19      0       1.23545         196.7391
2009    19      1       1.042399        180.3356
2009    19      2       0.9726181       173.1848
2009    19      3       0.8797766       162.9417
2009    19      4       0.7660832       148.7536
2009    19      5       0.7533179       146.0881
2009    19      6       0.7329149       143.7573
2009    19      7       0.8299875       156.4287
2009    20      0       1.054003        180.5284
2009    20      1       0.9325037       168.6155
2009    20      2       0.7789767       150.2228
2009    20      3       0.7406753       145.5654
2009    20      4       0.6302943       131.6115
2009    20      5       0.6486295       134.8828
2009    20      6       0.6533961       136.2438
2009    20      7       0.9554367       172.772
2009    21      0       0.665113        138.5014
2009    21      1       0.4103104       97.34002
2009    21      2       0.3543304       86.75427
2009    21      3       0.3574589       87.1687
2009    21      4       0.3850064       92.33479
2009    21      5       0.4051954       96.18459
2009    21      6       0.4174641       98.79311
2009    21      7       0.4351663       102.2682
2009    22      0       0.4425075       103.8085
2009    22      1       0.4082734       97.69388
2009    22      2       0.4137899       98.85445
2009    22      3       0.4218178       100.2684
2009    22      4       0.4087207       97.82542
2009    22      5       0.3483569       86.47169
2009    22      6       0.312261        79.36072
2009    22      7       0.4112676       98.42791
2009    23      0       0.4472386       105.157
2009    23      1       0.3282695       82.44608
2009    23      2       0.3438422       85.45471
2009    23      3       0.3667934       89.72651
2009    23      4       0.3882975       93.66563
2009    23      5       0.4164845       98.78233
2009    23      6       0.4043899       96.60115
2009    23      7       0.4420609       103.5296
2009    24      0       0.4193892       99.87612
2009    24      1       0.3315657       83.48621
2009    24      2       0.4448699       104.6359
2009    24      3       0.5731076       125.5638
2009    24      4       0.6068136       130.3637
2009    24      5       1.222695        198.3105
2009    24      6       1.467268        215.5428
2009    24      7       1.368102        209.0473
2009    25      0       1.180315        195.0429
2009    25      1       0.8510266       162.6638
2009    25      2       0.80205         156.5996
2009    25      3       1.582876        222.5107
2009    25      4       2.099247        245.2251
2009    25      5       2.657139        259.3887
2009    25      6       2.790426        261.4895
2009    25      7       2.80202         261.6328
2009    26      0       2.281095        250.6981
2009    26      1       1.810387        234.5856
2009    26      2       1.704514        229.4418
2009    26      3       1.779072        232.93
2009    26      4       1.853719        235.6839
2009    26      5       1.71409         229.0626
2009    26      6       1.615065        223.8721
2009    26      7       1.726733        229.584
2009    27      0       1.713183        229.0744
2009    27      1       1.34541         207.626
2009    27      2       1.066105        184.8839
2009    27      3       1.008798        179.4622
2009    27      4       1.05769         184.1063
2009    27      5       1.045248        182.9751
2009    27      6       1.083753        186.9075
2009    27      7       1.524114        219.7981
2009    28      0       2.061545        244.3619
2009    28      1       1.812835        234.7186
2009    28      2       1.264574        201.2739
2009    28      3       2.736158        260.4208
2009    28      4       3.857179        273.5345
2009    28      5       3.521096        271.1513
2009    28      6       3.176031        267.3302
2009    28      7       3.497523        270.7926
2009    29      0       3.623937        272.3039
2009    29      1       3.359134        270.3942
2009    29      2       3.056622        267.0167
2009    29      3       2.873132        263.689
2009    29      4       3.043663        266.6725
2009    29      5       3.664697        272.0192
2009    29      6       3.58367         271.0869
2009    29      7       3.784694        272.5494
2009    30      0       3.610276        271.866
2009    30      1       3.302901        269.5532
2009    30      2       3.014592        266.0206
2009    30      3       2.724721        261.6146
2009    30      4       2.784326        262.4649
2009    30      5       4.039706        273.879
2009    30      6       3.381301        269.3862
2009    30      7       3.912405        273.8922
2010    1       0       0.4795241       108.3538
2010    1       1       0.4336426       100.56
2010    1       2       0.4405161       101.4534
2010    1       3       0.4589207       104.4223
2010    1       4       0.4544486       103.0319
2010    1       5       0.5177099       112.9561
2010    1       6       0.590665        124.029
2010    1       7       0.6915929       137.942
2010    2       0       0.8221059       153.9867
2010    2       1       1.027456        175.7761
2010    2       2       1.173359        189.3124
2010    2       3       1.25201         196.2246
2010    2       4       1.323504        201.7779
2010    2       5       1.353567        204.9696
2010    2       6       1.341031        205.1545
2010    2       7       1.285985        201.676
2010    3       0       1.187634        194.1976
2010    3       1       1.078604        184.4051
2010    3       2       1.333193        205.1112
2010    3       3       1.558489        219.7133
2010    3       4       1.436013        212.3914
2010    3       5       1.238424        198.3674
2010    3       6       1.272136        200.5317
2010    3       7       1.347193        206.0298
2010    4       0       1.281889        201.9155
2010    4       1       1.228439        197.7358
2010    4       2       1.239126        198.8332
2010    4       3       1.33492         206.0511
2010    4       4       1.473078        215.1038
2010    4       5       1.591696        222.105
2010    4       6       1.516884        218.0157
2010    4       7       1.4939          217.1139
2010    5       0       1.536627        220.1641
2010    5       1       1.517133        218.7307
2010    5       2       1.566688        221.6823
2010    5       3       1.56528         221.5482
2010    5       4       1.584147        222.0608
2010    5       5       1.55059         220.0783
2010    5       6       1.328759        205.2014
2010    5       7       1.270414        201.378
2010    6       0       1.248103        200.1931
2010    6       1       1.097649        186.7197
2010    6       2       0.9244141       168.7122
2010    6       3       0.7961188       153.4948
2010    6       4       0.6625154       136.127
2010    6       5       0.5503734       119.7552
2010    6       6       0.502823        112.1593
2010    6       7       0.5474031       119.6334
2010    7       0       0.4904502       110.6524
2010    7       1       0.3699766       88.78675
2010    7       2       0.328767        81.08111
2010    7       3       0.3216155       79.91504
2010    7       4       0.3668844       88.45795
2010    7       5       0.4288363       99.05658
2010    7       6       0.3982583       93.36854
2010    7       7       0.3615755       86.70997
2010    8       0       0.3761007       89.56582
2010    8       1       0.4310129       99.92837
2010    8       2       0.4317886       100.2375
2010    8       3       0.4397153       101.9703
2010    8       4       0.4512528       104.0603
2010    8       5       0.4408453       102.1899
2010    8       6       0.4172463       98.00368
2010    8       7       0.3789593       91.41835
2010    9       0       0.34592         85.31506
2010    9       1       0.334672        82.92057
2010    9       2       0.3524678       86.3099
2010    9       3       0.4011675       95.42593
2010    9       4       0.4637949       106.4818
2010    9       5       0.4743847       107.7601
2010    9       6       0.5128436       112.7407
2010    9       7       0.6374217       131.164
2010    10      0       0.8686525       159.0902
2010    10      1       1.107877        182.1921
2010    10      2       0.8194957       153.4316
2010    10      3       0.452051        101.5572
2010    10      4       0.4542748       102.1098
2010    10      5       0.8005706       153.5273
2010    10      6       0.6546519       133.8033
2010    10      7       0.6775349       137.5743
2010    11      0       0.7406545       148.2493
2010    11      1       0.4171752       98.41642
2010    11      2       0.1999125       53.9665
2010    11      3       0.1966312       51.81299
2010    11      4       0.4143752       93.64318
2010    11      5       0.8740538       158.7748
2010    11      6       0.7908139       152.0002
2010    11      7       0.4779339       107.4061
2010    12      0       0.3159207       78.38611
2010    12      1       0.1811812       50.24947
2010    12      2       0.1151602       34.86756
2010    12      3       0.1172318       35.45866
2010    12      4       0.1078582       33.22837
2010    12      5       0.1849846       51.14594
2010    12      6       0.2833443       71.98942
2010    12      7       0.3313931       81.56511
2010    13      0       0.4380215       101.0498
2010    13      1       0.4179538       97.76041
2010    13      2       0.2788524       71.75891
2010    13      3       0.2281225       61.15039
2010    13      4       0.2045087       56.05357
2010    13      5       0.1885726       52.58508
2010    13      6       0.2215789       59.90159
2010    13      7       0.4419543       102.1644
2010    14      0       0.5665666       122.628
2010    14      1       0.4843314       110.2516
2010    14      2       0.4358506       102.2833
2010    14      3       0.4328107       101.7056
2010    14      4       0.3500517       86.39466
2010    14      5       0.3010714       76.5128
2010    14      6       0.3843648       92.28663
2010    14      7       0.5208527       115.8663
2010    15      0       0.5436752       119.6846
2010    15      1       0.4156029       98.36841
2010    15      2       0.32            80.19469
2010    15      3       0.3747778       90.41245
2010    15      4       0.4403089       101.9539
2010    15      5       0.5035726       112.458
2010    15      6       0.5866045       125.6221
2010    15      7       0.7286569       145.6996
2010    16      0       0.531016        117.5347
2010    16      1       0.3878339       93.01189
2010    16      2       0.3699078       89.58539
2010    16      3       0.367467        88.96494
2010    16      4       0.3705243       89.18664
2010    16      5       0.4411074       101.2598
2010    16      6       0.4917148       109.9001
2010    16      7       0.4760221       108.2476
2010    17      0       0.4034742       96.04973
2010    17      1       0.2662283       69.53324
2010    17      2       0.2090004       57.46774
2010    17      3       0.1761361       50.1351
2010    17      4       0.1629476       47.02727
2010    17      5       0.1616424       46.6939
2010    17      6       0.1685565       48.39926
2010    17      7       0.1812662       51.42981
2010    18      0       0.1503494       44.16882
2010    18      1       0.1074608       33.56173
2010    18      2       0.1718318       48.32212
2010    18      3       0.242537        63.74724
2010    18      4       0.2703727       69.84529
2010    18      5       0.2722829       70.46558
2010    18      6       0.2862233       73.30959
2010    18      7       0.3251122       81.09656
2010    19      0       0.4355107       101.5546
2010    19      1       0.5409422       118.1685
2010    19      2       0.6164907       129.3035
2010    19      3       0.676299        137.5261
2010    19      4       0.7913089       151.8359
2010    19      5       0.8042406       153.1799
2010    19      6       0.7343095       144.9732
2010    19      7       0.6758982       137.5852
2010    20      0       0.6151415       129.0347
2010    20      1       0.5376207       117.5383
2010    20      2       0.5027427       111.8855
2010    20      3       0.4650998       105.4708
2010    20      4       0.4369175       100.6683
2010    20      5       0.36882         88.5631
2010    20      6       0.283664        72.43754
2010    20      7       0.2371608       63.15665
2010    21      0       0.1913024       53.09272
2010    21      1       0.1448077       42.16137
2010    21      2       0.163116        45.92001
2010    21      3       0.2456804       62.46261
2010    21      4       0.2322217       60.24716
2010    21      5       0.2419039       62.70444
2010    21      6       0.296274        73.89405
2010    21      7       0.3559487       85.75111
2010    22      0       0.3982058       94.17081
2010    22      1       0.3909373       92.8902
2010    22      2       0.3411144       83.4457
2010    22      3       0.2899137       73.38405
2010    22      4       0.2516424       65.57707
2010    22      5       0.2354775       62.3032
2010    22      6       0.2654919       68.72981
2010    22      7       0.2775181       71.55913
2010    23      0       0.2277486       61.27115
2010    23      1       0.1788459       50.27101
2010    23      2       0.2319909       61.94979
2010    23      3       0.3714696       90.08963
2010    23      4       0.413869        97.87648
2010    23      5       0.4003842       95.60782
2010    23      6       0.3761714       91.41113
2010    23      7       0.3541161       87.51374
2010    24      0       0.338085        84.59019
2010    24      1       0.3523797       86.80602
2010    24      2       0.4132504       97.46732
2010    24      3       0.4705787       106.8928
2010    24      4       0.5532369       119.8629
2010    24      5       0.776254        150.4018
2010    24      6       1.27162         199.4719
2010    24      7       1.511663        217.05
2010    25      0       1.423132        212.5484
2010    25      1       1.270984        201.5773
2010    25      2       1.354358        207.6268
2010    25      3       1.379017        209.3192
2010    25      4       1.428169        212.6924
2010    25      5       1.464201        215.2973
2010    25      6       1.122689        189.6334
2010    25      7       0.9307973       170.924
2010    26      0       0.7494062       149.7573
2010    26      1       0.4900476       111.0728
2010    26      2       0.5325229       116.3549
2010    26      3       0.8029673       154.4855
2010    26      4       0.9358516       170.4653
2010    26      5       0.6038645       128.4232
2010    26      6       0.3939944       93.67056
2010    26      7       0.4310291       100.6471
2010    27      0       0.4879745       110.7931
2010    27      1       0.4735384       108.7906
2010    27      2       0.4314306       101.7473
2010    27      3       0.420552        99.77621
2010    27      4       0.4153659       98.62565
2010    27      5       0.3948354       94.93009
2010    27      6       0.3952458       95.38166
2010    27      7       0.5668982       124.168
2010    28      0       0.5563114       122.7943
2010    28      1       0.3287512       82.89318
2010    28      2       0.2712554       70.97144
2010    28      3       0.2604617       68.70123
2010    28      4       0.2736732       71.35264
2010    28      5       0.3051042       77.67761
2010    28      6       0.3311873       82.93913
2010    28      7       0.3940007       94.85794
2010    29      0       0.3942022       95.11987
2010    29      1       0.250129        66.69205
2010    29      2       0.2174988       59.43314
2010    29      3       0.2347302       62.99911
2010    29      4       0.2510331       66.39899
2010    29      5       0.2546247       67.06519
2010    29      6       0.2352532       63.01412
2010    29      7       0.2182397       59.56535
2010    30      0       0.2208299       60.08936
2010    30      1       0.2418345       64.50202
2010    30      2       0.2646585       69.74236
2010    30      3       0.6286648       133.1465
2010    30      4       1.199457        195.3029
2010    30      5       1.389011        209.2211
2010    30      6       1.450081        213.3923
2010    30      7       1.444224        213.2514
2011    1       0       0.954968        166.7337
2011    1       1       1.177586        188.0299
2011    1       2       1.260575        196.0058
2011    1       3       1.404173        207.0439
2011    1       4       1.239004        194.7258
2011    1       5       1.005865        174.3012
2011    1       6       0.9206445       164.3376
2011    1       7       1.020963        174.489
2011    2       0       0.9277072       165.2732
2011    2       1       1.010088        174.5952
2011    2       2       0.854056        158.7607
2011    2       3       0.7591005       147.0191
2011    2       4       0.8859769       161.7759
2011    2       5       0.7509187       146.2182
2011    2       6       0.6462099       132.4895
2011    2       7       0.5926369       124.2051
2011    3       0       0.471287        104.7738
2011    3       1       0.3534691       83.65522
2011    3       2       0.3477792       82.32845
2011    3       3       0.3613385       84.86963
2011    3       4       0.4455967       99.18013
2011    3       5       0.5500695       116.7875
2011    3       6       0.616993        127.243
2011    3       7       0.7353629       143.5325
2011    4       0       0.7157082       141.3464
2011    4       1       0.6368294       131.3017
2011    4       2       0.6727686       135.8352
2011    4       3       0.6825424       137.0966
2011    4       4       0.725463        142.9435
2011    4       5       0.6930835       138.7077
2011    4       6       0.5802743       122.9969
2011    4       7       0.4615049       104.6749
2011    5       0       0.4152783       96.93938
2011    5       1       0.3881203       92.33585
2011    5       2       0.4252433       99.31738
2011    5       3       0.5867181       125.4414
2011    5       4       0.7645063       149.5943
2011    5       5       0.8353307       157.9624
2011    5       6       0.8345167       158.1095
2011    5       7       0.8615035       161.3516
2011    6       0       0.7407459       146.955
2011    6       1       0.6728625       138.4189
2011    6       2       0.5556182       121.5525
2011    6       3       0.4318315       100.6998
2011    6       4       0.5159184       114.0755
2011    6       5       0.5895702       125.2874
2011    6       6       0.5469719       118.7596
2011    6       7       0.4927642       109.9664
2011    7       0       0.4182273       97.38359
2011    7       1       0.3508767       85.25386
2011    7       2       0.3703472       89.14969
2011    7       3       0.45113         103.8814
2011    7       4       0.5137001       114.1028
2011    7       5       0.4878388       109.7366
2011    7       6       0.4142912       97.1267
2011    7       7       0.3925768       93.27995
2011    8       0       0.3724847       89.72078
2011    8       1       0.3065459       77.22217
2011    8       2       0.3222205       80.20196
2011    8       3       0.3924927       92.88944
2011    8       4       0.5034622       111.955
2011    8       5       0.4934122       110.4074
2011    8       6       0.4016887       94.52465
2011    8       7       0.3661342       88.16448
2011    9       0       0.3466623       84.8302
2011    9       1       0.3569165       86.97659
2011    9       2       0.3982347       94.75394
2011    9       3       0.4237624       99.51003
2011    9       4       0.3104538       78.49261
2011    9       5       0.1459891       43.0064
2011    9       6       0.1229422       37.43219
2011    9       7       0.2312241       62.15994
2011    10      0       0.2301191       61.98366
2011    10      1       0.16987         48.57048
2011    10      2       0.1635458       46.80311
2011    10      3       0.1980434       54.2481
2011    10      4       0.2962523       74.31262
2011    10      5       0.3134925       77.97073
2011    10      6       0.3389089       82.75043
2011    10      7       0.3803151       91.21922
2011    11      0       0.2927048       74.45845
2011    11      1       0.2043927       55.57147
2011    11      2       0.1868333       51.5148
2011    11      3       0.2491587       64.17063
2011    11      4       0.2992705       74.42957
2011    11      5       0.3216665       79.00616
2011    11      6       0.3491554       84.27039
2011    11      7       0.3879893       91.99668
2011    12      0       0.3073113       76.83758
2011    12      1       0.2378364       62.62336
2011    12      2       0.2649072       68.63996
2011    12      3       0.229397        61.13037
2011    12      4       0.2196023       57.55836
2011    12      5       0.1712995       47.05944
2011    12      6       0.1526067       43.05767
2011    12      7       0.2201856       58.26659
2011    13      0       0.2747657       69.47625
2011    13      1       0.3586184       85.67622
2011    13      2       0.6089701       127.3378
2011    13      3       0.8210707       155.7277
2011    13      4       0.9573896       171.04
2011    13      5       0.8961083       164.8775
2011    13      6       0.7242293       145.1542
2011    13      7       0.673592        139.0903
2011    14      0       0.5678762       123.948
2011    14      1       0.4784545       109.3764
2011    14      2       0.4284278       100.4503
2011    14      3       0.4181125       98.47166
2011    14      4       0.4268449       100.1637
2011    14      5       0.4641835       107.065
2011    14      6       0.5307127       118.4199
2011    14      7       0.6620566       138.5547
2011    15      0       0.7224077       146.944
2011    15      1       0.6127743       131.405
2011    15      2       0.516187        116.3126
2011    15      3       0.4764268       109.5027
2011    15      4       0.5732871       124.9412
2011    15      5       0.6953037       142.7222
2011    15      6       0.7407676       149.4104
2011    15      7       0.7125434       145.716
2011    16      0       0.5954401       128.8516
2011    16      1       0.513005        116.0066
2011    16      2       0.5204848       117.2657
2011    16      3       0.5694989       124.7889
2011    16      4       0.6195355       131.9324
2011    16      5       0.6159469       131.2603
2011    16      6       0.5826119       126.1807
2011    16      7       0.5881037       127.0997
2011    17      0       0.586011        126.8179
2011    17      1       0.4924309       111.8874
2011    17      2       0.4715234       107.8071
2011    17      3       0.6981107       141.2684
2011    17      4       0.8143328       155.1752
2011    17      5       0.845657        157.9005
2011    17      6       0.6744119       137.5547
2011    17      7       0.7311391       146.0084
2011    18      0       0.8025571       155.5503
2011    18      1       0.7784108       153.0845
2011    18      2       0.751313        149.537
2011    18      3       0.8431926       160.7685
2011    18      4       0.7872006       154.2423
2011    18      5       0.6021939       128.2641
2011    18      6       0.6261479       131.4277
2011    18      7       0.5516604       120.2177
2011    19      0       0.4350466       100.7239
2011    19      1       0.4522242       103.5359
2011    19      2       0.5607166       121.5868
2011    19      3       0.7288411       146.7234
2011    19      4       0.8371942       160.837
2011    19      5       0.834593        160.5282
2011    19      6       0.770572        152.5299
2011    19      7       0.7989981       156.1842
2011    20      0       0.9125276       169.8555
2011    20      1       0.9230539       172.4627
2011    20      2       0.6539674       138.8726
2011    20      3       0.5054803       115.3914
2011    20      4       0.4313151       102.1938
2011    20      5       0.3364582       84.07983
2011    20      6       0.3585503       88.7128
2011    20      7       0.411568        98.93654
2011    21      0       0.4998034       114.1751
2011    21      1       0.44081         104.0232
2011    21      2       0.3886006       94.44678
2011    21      3       0.3670734       90.16717
2011    21      4       0.353794        87.1485
2011    21      5       0.3696611       89.97495
2011    21      6       0.4043271       96.44259
2011    21      7       0.4985053       112.7534
2011    22      0       0.4882134       111.5377
2011    22      1       0.3835337       92.85462
2011    22      2       0.3796472       91.96772
2011    22      3       0.3912519       94.12123
2011    22      4       0.3896136       93.74306
2011    22      5       0.4045235       96.59071
2011    22      6       0.4359349       102.693
2011    22      7       0.5754482       126.172
2011    23      0       0.5013993       114.723
2011    23      1       0.3587803       88.63099
2011    23      2       0.3745535       91.20083
2011    23      3       0.4109575       97.92412
2011    23      4       0.3984998       95.6295
2011    23      5       0.4136236       98.50219
2011    23      6       0.5158429       116.486
2011    23      7       0.7015346       144.3599
2011    24      0       0.6706929       140.7495
2011    24      1       0.550223        122.8025
2011    24      2       0.5763067       126.595
2011    24      3       0.6014342       130.1134
2011    24      4       0.6815039       141.6729
2011    24      5       0.7063293       145.1932
2011    24      6       0.7931393       156.11
2011    24      7       0.9202282       170.4457
2011    25      0       0.9741682       176.0863
2011    25      1       0.9596786       174.4534
2011    25      2       0.9479601       172.8747
2011    25      3       0.9912663       177.2589
2011    25      4       0.9485994       172.8391
2011    25      5       0.9216911       169.8678
2011    25      6       1.031193        181.2152
2011    25      7       1.157323        192.714
2011    26      0       1.330893        206.5736
2011    26      1       1.370019        210.1046
2011    26      2       1.459883        215.9639
2011    26      3       1.582273        222.3708
2011    26      4       1.574634        221.541
2011    26      5       1.607845        223.2195
2011    26      6       1.644922        224.4964
2011    26      7       1.540983        218.7163
2011    27      0       1.526634        218.1652
2011    27      1       1.510674        217.0765
2011    27      2       1.680905        226.6591
2011    27      3       1.516698        217.8514
2011    27      4       1.481718        216.2098
2011    27      5       1.364311        208.8032
2011    27      6       1.079455        185.7358
2011    27      7       0.9450251       172.0992
2011    28      0       0.9392514       171.0059
2011    28      1       1.125266        189.6818
2011    28      2       1.361934        208.8146
2011    28      3       1.264695        201.867
2011    28      4       1.458035        214.8801
2011    28      5       1.489357        216.2489
2011    28      6       1.446763        213.4534
2011    28      7       1.580769        221.7431
2011    29      0       1.66907         226.8759
2011    29      1       1.623467        225.0493
2011    29      2       1.793708        233.9336
2011    29      3       1.837364        235.8348
2011    29      4       1.754031        231.8384
2011    29      5       1.706787        229.5025
2011    29      6       1.343378        207.798
2011    29      7       1.193396        195.8659
2011    30      0       1.195162        196.1994
2011    30      1       1.013441        179.9541
2011    30      2       0.8857668       166.627
2011    30      3       0.8386727       160.9754
2011    30      4       1.070441        184.5459
2011    30      5       1.192503        195.223
2011    30      6       1.031633        181.5181
2011    30      7       1.014563        179.9205
2012    1       0       0.3539159       86.32734
2012    1       1       0.2929384       74.35578
2012    1       2       0.3007575       75.94383
2012    1       3       0.3210379       80.03728
2012    1       4       0.3281951       81.31217
2012    1       5       0.3198686       79.52152
2012    1       6       0.2966367       74.83348
2012    1       7       0.3316252       81.89007
2012    2       0       0.3082937       76.87191
2012    2       1       0.2634716       67.65218
2012    2       2       0.2545753       65.29771
2012    2       3       0.2930477       72.42743
2012    2       4       0.2961964       72.5657
2012    2       5       0.2743457       67.99633
2012    2       6       0.2755361       67.96274
2012    2       7       0.3375101       79.96839
2012    3       0       0.3532075       83.21367
2012    3       1       0.3923104       90.87804
2012    3       2       0.4688017       103.8342
2012    3       3       0.3996173       92.71223
2012    3       4       0.3117319       77.22575
2012    3       5       0.2803109       71.66601
2012    3       6       0.2978185       75.58222
2012    3       7       0.3710351       90.1652
2012    4       0       0.3629001       88.77912
2012    4       1       0.360524        88.35204
2012    4       2       0.4709099       108.0354
2012    4       3       0.6046831       128.0804
2012    4       4       0.5900354       125.8128
2012    4       5       0.5139613       113.7518
2012    4       6       0.4430762       101.7416
2012    4       7       0.3329907       82.08746
2012    5       0       0.2748968       70.51087
2012    5       1       0.3780151       90.34714
2012    5       2       0.5580328       121.1475
2012    5       3       0.4578018       105.1133
2012    5       4       0.4822071       108.3754
2012    5       5       0.3949565       93.06332
2012    5       6       0.3941178       93.23184
2012    5       7       0.2430796       63.63383
2012    6       0       0.2751358       70.61121
2012    6       1       0.2795538       71.79927
2012    6       2       0.2843732       72.912
2012    6       3       0.3217182       80.32979
2012    6       4       0.4035241       95.09377
2012    6       5       0.4938554       110.4011
2012    6       6       0.4539797       104.2223
2012    6       7       0.4565754       105.2781
2012    7       0       0.4571023       105.6517
2012    7       1       0.5372105       118.2594
2012    7       2       0.6568237       136.23
2012    7       3       0.6857692       140.7177
2012    7       4       0.6751152       139.0994
2012    7       5       0.6635497       137.2919
2012    7       6       0.661379        137.1298
2012    7       7       0.6540285       136.4618
2012    8       0       0.6757129       139.6003
2012    8       1       0.659224        137.3506
2012    8       2       0.6747538       139.6109
2012    8       3       0.6681869       138.7935
2012    8       4       0.6235693       132.4166
2012    8       5       0.6377895       134.1641
2012    8       6       0.7240793       145.8568
2012    8       7       0.7782141       152.8542
2012    9       0       0.7127094       144.5069
2012    9       1       0.6563058       136.8381
2012    9       2       0.7417603       148.4985
2012    9       3       0.9283046       171.0607
2012    9       4       0.9498311       172.9047
2012    9       5       0.9747986       175.2377
2012    9       6       0.9150044       168.9107
2012    9       7       0.8104826       156.7717
2012    10      0       0.6314108       132.8277
2012    10      1       0.5170084       115.3022
2012    10      2       0.4780162       109.0016
2012    10      3       0.4592274       105.7995
2012    10      4       0.4888412       110.5033
2012    10      5       0.4406916       102.5558
2012    10      6       0.4411516       102.665
2012    10      7       0.4928483       111.5858
2012    11      0       0.5330986       117.7121
2012    11      1       0.4556172       104.8125
2012    11      2       0.4513651       103.4394
2012    11      3       0.4991372       110.9518
2012    11      4       0.4543737       103.9549
2012    11      5       0.4343086       100.6236
2012    11      6       0.4002024       94.94714
2012    11      7       0.4215825       99.4303
2012    12      0       0.4270387       100.5075
2012    12      1       0.3656137       88.83722
2012    12      2       0.3298389       81.85349
2012    12      3       0.3039293       76.49631
2012    12      4       0.3299488       81.38537
2012    12      5       0.3666284       88.31797
2012    12      6       0.369419        88.85025
2012    12      7       0.4759509       107.8339
2012    13      0       0.4800079       108.3467
2012    13      1       0.362076        86.33044
2012    13      2       0.3605266       85.8818
2012    13      3       0.394312        92.0869
2012    13      4       0.3186439       77.63343
2012    13      5       0.2176552       57.21963
2012    13      6       0.1960718       53.11918
2012    13      7       0.2646704       68.15759
2012    14      0       0.2587298       67.07563
2012    14      1       0.2345434       62.14525
2012    14      2       0.2295158       61.35956
2012    14      3       0.25009         65.95021
2012    14      4       0.3140996       78.28865
2012    14      5       0.3153307       78.61252
2012    14      6       0.3122422       78.09457
2012    14      7       0.3647299       88.65669
2012    15      0       0.3126141       79.18729
2012    15      1       0.2853221       73.84976
2012    15      2       0.2976616       76.17646
2012    15      3       0.2998718       76.51728
2012    15      4       0.2878623       74.03864
2012    15      5       0.2776218       71.72985
2012    15      6       0.2755627       71.13857
2012    15      7       0.3605393       88.58075
2012    16      0       0.4143648       98.80133
2012    16      1       0.3263602       81.92715
2012    16      2       0.3526681       86.85292
2012    16      3       0.3427546       84.92641
2012    16      4       0.3324871       82.75943
2012    16      5       0.3482485       85.78682
2012    16      6       0.3473811       85.60348
2012    16      7       0.3572787       87.52732
2012    17      0       0.3281967       81.91133
2012    17      1       0.3294889       81.03346
2012    17      2       0.7047609       141.8685
2012    17      3       1.095873        185.5284
2012    17      4       1.373172        207.2852
2012    17      5       1.407077        210.0127
2012    17      6       1.381833        208.445
2012    17      7       1.446246        212.7994
2012    18      0       1.253197        199.9589
2012    18      1       0.8336808       160.1299
2012    18      2       0.6298288       133.1604
2012    18      3       0.5894574       127.0701
2012    18      4       0.6412926       134.8687
2012    18      5       0.6970429       142.6092
2012    18      6       0.7312036       147.132
2012    18      7       0.846754        161.4731
2012    19      0       0.6671629       138.62
2012    19      1       0.4074523       97.10492
2012    19      2       0.429427        101.4452
2012    19      3       0.4662429       108.0657
2012    19      4       0.4391228       103.3338
2012    19      5       0.3595688       88.69348
2012    19      6       0.3127209       79.10413
2012    19      7       0.2903329       74.36701
2012    20      0       0.2688903       69.63718
2012    20      1       0.2536872       66.1681
2012    20      2       0.2151664       58.18545
2012    20      3       0.2286237       61.2377
2012    20      4       0.2234238       60.02311
2012    20      5       0.2346043       61.94053
2012    20      6       0.2705167       69.21931
2012    20      7       0.2976608       74.84686
2012    21      0       0.2250718       59.95199
2012    21      1       0.1427718       41.4406
2012    21      2       0.1558294       44.67908
2012    21      3       0.1702438       48.08294
2012    21      4       0.2127536       57.70252
2012    21      5       0.2599015       68.03051
2012    21      6       0.2742518       71.33239
2012    21      7       0.3051087       77.95451
2012    22      0       0.3137581       79.91689
2012    22      1       0.2892106       74.92618
2012    22      2       0.2168286       59.0906
2012    22      3       0.245353        64.9622
2012    22      4       0.2835062       73.16117
2012    22      5       0.3440058       85.44511
2012    22      6       0.3846569       93.17962
2012    22      7       0.3843944       92.99604
2012    23      0       0.3978157       95.50508
2012    23      1       0.3722189       90.66694
2012    23      2       0.4427427       103.4877
2012    23      3       0.638827        134.9062
2012    23      4       0.6935981       142.5931
2012    23      5       0.6498261       136.3952
2012    23      6       0.7554893       150.5619
2012    23      7       1.057563        183.9182
2012    24      0       1.138216        191.5601
2012    24      1       1.217145        198.2791
2012    24      2       1.659742        226.7699
2012    24      3       1.731574        229.7992
2012    24      4       1.582648        221.9252
2012    24      5       1.388304        210.3633
2012    24      6       1.575283        221.9671
2012    24      7       1.910753        238.1585
2012    25      0       1.874797        237.3463
2012    25      1       1.695616        229.5514
2012    25      2       1.687866        229.1344
2012    25      3       1.563063        221.8871
2012    25      4       1.698837        229.2164
2012    25      5       1.802215        234.3963
2012    25      6       1.812503        234.6546
2012    25      7       1.835132        234.9641
2012    26      0       1.792126        233.5367
2012    26      1       1.775202        233.8902
2012    26      2       1.840038        236.2705
2012    26      3       1.896422        238.4068
2012    26      4       1.941939        240.368
2012    26      5       2.042583        243.9563
2012    26      6       1.619155        225.0774
2012    26      7       1.416673        212.9405
2012    27      0       1.273099        203.0035
2012    27      1       1.154482        193.81
2012    27      2       1.579427        223.3076
2012    27      3       2.128959        246.8285
2012    27      4       2.16099         247.6796
2012    27      5       1.981664        241.2487
2012    27      6       1.96996         240.8427
2012    27      7       1.78566         232.9629
2012    28      0       1.627349        225.5879
2012    28      1       1.516254        219.516
2012    28      2       1.527203        220.3532
2012    28      3       1.185616        195.9796
2012    28      4       1.103463        188.3615
2012    28      5       1.180587        195.0787
2012    28      6       1.324758        206.8776
2012    28      7       1.4917          218.2697
2012    29      0       1.44698         215.7336
2012    29      1       1.380386        211.4886
2012    29      2       1.711537        230.9582
2012    29      3       1.77528         233.526
2012    29      4       1.812532        234.3385
2012    29      5       1.910125        238.3392
2012    29      6       1.799572        233.6245
2012    29      7       1.749281        230.9571
2012    30      0       1.578453        222.0699
2012    30      1       1.709673        230.3785
2012    30      2       1.836695        236.1666
2012    30      3       2.302827        251.8145
2012    30      4       2.389458        253.1942
2012    30      5       2.231949        248.8399
2012    30      6       1.965422        239.4591
2012    30      7       1.833546        232.8848
2013    1       0       0.6538052       136.6604
2013    1       1       0.5948727       128.2043
2013    1       2       0.6035986       129.3447
2013    1       3       0.620695        131.6815
2013    1       4       0.5969548       128.0028
2013    1       5       0.6158602       130.4914
2013    1       6       0.7117207       143.5607
2013    1       7       0.8556976       161.1492
2013    2       0       0.8058053       155.2035
2013    2       1       0.6840766       139.2318
2013    2       2       0.6301277       131.3179
2013    2       3       0.6162634       128.7319
2013    2       4       0.6186122       129.4356
2013    2       5       0.6680952       136.7105
2013    2       6       0.6371018       132.4638
2013    2       7       0.5988043       127.1245
2013    3       0       0.5254326       115.8389
2013    3       1       0.476369        107.5543
2013    3       2       0.4795336       108.1691
2013    3       3       0.5093057       113.1702
2013    3       4       0.5396079       117.9158
2013    3       5       0.5420196       118.2706
2013    3       6       0.4729907       107.2827
2013    3       7       0.4880595       110.1703
2013    4       0       0.4872843       110.1366
2013    4       1       0.4164284       97.72267
2013    4       2       0.389267        93.08554
2013    4       3       0.3361128       83.17805
2013    4       4       0.3496175       85.42456
2013    4       5       0.383342        91.46689
2013    4       6       0.3697527       88.88268
2013    4       7       0.3843833       91.83765
2013    5       0       0.3420146       84.14741
2013    5       1       0.2895521       73.77446
2013    5       2       0.2758514       70.86437
2013    5       3       0.2800495       71.55986
2013    5       4       0.2877752       72.89306
2013    5       5       0.2756714       70.59374
2013    5       6       0.2601028       67.44002
2013    5       7       0.3065832       76.88766
2013    6       0       0.3061129       77.43338
2013    6       1       0.2031333       55.64475
2013    6       2       0.1929093       53.24562
2013    6       3       0.2158274       58.23349
2013    6       4       0.2549674       66.71778
2013    6       5       0.2878886       73.57777
2013    6       6       0.3031123       76.64425
2013    6       7       0.3726657       90.36916
2013    7       0       0.3516989       86.61389
2013    7       1       0.2132662       57.723
2013    7       2       0.2693931       69.68822
2013    7       3       0.3343313       82.79255
2013    7       4       0.298093        75.44251
2013    7       5       0.2669874       68.84528
2013    7       6       0.307914        77.38154
2013    7       7       0.3824228       91.94825
2013    8       0       0.4055275       96.48016
2013    8       1       0.2441712       64.65053
2013    8       2       0.1766411       49.75114
2013    8       3       0.1576888       45.31258
2013    8       4       0.1695652       48.01425
2013    8       5       0.1960531       54.24632
2013    8       6       0.223672        60.3582
2013    8       7       0.250597        66.31592
2013    9       0       0.2855791       73.86826
2013    9       1       0.2799853       72.74852
2013    9       2       0.2567045       67.63693
2013    9       3       0.2357242       62.78183
2013    9       4       0.2494396       65.34802
2013    9       5       0.2689223       68.90097
2013    9       6       0.3186187       78.2555
2013    9       7       0.3468198       83.57677
2013    10      0       0.3158173       77.86186
2013    10      1       0.35921         86.03665
2013    10      2       0.6481596       134.2703
2013    10      3       0.5638199       121.2365
2013    10      4       0.5004056       110.9012
2013    10      5       0.566355        121.2281
2013    10      6       0.6692867       136.6828
2013    10      7       0.7245325       144.6752
2013    11      0       0.6658218       137.2595
2013    11      1       0.6381399       132.8487
2013    11      2       0.7694046       150.2176
2013    11      3       1.146958        189.6012
2013    11      4       1.64905         223.2479
2013    11      5       1.683463        225.4119
2013    11      6       1.512325        215.85
2013    11      7       1.354909        205.9481
2013    12      0       1.302506        202.6135
2013    12      1       1.488845        215.4534
2013    12      2       1.489811        215.933
2013    12      3       1.539437        218.1856
2013    12      4       1.534326        217.1971
2013    12      5       1.612154        222.5673
2013    12      6       1.526783        218.0197
2013    12      7       1.45094         213.212
2013    13      0       1.558621        219.6801
2013    13      1       1.309614        204.6996
2013    13      2       1.389361        210.3632
2013    13      3       1.464708        215.5403
2013    13      4       1.429526        212.6635
2013    13      5       1.659035        224.8941
2013    13      6       1.767813        229.8953
2013    13      7       1.956442        237.5872
2013    14      0       1.795916        231.7655
2013    14      1       1.66461         226.3105
2013    14      2       1.501336        216.8359
2013    14      3       1.489503        215.1813
2013    14      4       1.779499        230.0463
2013    14      5       1.87206         234.1515
2013    14      6       1.607143        222.1039
2013    14      7       1.533445        218.7611
2013    15      0       1.633687        224.921
2013    15      1       1.59355         223.1796
2013    15      2       1.431227        212.9096
2013    15      3       1.31518         204.4184
2013    15      4       1.397903        209.7797
2013    15      5       1.341495        206.0147
2013    15      6       1.150488        191.2101
2013    15      7       1.058323        183.1004
2013    16      0       0.9194016       169.5398
2013    16      1       0.6594536       137.6199
2013    16      2       0.5027893       113.6282
2013    16      3       0.4711925       108.1035
2013    16      4       0.4805198       109.7112
2013    16      5       0.4997111       112.9854
2013    16      6       0.4125278       98.13718
2013    16      7       0.3561547       87.81723
2013    17      0       0.280602        73.33559
2013    17      1       0.2097874       57.78012
2013    17      2       0.2112453       57.88888
2013    17      3       0.2227788       60.29009
2013    17      4       0.2188237       59.2871
2013    17      5       0.2164724       58.50457
2013    17      6       0.2172381       58.50836
2013    17      7       0.2429052       64.32263
2013    18      0       0.2450779       64.9134
2013    18      1       0.2011573       55.27598
2013    18      2       0.2029029       55.652
2013    18      3       0.2040365       56.03628
2013    18      4       0.2160246       58.49273
2013    18      5       0.2378517       63.10418
2013    18      6       0.238312        63.39158
2013    18      7       0.3038812       77.73247
2013    19      0       0.2735899       71.42524
2013    19      1       0.2374071       63.56956
2013    19      2       0.2653733       69.40068
2013    19      3       0.2731331       70.96412
2013    19      4       0.2602772       68.04214
2013    19      5       0.2584349       67.19502
2013    19      6       0.2371831       62.51783
2013    19      7       0.3038712       77.14672
2013    20      0       0.3200853       80.87385
2013    20      1       0.2905835       75.44431
2013    20      2       0.2833815       73.98667
2013    20      3       0.3418923       85.52604
2013    20      4       0.4432715       104.1773
2013    20      5       0.4783553       109.9262
2013    20      6       0.4242019       100.3751
2013    20      7       0.4233635       100.1096
2013    21      0       0.409899        98.12192
2013    21      1       0.3921108       95.03522
2013    21      2       0.4207208       99.85514
2013    21      3       0.4762568       108.9961
2013    21      4       0.5274527       117.4282
2013    21      5       0.5783472       124.2417
2013    21      6       0.6381902       132.8621
2013    21      7       0.6944094       140.8156
2013    22      0       0.6642244       136.7869
2013    22      1       0.6181001       130.2006
2013    22      2       0.5703071       122.8373
2013    22      3       0.6218638       129.6344
2013    22      4       0.6463134       132.4842
2013    22      5       0.6028414       126.6363
2013    22      6       0.4612634       105.1612
2013    22      7       0.3933405       93.83427
2013    23      0       0.4170424       98.24948
2013    23      1       0.3851639       91.76844
2013    23      2       0.3685635       88.45592
2013    23      3       0.3692211       88.55392
2013    23      4       0.3930053       92.65204
2013    23      5       0.453479        102.9912
2013    23      6       0.5064518       112.2911
2013    23      7       0.688217        140.4106
2013    24      0       0.5978479       127.8354
2013    24      1       0.4611644       105.7318
2013    24      2       0.4424296       101.9963
2013    24      3       0.548493        118.0515
2013    24      4       0.4930714       109.7092
2013    24      5       0.4206003       97.54678
2013    24      6       0.4508017       102.7277
2013    24      7       0.5025249       112.2437
2013    25      0       0.4001989       94.70431
2013    25      1       0.3077707       77.04478
2013    25      2       0.3574791       86.6284
2013    25      3       0.4606243       105.4664
2013    25      4       0.5723439       124.3461
2013    25      5       0.6377568       134.9533
2013    25      6       0.6365497       135.2827
2013    25      7       0.8117929       158.5662
2013    26      0       0.9032136       169.8829
2013    26      1       0.795389        157.2504
2013    26      2       0.7603961       152.1101
2013    26      3       0.581585        125.941
2013    26      4       0.3731708       89.42714
2013    26      5       0.3466032       84.57638
2013    26      6       0.4814765       110.1296
2013    26      7       0.5935474       128.5447
2013    27      0       0.6450128       136.5318
2013    27      1       0.5392016       120.1097
2013    27      2       0.6622895       137.6494
2013    27      3       1.461361        214.781
2013    27      4       1.957399        240.0699
2013    27      5       2.237591        249.4197
2013    27      6       2.540016        256.7401
2013    27      7       2.572737        258.6125
2013    28      0       2.393681        254.86
2013    28      1       2.357343        254.3376
2013    28      2       2.424261        256.3277
2013    28      3       2.361413        254.8624
2013    28      4       2.062355        245.6688
2013    28      5       2.032698        243.855
2013    28      6       2.053702        244.5357
2013    28      7       1.942621        241.0235
2013    29      0       1.718989        231.6054
2013    29      1       1.552603        222.1301
2013    29      2       1.57174         222.826
2013    29      3       1.747145        231.1949
2013    29      4       2.147365        245.8342
2013    29      5       2.61543         257.596
2013    29      6       2.819298        261.9586
2013    29      7       2.81725         262.4297
2013    30      0       2.658481        259.5305
2013    30      1       2.058721        244.8586
2013    30      2       1.844821        236.2909
2013    30      3       1.411383        210.8487
2013    30      4       2.094311        244.6699
2013    30      5       2.43335         254.9269
2013    30      6       2.354725        252.6341
2013    30      7       2.712076        259.8121
2014    1       0       0.9202416       166.8121
2014    1       1       0.8891214       163.9412
2014    1       2       0.8426032       158.9295
2014    1       3       0.9299437       168.8889
2014    1       4       0.9254899       168.3717
2014    1       5       0.9438803       170.2642
2014    1       6       0.8851776       163.9438
2014    1       7       0.820686        157.1937
2014    2       0       0.8271215       158.6328
2014    2       1       0.8532199       162.2453
2014    2       2       0.9347101       171.5603
2014    2       3       0.8738903       164.9155
2014    2       4       0.6275774       131.8823
2014    2       5       0.5979916       126.8677
2014    2       6       0.7367385       146.438
2014    2       7       0.9351002       170.4406
2014    3       0       1.046899        182.4543
2014    3       1       1.053697        183.5978
2014    3       2       1.056601        183.7516
2014    3       3       1.065256        184.1106
2014    3       4       0.8513288       161.5208
2014    3       5       0.7992845       154.7628
2014    3       6       0.9636458       173.1783
2014    3       7       1.103598        187.008
2014    4       0       0.9136964       168.6481
2014    4       1       0.5487857       120.6448
2014    4       2       0.5130457       114.5589
2014    4       3       0.5029898       112.7985
2014    4       4       0.3421465       83.81262
2014    4       5       0.4966369       111.0634
2014    4       6       0.5903513       126.1998
2014    4       7       0.644713        134.5687
2014    5       0       0.6758408       139.5173
2014    5       1       0.6102182       130.0425
2014    5       2       0.6014455       128.639
2014    5       3       0.626999        132.3526
2014    5       4       0.608526        129.2916
2014    5       5       0.5448769       119.5214
2014    5       6       0.4653307       106.5568
2014    5       7       0.4023432       95.56246
2014    6       0       0.3594755       87.9136
2014    6       1       0.3260489       81.56538
2014    6       2       0.2662845       69.29864
2014    6       3       0.2246771       60.17927
2014    6       4       0.2436377       64.01071
2014    6       5       0.2564665       66.84992
2014    6       6       0.241658        63.95646
2014    6       7       0.239156        63.62144
2014    7       0       0.2415038       64.05996
2014    7       1       0.2295779       61.84264
2014    7       2       0.2271793       61.34534
2014    7       3       0.239427        63.79508
2014    7       4       0.2606268       68.19451
2014    7       5       0.2255693       60.56037
2014    7       6       0.1943971       53.7817
2014    7       7       0.2010053       55.45964
2014    8       0       0.1723142       48.88748
2014    8       1       0.1449324       42.20978
2014    8       2       0.1445251       42.03864
2014    8       3       0.1309561       38.79153
2014    8       4       0.1439534       41.85084
2014    8       5       0.1601517       46.10715
2014    8       6       0.1745835       49.49271
2014    8       7       0.2846682       73.5737
2014    9       0       0.2895967       74.51177
2014    9       1       0.2300583       61.59725
2014    9       2       0.237178        63.01091
2014    9       3       0.2213539       59.4451
2014    9       4       0.230598        61.31083
2014    9       5       0.29417         74.75213
2014    9       6       0.343017        84.52059
2014    9       7       0.2757865       71.00851
2014    10      0       0.2203808       59.27638
2014    10      1       0.1986922       54.35135
2014    10      2       0.181467        50.25696
2014    10      3       0.1698312       47.25659
2014    10      4       0.1613592       44.94706
2014    10      5       0.1553113       43.41434
2014    10      6       0.3852132       91.98784
2014    10      7       0.759086        150.5961
2014    11      0       1.274092        202.3861
2014    11      1       1.556591        220.8738
2014    11      2       1.403211        210.5456
2014    11      3       1.155216        190.8566
2014    11      4       1.289274        201.0738
2014    11      5       1.701115        225.9271
2014    11      6       2.006886        239.6334
2014    11      7       1.978169        238.8033
2014    12      0       1.950667        237.9814
2014    12      1       1.958527        237.8811
2014    12      2       2.066917        241.2931
2014    12      3       1.691217        225.0136
2014    12      4       1.897513        235.5554
2014    12      5       2.112314        244.2161
2014    12      6       1.953168        238.5668
2014    12      7       1.818521        232.8094
2014    13      0       1.953656        238.9512
2014    13      1       1.930419        238.5988
2014    13      2       1.773605        231.8332
2014    13      3       1.719937        229.1993
2014    13      4       1.93302         238.0921
2014    13      5       2.17672         246.7688
2014    13      6       2.349282        251.9678
2014    13      7       2.288798        250.4315
2014    14      0       1.876368        236.8579
2014    14      1       1.593818        223.5783
2014    14      2       1.505617        218.8179
2014    14      3       1.209013        197.3898
2014    14      4       0.823158        158.4335
2014    14      5       0.6704223       138.8433
2014    14      6       0.6493173       135.2278
2014    14      7       0.6180146       130.4042
2014    15      0       0.6938815       141.3873
2014    15      1       0.6928844       141.1869
2014    15      2       0.6218977       130.7912
2014    15      3       0.7171716       144.0457
2014    15      4       0.9300306       169.41
2014    15      5       1.468215        214.5796
2014    15      6       1.72124         227.2601
2014    15      7       1.318802        203.6104
2014    16      0       1.408192        210.4288
2014    16      1       1.585851        221.4638
2014    16      2       1.556727        219.3519
2014    16      3       1.57815         220.3087
2014    16      4       1.575896        219.7887
2014    16      5       1.585331        220.1531
2014    16      6       1.773783        230.1279
2014    16      7       1.833766        233.3477
2014    17      0       1.76974         231.4018
2014    17      1       1.740757        230.4985
2014    17      2       1.815631        234.1053
2014    17      3       1.805018        233.1392
2014    17      4       1.751734        230.223
2014    17      5       1.820878        232.9854
2014    17      6       1.532981        218.5559
2014    17      7       1.208101        196.8106
2014    18      0       0.8094815       157.2525
2014    18      1       0.4004098       95.95716
2014    18      2       0.3692196       89.05473
2014    18      3       0.3750929       89.5425
2014    18      4       0.3446878       84.14045
2014    18      5       0.4126185       97.30113
2014    18      6       0.3759646       90.78446
2014    18      7       0.3626479       88.16559
2014    19      0       0.3251967       80.90343
2014    19      1       0.2872834       73.29412
2014    19      2       0.3394064       83.33658
2014    19      3       0.4009797       94.57357
2014    19      4       0.4326868       100.2503
2014    19      5       0.4549887       104.1974
2014    19      6       0.4629549       105.5896
2014    19      7       0.515192        114.268
2014    20      0       0.5212889       115.7608
2014    20      1       0.4332528       101.1801
2014    20      2       0.3844995       92.39683
2014    20      3       0.3299379       82.24428
2014    20      4       0.2968176       75.35733
2014    20      5       0.3242317       80.7028
2014    20      6       0.3981425       94.35594
2014    20      7       0.524469        115.2991
2014    21      0       0.6453705       133.5149
2014    21      1       0.5643209       121.0954
2014    21      2       0.6149763       127.5351
2014    21      3       0.743088        145.9904
2014    21      4       0.6999371       141.2436
2014    21      5       0.4760453       106.9962
2014    21      6       0.5213238       114.6114
2014    21      7       0.6582047       136.0696
2014    22      0       0.6056177       128.8423
2014    22      1       0.5000629       111.9412
2014    22      2       0.4756798       107.214
2014    22      3       0.4759401       106.8215
2014    22      4       0.4806823       107.0232
2014    22      5       0.5084102       110.9767
2014    22      6       0.5416074       116.2986
2014    22      7       0.4809421       106.8658
2014    23      0       0.4976232       110.0805
2014    23      1       0.4452774       102.291
2014    23      2       0.531818        116.5179
2014    23      3       0.5247564       115.4965
2014    23      4       0.5085963       112.7395
2014    23      5       0.4619191       104.9696
2014    23      6       0.3925532       93.60071
2014    23      7       0.4140025       97.65535
2014    24      0       0.4300457       100.4818
2014    24      1       0.3369016       83.17513
2014    24      2       0.3491979       85.49842
2014    24      3       0.3787182       90.90025
2014    24      4       0.3737803       89.9028
2014    24      5       0.4008747       94.43704
2014    24      6       0.4599048       104.4615
2014    24      7       0.54569         119.1483
2014    25      0       0.5996392       127.9369
2014    25      1       0.4790933       108.7203
2014    25      2       0.5223143       115.9076
2014    25      3       0.6839903       140.14
2014    25      4       0.6779994       138.9867
2014    25      5       0.6785649       138.8937
2014    25      6       0.6393297       133.6385
2014    25      7       0.6349128       133.6875
2014    26      0       0.5495975       121.3716
2014    26      1       0.4476997       103.9774
2014    26      2       0.5399997       119.2489
2014    26      3       0.5679141       123.6655
2014    26      4       0.5454771       120.1717
2014    26      5       0.5048379       113.4117
2014    26      6       0.4604121       105.0706
2014    26      7       0.5055322       111.8021
2014    27      0       0.4951005       110.4659
2014    27      1       0.4629616       104.3952
2014    27      2       0.4651594       104.1631
2014    27      3       0.4979697       109.2866
2014    27      4       0.6152802       125.7995
2014    27      5       0.7174329       140.1704
2014    27      6       1.034699        178.6784
2014    27      7       1.470228        215.7235
2014    28      0       1.248585        200.5268
2014    28      1       0.9224896       169.0847
2014    28      2       0.7888848       153.3558
2014    28      3       0.7283856       145.6475
2014    28      4       0.6575751       135.2469
2014    28      5       0.60702         127.2652
2014    28      6       0.5775907       123.5587
2014    28      7       0.6490926       135.8374
2014    29      0       0.660261        137.7757
2014    29      1       0.6384159       134.2133
2014    29      2       0.6699239       138.2839
2014    29      3       0.7059572       143.1232
2014    29      4       0.6824366       139.637
2014    29      5       0.6376165       133.3681
2014    29      6       0.6293027       132.3901
2014    29      7       0.6821654       140.4415
2014    30      0       0.7366515       148.2501
2014    30      1       0.6037966       129.2305
2014    30      2       0.5851917       126.2412
2014    30      3       0.5894083       126.7548
2014    30      4       0.619889        131.0721
2014    30      5       0.6594823       136.649
2014    30      6       0.6490945       135.4316
2014    30      7       0.6987522       142.9591
2015    1       0       0.4356802       101.2986
2015    1       1       0.3063651       76.97512
2015    1       2       0.2876341       72.96268
2015    1       3       0.3210957       79.51818
2015    1       4       0.3813063       91.04355
2015    1       5       0.4273977       99.05499
2015    1       6       0.4405794       101.695
2015    1       7       0.4876233       109.6306
2015    2       0       0.474092        107.3981
2015    2       1       0.4140795       97.1038
2015    2       2       0.3652809       88.39982
2015    2       3       0.3569967       86.90921
2015    2       4       0.3488629       85.23623
2015    2       5       0.3656006       88.29839
2015    2       6       0.3477088       84.93589
2015    2       7       0.3401909       83.53206
2015    3       0       0.3170875       78.93911
2015    3       1       0.3113502       77.72908
2015    3       2       0.3267123       80.68044
2015    3       3       0.3483714       84.96617
2015    3       4       0.3900913       92.59133
2015    3       5       0.4344182       100.1389
2015    3       6       0.4217          97.71958
2015    3       7       0.4088895       95.40521
2015    4       0       0.291377        73.65333
2015    4       1       0.2766298       71.16465
2015    4       2       0.4275196       100.1013
2015    4       3       0.4524777       104.2362
2015    4       4       0.7243418       144.6876
2015    4       5       1.165027        190.818
2015    4       6       1.16602         189.4814
2015    4       7       0.7477235       147.2614
2015    5       0       0.6365921       131.3987
2015    5       1       0.6245253       129.0817
2015    5       2       0.5203336       113.9197
2015    5       3       0.4725788       106.3644
2015    5       4       0.5045159       111.7622
2015    5       5       0.5116175       112.778
2015    5       6       0.3742983       88.98656
2015    5       7       0.3117685       77.45347
2015    6       0       0.3337915       82.10971
2015    6       1       0.2667952       69.04487
2015    6       2       0.2035333       55.60885
2015    6       3       0.177774        49.95462
2015    6       4       0.1974032       54.02981
2015    6       5       0.2088685       56.37575
2015    6       6       0.2077939       56.08969
2015    6       7       0.2524929       65.70843
2015    7       0       0.2827689       72.0866
2015    7       1       0.2929043       74.29822
2015    7       2       0.27314         70.38782
2015    7       3       0.2440058       64.30289
2015    7       4       0.2597139       67.6317
2015    7       5       0.3088436       77.58891
2015    7       6       0.614244        129.931
2015    7       7       0.9424987       170.9969
2015    8       0       1.200602        195.2916
2015    8       1       1.143573        190.5104
2015    8       2       0.9382296       170.8379
2015    8       3       1.448475        212.5095
2015    8       4       2.272508        248.4901
2015    8       5       2.737347        259.1145
2015    8       6       3.427788        268.1644
2015    8       7       3.59364         268.8356
2015    9       0       3.25968         265.9266
2015    9       1       3.427265        267.7074
2015    9       2       3.174965        263.8849
2015    9       3       3.483566        265.997
2015    9       4       4.193228        272.8182
2015    9       5       4.119556        273.8582
2015    9       6       3.0606          266.2835
2015    9       7       2.413491        255.1114
2015    10      0       1.130713        192.1037
2015    10      1       0.4378056       103.7043
2015    10      2       0.2658816       70.01531
2015    10      3       0.2523228       66.95793
2015    10      4       0.2675468       70.0964
2015    10      5       0.2934941       75.28131
2015    10      6       0.277665        72.0155
2015    10      7       0.3561766       87.78807
2015    11      0       0.3165286       79.96409
2015    11      1       0.2553721       67.32109
2015    11      2       0.221556        59.87322
2015    11      3       0.2025561       55.68581
2015    11      4       0.1943875       53.84568
2015    11      5       0.2864167       73.1827
2015    11      6       0.3406552       84.03056
2015    11      7       0.3504682       86.19364
2015    12      0       0.3396476       84.62494
2015    12      1       0.3469591       86.26967
2015    12      2       0.4650668       107.5846
2015    12      3       0.7181465       145.741
2015    12      4       0.7451679       149.6405
2015    12      5       0.6640303       138.7672
2015    12      6       0.7049454       144.0332
2015    12      7       0.8889189       166.462
2015    13      0       1.08617         187.0826
2015    13      1       0.8996901       169.2681
2015    13      2       0.6728018       140.3667
2015    13      3       0.5889062       127.8917
2015    13      4       0.5706083       124.2724
2015    13      5       0.5807323       124.9444
2015    13      6       0.6181194       130.4995
2015    13      7       0.6602409       136.7638
2015    14      0       0.6258875       132.4884
2015    14      1       0.4707849       108.3335
2015    14      2       0.4289584       100.9718
2015    14      3       0.4156112       98.32792
2015    14      4       0.4839139       109.9459
2015    14      5       0.5821212       125.4953
2015    14      6       0.6645353       137.6732
2015    14      7       0.7488702       149.1814
2015    15      0       0.8574775       162.9311
2015    15      1       0.9521331       174.0178
2015    15      2       0.9830877       177.3819
2015    15      3       1.014159        180.4276
2015    15      4       0.9234436       170.8899
2015    15      5       0.6772951       140.4889
2015    15      6       0.6213062       132.1252
2015    15      7       0.7827461       153.9123
2015    16      0       1.007472        179.429
2015    16      1       0.9721114       176.4472
2015    16      2       0.6748967       140.642
2015    16      3       0.4771146       109.767
2015    16      4       0.8009623       156.2551
2015    16      5       1.119246        189.5067
2015    16      6       1.271939        202.7269
2015    16      7       1.259834        201.7781
2015    17      0       1.232321        200.416
2015    17      1       1.058515        185.8471
2015    17      2       1.068617        186.2315
2015    17      3       1.223282        198.8392
2015    17      4       1.32868         206.7391
2015    17      5       1.438935        214.1259
2015    17      6       1.452586        214.7942
2015    17      7       1.468307        216.2939
2015    18      0       1.380132        210.8819
2015    18      1       1.003362        179.5705
2015    18      2       0.8125768       157.9445
2015    18      3       0.9771752       175.9863
2015    18      4       1.314528        204.8523
2015    18      5       1.591924        223.075
2015    18      6       1.48242         216.8503
2015    18      7       1.476796        216.7306
2015    19      0       1.563788        222.4447
2015    19      1       1.38922         212.0356
2015    19      2       1.212276        198.9449
2015    19      3       1.245386        201.3426
2015    19      4       1.220867        199.3272
2015    19      5       1.077387        186.8612
2015    19      6       0.8364715       161.3623
2015    19      7       0.5727088       125.4464
2015    20      0       0.3433345       84.92987
2015    20      1       0.2244855       59.75143
2015    20      2       0.2383539       62.84275
2015    20      3       0.2578219       67.27749
2015    20      4       0.2475641       65.21813
2015    20      5       0.2405783       63.7851
2015    20      6       0.2229268       60.01104
2015    20      7       0.2650643       69.33399
2015    21      0       0.3321987       83.36182
2015    21      1       0.2924656       75.36701
2015    21      2       0.2454691       65.23664
2015    21      3       0.2834929       73.18132
2015    21      4       0.2766454       71.67307
2015    21      5       0.2883384       73.88576
2015    21      6       0.3243655       81.21784
2015    21      7       0.4767612       109.179
2015    22      0       0.8071245       156.5461
2015    22      1       1.049262        182.837
2015    22      2       1.265505        201.228
2015    22      3       1.433946        212.5409
2015    22      4       1.455289        212.9183
2015    22      5       1.872549        232.0048
2015    22      6       2.763871        258.6693
2015    22      7       2.726527        258.1697
2015    23      0       2.2059          246.6722
2015    23      1       1.723052        229.272
2015    23      2       1.702433        228.1615
2015    23      3       1.80669         233.0844
2015    23      4       1.635319        224.2512
2015    23      5       1.677223        225.5986
2015    23      6       1.982389        237.8317
2015    23      7       2.344846        248.4881
2015    24      0       2.253426        246.3069
2015    24      1       1.787818        229.8245
2015    24      2       1.338433        205.1396
2015    24      3       1.304841        202.9544
2015    24      4       1.656961        225.2905
2015    24      5       2.069469        243.1895
2015    24      6       2.217794        247.4856
2015    24      7       2.034558        241.1338
2015    25      0       1.645238        224.2992
2015    25      1       1.642988        225.1391
2015    25      2       1.70566         228.5284
2015    25      3       1.704356        227.9251
2015    25      4       1.533265        217.5639
2015    25      5       1.932369        234.8792
2015    25      6       1.928335        234.5794
2015    25      7       1.707822        225.5778
2015    26      0       1.988264        238.5825
2015    26      1       2.348764        250.2949
2015    26      2       2.27631         248.3957
2015    26      3       2.365313        250.5024
2015    26      4       2.302372        248.851
2015    26      5       2.336055        249.8819
2015    26      6       2.489635        253.7612
2015    26      7       2.584622        256.6921
2015    27      0       2.738249        260.1164
2015    27      1       3.47207         269.9219
2015    27      2       3.520564        269.7355
2015    27      3       2.810087        260.0583
2015    27      4       3.496358        268.5358
2015    27      5       3.524667        268.5367
2015    27      6       3.674982        269.5694
2015    27      7       3.949508        272.7868
2015    28      0       3.571323        270.7449
2015    28      1       2.98778         263.9305
2015    28      2       2.415441        252.0558
2015    28      3       2.958238        262.1
2015    28      4       3.723428        269.6105
2015    28      5       3.650335        269.99
2015    28      6       3.026951        263.489
2015    28      7       2.88672         261.4204
2015    29      0       2.934095        261.979
2015    29      1       2.873949        261.0035
2015    29      2       3.240847        265.8337
2015    29      3       3.885202        271.0388
2015    29      4       3.494225        267.7231
2015    29      5       3.471912        267.4795
2015    29      6       2.880938        260.9907
2015    29      7       3.035435        263.5102
2015    30      0       2.547268        255.5779
2015    30      1       1.295808        202.7656
2015    30      2       0.8570147       160.6948
2015    30      3       1.385824        208.7191
2015    30      4       2.036387        241.0198
2015    30      5       3.517169        269.0599
2015    30      6       2.581639        257.3431
2015    30      7       3.070458        265.3729
2016    1       0       0.9885          173.3774
2016    1       1       0.5706336       122.15
2016    1       2       0.2213151       58.86111
2016    1       3       0.4981394       110.7009
2016    1       4       0.9852782       173.3318
2016    1       5       1.079064        182.0789
2016    1       6       1.084484        182.9563
2016    1       7       1.038872        179.3395
2016    2       0       1.040139        179.9072
2016    2       1       0.8264784       158.1704
2016    2       2       0.5861525       126.0171
2016    2       3       0.5933047       126.8784
2016    2       4       0.6203318       130.4319
2016    2       5       0.6475163       134.0443
2016    2       6       0.676394        138.1035
2016    2       7       0.7548642       148.7184
2016    3       0       0.7565632       149.5712
2016    3       1       0.5095729       114.6033
2016    3       2       0.3920827       94.04532
2016    3       3       0.4221612       99.14518
2016    3       4       0.4147047       97.71188
2016    3       5       0.4775788       108.6333
2016    3       6       0.6064925       128.9875
2016    3       7       0.6968649       141.9682
2016    4       0       0.5163091       115.914
2016    4       1       0.305665        77.53245
2016    4       2       0.2434669       64.08987
2016    4       3       0.2346518       62.10489
2016    4       4       0.2903862       74.01106
2016    4       5       0.4201892       98.84944
2016    4       6       0.5638518       122.7531
2016    4       7       0.7089523       143.2429
2016    5       0       0.638389        133.8443
2016    5       1       0.471112        107.687
2016    5       2       0.3695065       89.14441
2016    5       3       0.3287187       80.98564
2016    5       4       0.3422765       83.54764
2016    5       5       0.3698504       88.80516
2016    5       6       0.3287885       80.48128
2016    5       7       0.3249592       79.81719
2016    6       0       0.3757237       89.2055
2016    6       1       0.4661743       105.0023
2016    6       2       0.4540813       103.9332
2016    6       3       0.4374787       101.8238
2016    6       4       0.4781278       108.3153
2016    6       5       0.4892857       109.1726
2016    6       6       0.3649902       87.13216
2016    6       7       0.3431222       82.87687
2016    7       0       0.4069486       94.64273
2016    7       1       0.4585717       103.5491
2016    7       2       0.4687222       106.05
2016    7       3       0.5001067       111.7575
2016    7       4       0.580873        124.1357
2016    7       5       0.5784427       122.3542
2016    7       6       0.610338        126.5711
2016    7       7       0.5749708       122.1652
2016    8       0       0.4620926       104.334
2016    8       1       0.4585263       103.2409
2016    8       2       0.4850566       107.9502
2016    8       3       0.626471        129.0879
2016    8       4       0.74665         146.0783
2016    8       5       0.8039714       154.252
2016    8       6       0.8116622       155.1553
2016    8       7       0.8017529       153.2518
2016    9       0       0.8924846       163.2844
2016    9       1       0.776491        149.6001
2016    9       2       0.8092111       153.9847
2016    9       3       0.8979629       164.8151
2016    9       4       0.9118653       166.4824
2016    9       5       0.899058        164.9699
2016    9       6       0.8057571       154.0749
2016    9       7       0.7561887       148.1346
2016    10      0       0.7470259       147.6466
2016    10      1       0.7041117       142.4179
2016    10      2       0.8610967       162.6771
2016    10      3       1.218731        197.505
2016    10      4       1.330804        205.1086
2016    10      5       1.521739        216.0744
2016    10      6       1.912364        233.5847
2016    10      7       1.713219        223.8811
2016    11      0       1.303264        198.2803
2016    11      1       0.9747345       170.9412
2016    11      2       0.7550456       147.3886
2016    11      3       0.5621819       120.8327
2016    11      4       0.5527472       119.2149
2016    11      5       0.6145637       128.5859
2016    11      6       0.6065071       127.8872
2016    11      7       0.6135096       129.1456
2016    12      0       0.5318984       116.2844
2016    12      1       0.5028428       111.1991
2016    12      2       0.5599285       120.3476
2016    12      3       0.5386891       117.1186
2016    12      4       0.5370093       116.6859
2016    12      5       0.5848946       123.8287
2016    12      6       0.6668311       135.5233
2016    12      7       0.8865194       162.8768
2016    13      0       0.7861206       151.2592
2016    13      1       0.4141448       96.63843
2016    13      2       0.2565719       66.76084
2016    13      3       0.3087071       76.77973
2016    13      4       0.3693481       88.44
2016    13      5       0.356043        86.48082
2016    13      6       0.2828268       72.18603
2016    13      7       0.2360241       62.6747
2016    14      0       0.2179391       59.31455
2016    14      1       0.2358144       62.96295
2016    14      2       0.2492455       65.63226
2016    14      3       0.2586379       67.39369
2016    14      4       0.2679844       69.11554
2016    14      5       0.2642995       68.45683
2016    14      6       0.2346424       62.46546
2016    14      7       0.267978        69.55336
2016    15      0       0.3499929       85.96964
2016    15      1       0.3157176       79.36569
2016    15      2       0.2910368       74.57962
2016    15      3       0.276908        71.80781
2016    15      4       0.2746206       71.29027
2016    15      5       0.286151        73.37072
2016    15      6       0.282896        72.62093
2016    15      7       0.274384        70.93084
2016    16      0       0.2968743       75.61533
2016    16      1       0.2795219       72.16276
2016    16      2       0.2723409       70.54277
2016    16      3       0.288654        73.60534
2016    16      4       0.312725        78.44092
2016    16      5       0.3182826       79.47707
2016    16      6       0.3240018       80.4463
2016    16      7       0.367126        88.78617
2016    17      0       0.349678        85.72385
2016    17      1       0.2565896       66.884
2016    17      2       0.2218052       59.06406
2016    17      3       0.2038169       54.8575
2016    17      4       0.214021        56.81242
2016    17      5       0.2445698       63.03987
2016    17      6       0.35863         86.35596
2016    17      7       0.5814246       124.6988
2016    18      0       0.734258        147.039
2016    18      1       0.7343388       148.1889
2016    18      2       0.7608209       151.7848
2016    18      3       0.9079053       168.0405
2016    18      4       1.628661        223.3042
2016    18      5       2.180729        246.3312
2016    18      6       2.101385        242.4407
2016    18      7       1.942277        235.4709
2016    19      0       2.044098        240.2876
2016    19      1       2.125046        244.362
2016    19      2       2.058215        243.6073
2016    19      3       2.048975        243.6133
2016    19      4       1.709949        229.2668
2016    19      5       1.228099        198.4974
2016    19      6       1.115368        188.5781
2016    19      7       1.109503        188.3412
2016    20      0       1.147636        192.1778
2016    20      1       1.064905        185.1931
2016    20      2       1.042082        182.9318
2016    20      3       1.230165        198.1578
2016    20      4       1.3938          209.7485
2016    20      5       1.50279         216.2077
2016    20      6       1.430816        211.4593
2016    20      7       1.366638        207.183
2016    21      0       1.678322        226.312
2016    21      1       2.034899        241.4271
2016    21      2       1.495963        215.9941
2016    21      3       1.619968        222.6584
2016    21      4       2.268599        249.2056
2016    21      5       2.807455        261.5737
2016    21      6       3.061861        265.1091
2016    21      7       2.754604        260.55
2016    22      0       2.478433        254.9286
2016    22      1       1.897977        237.3876
2016    22      2       1.683694        227.4631
2016    22      3       1.701013        227.8969
2016    22      4       1.803931        232.1255
2016    22      5       1.808062        232.0321
2016    22      6       1.70874         227.7476
2016    22      7       1.598833        222.0127
2016    23      0       1.50506         217.0348
2016    23      1       1.425769        212.3216
2016    23      2       1.477637        216.0004
2016    23      3       1.524629        219.0431
2016    23      4       1.509261        217.5183
2016    23      5       1.437876        212.614
2016    23      6       1.334319        205.0506
2016    23      7       1.236047        197.5188
2016    24      0       1.078405        184.1374
2016    24      1       0.9895467       175.2517
2016    24      2       0.9588575       172.3803
2016    24      3       0.9238586       168.3837
2016    24      4       0.8016717       153.8002
2016    24      5       0.6825837       138.5187
2016    24      6       0.7291021       145.1559
2016    24      7       0.8574675       161.3828
2016    25      0       0.6689933       138.3742
2016    25      1       0.4437906       103.6968
2016    25      2       0.3292549       82.71058
2016    25      3       0.265512        70.03816
2016    25      4       0.2357781       63.62364
2016    25      5       0.2236162       60.80836
2016    25      6       0.2417105       64.58479
2016    25      7       0.3835714       92.97993
2016    26      0       0.4255576       100.8187
2016    26      1       0.2976067       76.28464
2016    26      2       0.5040437       113.9039
2016    26      3       1.11555         188.859
2016    26      4       1.977242        239.99
2016    26      5       2.024882        241.5283
2016    26      6       2.233197        247.547
2016    26      7       2.279948        248.732
2016    27      0       2.16967         245.301
2016    27      1       1.824195        232.0937
2016    27      2       1.264203        198.5452
2016    27      3       1.051446        180.2084
2016    27      4       0.6768012       135.6503
2016    27      5       0.7187267       141.252
2016    27      6       0.7261458       142.8373
2016    27      7       0.7237255       144.2572
2016    28      0       0.8153316       156.7639
2016    28      1       0.7967807       155.1575
2016    28      2       0.6261024       132.5019
2016    28      3       0.8788011       164.7458
2016    28      4       1.603809        223.2119
2016    28      5       1.929215        238.3612
2016    28      6       2.018805        241.5918
2016    28      7       2.237056        248.6942
2016    29      0       2.395507        253.2692
2016    29      1       2.073367        243.6353
2016    29      2       1.752797        229.7688
2016    29      3       2.007444        240.3419
2016    29      4       2.596038        256.5218
2016    29      5       2.932276        262.0224
2016    29      6       3.126953        264.3612
2016    29      7       3.147118        264.73
2016    30      0       3.288071        266.6875
2016    30      1       3.120233        265.4756
2016    30      2       3.140404        265.3
2016    30      3       2.924173        262.4871
2016    30      4       2.918679        262.5362
2016    30      5       2.688053        258.452
2016    30      6       2.642955        257.6231
2016    30      7       2.434783        253.4002
2017    1       0       0.749505        144.2871
2017    1       1       1.081253        178.8538
2017    1       2       1.732444        224.493
2017    1       3       1.541347        215.5349
2017    1       4       1.351839        204.5196
2017    1       5       1.185875        192.5639
2017    1       6       1.111871        186.3909
2017    1       7       1.04264         180.1636
2017    2       0       0.9351053       170.0363
2017    2       1       0.6470183       135.6063
2017    2       2       0.6628444       137.1435
2017    2       3       0.644315        134.1038
2017    2       4       0.5827732       125.1357
2017    2       5       0.5880133       126.1335
2017    2       6       0.6002831       127.8366
2017    2       7       0.6395613       133.3223
2017    3       0       0.6215528       131.055
2017    3       1       0.5071103       113.8668
2017    3       2       0.5693647       123.8037
2017    3       3       0.747896        148.7815
2017    3       4       0.9073117       167.7368
2017    3       5       0.9334916       170.6338
2017    3       6       0.8235054       157.8619
2017    3       7       0.7641663       150.5339
2017    4       0       0.7061928       143.4978
2017    4       1       0.585864        126.57
2017    4       2       0.6303097       132.974
2017    4       3       0.6981578       142.3323
2017    4       4       0.7641547       150.6505
2017    4       5       0.8417713       159.6107
2017    4       6       0.9661505       173.2682
2017    4       7       1.054165        182.3243
2017    5       0       0.9983525       177.2867
2017    5       1       0.8066904       156.0029
2017    5       2       0.746524        148.0007
2017    5       3       0.8477913       160.6253
2017    5       4       0.7983584       154.775
2017    5       5       0.5151778       114.2435
2017    5       6       0.4380921       100.7778
2017    5       7       0.5415565       118.633
2017    6       0       0.5260448       116.4705
2017    6       1       0.4296551       100.1542
2017    6       2       0.3996076       94.77633
2017    6       3       0.4298789       100.1239
2017    6       4       0.4469767       102.7609
2017    6       5       0.440438        101.3018
2017    6       6       0.401584        94.56591
2017    6       7       0.384036        91.71155
2017    7       0       0.3687077       88.8577
2017    7       1       0.3183472       78.88296
2017    7       2       0.3396332       83.51501
2017    7       3       0.347238        85.52405
2017    7       4       0.2964765       75.76033
2017    7       5       0.2618438       68.541
2017    7       6       0.2838857       73.01079
2017    7       7       0.3365405       83.49656
2017    8       0       0.3702123       89.80127
2017    8       1       0.7077509       143.5346
2017    8       2       0.899596        167.067
2017    8       3       0.9053402       167.7114
2017    8       4       1.122468        189.2936
2017    8       5       0.9447513       172.0565
2017    8       6       0.5685406       123.502
2017    8       7       0.4708991       107.2096
2017    9       0       0.3468482       84.50122
2017    9       1       0.3140762       77.45345
2017    9       2       0.2792039       70.29312
2017    9       3       0.2355704       61.25434
2017    9       4       0.2256562       58.90387
2017    9       5       0.238536        61.7337
2017    9       6       0.2683557       68.47714
2017    9       7       0.3233599       80.19032
2017    10      0       0.2819969       71.61728
2017    10      1       0.231414        60.35866
2017    10      2       0.2126908       56.68337
2017    10      3       0.2872805       70.98599
2017    10      4       0.290552        72.08604
2017    10      5       0.3719945       87.59153
2017    10      6       0.4349208       98.99974
2017    10      7       0.5524544       119.2694
2017    11      0       0.8913157       165.7086
2017    11      1       1.065877        183.4267
2017    11      2       1.022912        178.8903
2017    11      3       1.135078        188.5997
2017    11      4       0.872477        163.2787
2017    11      5       0.7332913       146.2733
2017    11      6       0.855586        160.8143
2017    11      7       0.8575921       161.0198
2017    12      0       0.6809172       138.8303
2017    12      1       0.5462019       118.9603
2017    12      2       0.4886384       109.8828
2017    12      3       0.3931024       93.29246
2017    12      4       0.2614097       67.65913
2017    12      5       0.2015487       55.19181
2017    12      6       0.1871105       52.09223
2017    12      7       0.2136526       57.84268
2017    13      0       0.2278173       60.86207
2017    13      1       0.2315457       61.79885
2017    13      2       0.2385071       63.10882
2017    13      3       0.2333857       61.93769
2017    13      4       0.2207847       59.27699
2017    13      5       0.2275993       60.69838
2017    13      6       0.2156589       58.36765
2017    13      7       0.227476        61.18266
2017    14      0       0.2534816       66.82972
2017    14      1       0.1940746       53.83947
2017    14      2       0.1855381       51.83856
2017    14      3       0.1849366       51.57405
2017    14      4       0.1850135       51.52202
2017    14      5       0.1976026       54.3452
2017    14      6       0.2179885       58.59514
2017    14      7       0.2524733       65.78881
2017    15      0       0.2757594       70.66117
2017    15      1       0.2428356       63.79841
2017    15      2       0.2387281       62.65604
2017    15      3       0.2592672       66.64592
2017    15      4       0.2340655       61.15662
2017    15      5       0.2009843       54.05931
2017    15      6       0.2077889       56.07225
2017    15      7       0.2605406       67.85566
2017    16      0       0.2567948       67.27449
2017    16      1       0.1875848       51.99789
2017    16      2       0.1835551       50.67429
2017    16      3       0.1805562       49.90526
2017    16      4       0.1720426       47.93071
2017    16      5       0.1696903       47.39802
2017    16      6       0.1941819       53.00767
2017    16      7       0.2247489       59.65684
2017    17      0       0.1726528       48.06661
2017    17      1       0.1392432       40.4515
2017    17      2       0.1483063       42.89348
2017    17      3       0.182509        50.99985
2017    17      4       0.1906624       52.85029
2017    17      5       0.197795        54.47755
2017    17      6       0.1873619       52.284
2017    17      7       0.1863477       52.15595
2017    18      0       0.1916072       53.5297
2017    18      1       0.1449659       42.7658
2017    18      2       0.1165401       35.70573
2017    18      3       0.1342416       39.91446
2017    18      4       0.1534483       44.35843
2017    18      5       0.1458846       42.2866
2017    18      6       0.1517682       43.67226
2017    18      7       0.2124283       57.94329
2017    19      0       0.2628057       69.25401
2017    19      1       0.180126        51.08635
2017    19      2       0.1933311       54.29232
2017    19      3       0.2399487       64.90952
2017    19      4       0.3061719       78.45555
2017    19      5       0.3996953       95.92325
2017    19      6       0.6167802       130.8951
2017    19      7       1.032441        180.0177
2017    20      0       1.290734        202.8099
2017    20      1       1.452143        215.1186
2017    20      2       1.337849        207.2573
2017    20      3       1.324382        205.9523
2017    20      4       1.262498        200.4289
2017    20      5       1.255552        199.1484
2017    20      6       1.318728        204.3335
2017    20      7       1.421215        212.0977
2017    21      0       1.582082        222.505
2017    21      1       1.506502        218.0597
2017    21      2       1.761738        232.0796
2017    21      3       2.110799        246.0016
2017    21      4       1.990749        241.3465
2017    21      5       1.803338        233.4293
2017    21      6       1.738356        229.124
2017    21      7       1.704767        226.3146
2017    22      0       1.508247        217.4119
2017    22      1       1.272531        203.2872
2017    22      2       1.05465         185.9216
2017    22      3       0.954397        175.4966
2017    22      4       1.099417        188.6774
2017    22      5       1.336154        207.4791
2017    22      6       1.275632        203.3113
2017    22      7       1.260001        201.5854
2017    23      0       1.487267        217.186
2017    23      1       1.869862        236.2444
2017    23      2       2.047025        241.8715
2017    23      3       2.358828        250.5997
2017    23      4       2.05531         241.6914
2017    23      5       1.91736         236.4086
2017    23      6       2.316502        248.7605
2017    23      7       2.222125        246.4294
2017    24      0       2.15641         245.3935
2017    24      1       2.019628        241.1186
2017    24      2       1.661781        226.5387
2017    24      3       1.742339        230.1519
2017    24      4       1.885903        235.9207
2017    24      5       1.96043         238.8191
2017    24      6       1.893982        236.0073
2017    24      7       1.89961         236.5098
2017    25      0       1.877625        236.283
2017    25      1       1.652773        226.075
2017    25      2       1.325311        205.9366
2017    25      3       1.032305        181.0377
2017    25      4       1.155372        191.1997
2017    25      5       1.178515        192.2335
2017    25      6       1.480144        214.0999
2017    25      7       1.759964        229.2811
2017    26      0       1.670415        225.3951
2017    26      1       1.595964        221.8377
2017    26      2       1.648248        224.6285
2017    26      3       1.79943         231.2286
2017    26      4       1.803248        231.0465
2017    26      5       1.818292        231.775
2017    26      6       1.930206        236.6517
2017    26      7       1.937961        237.0871
2017    27      0       1.899887        235.9105
2017    27      1       1.82446         232.9516
2017    27      2       1.589271        221.1763
2017    27      3       1.460418        213.5839
2017    27      4       1.305756        203.2298
2017    27      5       1.271737        200.777
2017    27      6       1.319037        204.3855
2017    27      7       1.342425        205.944
2017    28      0       1.231812        198.3849
2017    28      1       1.204136        197.1199
2017    28      2       1.194157        197.0177
2017    28      3       0.6824416       141.5485
2017    28      4       0.5260084       117.7783
2017    28      5       0.6296088       133.4257
2017    28      6       0.633274        134.3514
2017    28      7       0.5605818       123.5668
2017    29      0       0.552768        122.4032
2017    29      1       0.4505709       105.8083
2017    29      2       0.4162028       99.47887
2017    29      3       0.4061296       97.14262
2017    29      4       0.3518464       85.95641
2017    29      5       0.3383382       81.98982
2017    29      6       0.3904629       91.05759
2017    29      7       0.4964665       109.1205
2017    30      0       0.53156         114.3484
2017    30      1       0.4627395       103.0242
2017    30      2       0.4229547       97.03606
2017    30      3       0.41638         96.48611
2017    30      4       0.3817296       90.67545
2017    30      5       0.3362052       82.30371
2017    30      6       0.3607819       87.20802
2017    30      7       0.4403303       102.1654
2018    1       0       0.4794502       107.7405
2018    1       1       0.3820734       90.24906
2018    1       2       0.3626247       86.50689
2018    1       3       0.2953801       73.89746
2018    1       4       0.2615977       67.30759
2018    1       5       0.2684353       68.84732
2018    1       6       0.2635308       67.92485
2018    1       7       0.3676121       89.0314
2018    2       0       0.4517784       104.4053
2018    2       1       0.4175715       98.05459
2018    2       2       0.4831439       108.7124
2018    2       3       0.6182711       128.5496
2018    2       4       0.6615664       134.2528
2018    2       5       0.5667918       121.2412
2018    2       6       0.4235373       98.09652
2018    2       7       0.340237        83.39191
2018    3       0       0.3081467       77.45213
2018    3       1       0.2810773       72.11487
2018    3       2       0.2739016       70.69597
2018    3       3       0.258553        67.48353
2018    3       4       0.2712855       69.99504
2018    3       5       0.2753855       70.83324
2018    3       6       0.2664865       69.09475
2018    3       7       0.2496346       65.72542
2018    4       0       0.2505356       65.99742
2018    4       1       0.2612016       67.96311
2018    4       2       0.3015461       75.74212
2018    4       3       0.3210602       79.51011
2018    4       4       0.3114118       77.55126
2018    4       5       0.2853281       72.2445
2018    4       6       0.3129285       77.49999
2018    4       7       0.4165285       96.76617
2018    5       0       0.4626972       104.8492
2018    5       1       0.4042988       94.37767
2018    5       2       0.420175        96.95241
2018    5       3       0.4473066       101.9231
2018    5       4       0.4472516       102.083
2018    5       5       0.4170639       96.58058
2018    5       6       0.3934836       92.1903
2018    5       7       0.4765962       107.8615
2018    6       0       0.4842522       109.1017
2018    6       1       0.431555        99.0442
2018    6       2       0.5048671       110.6316
2018    6       3       0.5442859       116.6721
2018    6       4       0.5669337       120.2943
2018    6       5       0.5638767       119.5575
2018    6       6       0.5727019       120.2045
2018    6       7       0.7118366       140.6952
2018    7       0       0.6923143       139.3441
2018    7       1       0.6385642       132.3225
2018    7       2       0.6538623       134.3293
2018    7       3       0.7026298       140.8911
2018    7       4       0.6426251       132.4177
2018    7       5       0.5733439       122.3444
2018    7       6       0.5527762       119.5843
2018    7       7       0.5884527       125.3325
2018    8       0       0.5863874       125.768
2018    8       1       0.5363792       118.3964
2018    8       2       0.5277308       116.901
2018    8       3       0.5347964       117.6543
2018    8       4       0.5727965       123.058
2018    8       5       0.5816421       124.2023
2018    8       6       0.6052573       127.7144
2018    8       7       0.6352488       132.4126
2018    9       0       0.5856321       125.1054
2018    9       1       0.5871779       125.3073
2018    9       2       0.6320892       131.9121
2018    9       3       0.5772975       123.6057
2018    9       4       0.6135239       129.0865
2018    9       5       0.7323741       146.0555
2018    9       6       0.6056594       128.7591
2018    9       7       0.4871765       109.9988
2018    10      0       0.3664274       89.08292
2018    10      1       0.270997        70.21482
2018    10      2       0.2529294       66.37695
2018    10      3       0.2525311       66.18858
2018    10      4       0.2822273       72.46475
2018    10      5       0.2971835       75.48081
2018    10      6       0.241782        63.92486
2018    10      7       0.2473648       65.16042
2018    11      0       0.2496087       65.67285
2018    11      1       0.2480267       65.16159
2018    11      2       0.2672308       69.03839
2018    11      3       0.2847234       72.67688
2018    11      4       0.3402647       84.02369
2018    11      5       0.3887244       93.54531
2018    11      6       0.3345683       83.53919
2018    11      7       0.2089287       57.58653
2018    12      0       0.1563058       45.6126
2018    12      1       0.1590813       45.07578
2018    12      2       0.4996114       110.5071
2018    12      3       1.118436        186.1279
2018    12      4       1.262541        198.4609
2018    12      5       0.8718214       161.1129
2018    12      6       0.7125516       141.3831
2018    12      7       0.8381857       158.0603
2018    13      0       1.145654        190.4229
2018    13      1       1.73388         230.5502
2018    13      2       2.240412        250.0727
2018    13      3       2.363654        252.7533
2018    13      4       2.193468        246.9348
2018    13      5       2.186283        245.933
2018    13      6       2.131741        243.8468
2018    13      7       2.168922        244.8466
2018    14      0       2.567918        255.7215
2018    14      1       2.764698        260.0081
2018    14      2       2.94278         262.7204
2018    14      3       2.482529        255.6513
2018    14      4       2.412135        253.7247
2018    14      5       2.556643        255.9905
2018    14      6       2.306479        249.2122
2018    14      7       2.211764        246.6418
2018    15      0       2.334152        250.2298
2018    15      1       1.99898         240.2442
2018    15      2       2.140169        245.151
2018    15      3       2.673863        258.3189
2018    15      4       2.808206        259.3702
2018    15      5       2.922799        259.8727
2018    15      6       3.289909        265.0163
2018    15      7       2.913345        260.0561
2018    16      0       3.122576        263.5194
2018    16      1       2.562035        255.0481
2018    16      2       2.276217        248.0128
2018    16      3       2.03686         239.093
2018    16      4       1.647269        221.184
2018    16      5       1.494098        211.6356
2018    16      6       1.240957        193.2377
2018    16      7       1.042521        176.3085
2018    17      0       0.9428455       166.0985
2018    17      1       0.9291911       165.2133
2018    17      2       0.7430427       146.9039
2018    17      3       0.6918801       141.4389
2018    17      4       0.6746089       138.9549
2018    17      5       0.6072343       129.8039
2018    17      6       0.5726759       124.5131
2018    17      7       0.7260666       146.3925
2018    18      0       0.8023318       156.5344
2018    18      1       0.7450356       148.9819
2018    18      2       0.6699622       138.4754
2018    18      3       0.7097086       144.0899
2018    18      4       0.7272695       146.5227
2018    18      5       0.6925967       141.9315
2018    18      6       0.6774866       139.9888
2018    18      7       0.6393696       134.9427
2018    19      0       0.552769        122.0967
2018    19      1       0.4347342       101.7004
2018    19      2       0.488504        111.4047
2018    19      3       0.5499303       121.6773
2018    19      4       0.5241113       117.1964
2018    19      5       0.4718194       108.5376
2018    19      6       0.4147501       98.78963
2018    19      7       0.3761819       91.93479
2018    20      0       0.3355885       84.12759
2018    20      1       0.3045265       77.7968
2018    20      2       0.3513543       87.20308
2018    20      3       0.4069784       97.74185
2018    20      4       0.3907726       94.79603
2018    20      5       0.364919        89.99532
2018    20      6       0.3330539       83.71151
2018    20      7       0.307356        78.41339
2018    21      0       0.2919021       75.16339
2018    21      1       0.2842168       73.6501
2018    21      2       0.2829439       73.60282
2018    21      3       0.2842862       73.86618
2018    21      4       0.2988921       76.71567
2018    21      5       0.3211184       81.08976
2018    21      6       0.3214205       80.97796
2018    21      7       0.3033934       77.60269
2018    22      0       0.2755642       72.35543
2018    22      1       0.2290382       62.38294
2018    22      2       0.2961713       76.70844
2018    22      3       0.3398376       85.55944
2018    22      4       0.32832         83.31255
2018    22      5       0.3131309       80.09839
2018    22      6       0.260753        69.01411
2018    22      7       0.3158823       81.12185
2018    23      0       0.2863823       75.1683
2018    23      1       0.2047458       56.57887
2018    23      2       0.2364362       63.70724
2018    23      3       0.2806844       73.39201
2018    23      4       0.3285588       83.32897
2018    23      5       0.26582         70.21475
2018    23      6       0.2014446       55.86279
2018    23      7       0.2954125       76.52238
2018    24      0       0.2834136       74.15007
2018    24      1       0.1955545       54.71779
2018    24      2       0.2010809       55.86008
2018    24      3       0.2118537       58.15076
2018    24      4       0.1865847       52.33083
2018    24      5       0.174227        49.41467
2018    24      6       0.1997134       55.11598
2018    24      7       0.2614312       68.77871
2018    25      0       0.2574511       68.20336
2018    25      1       0.1670017       47.69173
2018    25      2       0.1706543       48.47196
2018    25      3       0.1999103       55.14965
2018    25      4       0.2202305       59.55666
2018    25      5       0.2206499       59.53533
2018    25      6       0.2276063       61.00109
2018    25      7       0.2880879       74.15758
2018    26      0       0.3001395       76.8778
2018    26      1       0.2719297       70.89749
2018    26      2       0.2732057       70.86185
2018    26      3       0.3096943       78.19098
2018    26      4       0.3222085       80.63324
2018    26      5       0.3443891       85.153
2018    26      6       0.3714763       90.15862
2018    26      7       0.4120497       97.52221
2018    27      0       0.4576107       104.6318
2018    27      1       0.4987402       109.7797
2018    27      2       0.7179766       140.7009
2018    27      3       0.8823902       160.7982
2018    27      4       1.07853         182.3088
2018    27      5       1.178606        192.3719
2018    27      6       1.457423        212.9433
2018    27      7       1.828929        233.3488
2018    28      0       1.705598        228.2992
2018    28      1       1.463246        215.4537
2018    28      2       1.599912        223.3574
2018    28      3       1.746289        230.482
2018    28      4       1.865309        235.5471
2018    28      5       1.617348        223.3333
2018    28      6       1.362892        206.7034
2018    28      7       1.39515         208.7423
2018    29      0       1.65617         224.6759
2018    29      1       1.85503         234.3165
2018    29      2       1.785772        230.634
2018    29      3       1.429796        209.1908
2018    29      4       0.8969157       163.5235
2018    29      5       0.5991369       126.5088
2018    29      6       0.4351393       100.2197
2018    29      7       0.3572231       86.33285
2018    30      0       0.3058399       76.87879
2018    30      1       0.217102        58.3598
2018    30      2       0.2180788       58.49327
2018    30      3       0.2331529       61.80146
2018    30      4       0.2384751       62.83514
2018    30      5       0.2431029       63.64571
2018    30      6       0.2298238       60.76877
2018    30      7       0.281633        72.16595
