####################################################################################################
# Month: 02Feb                                                                                     #
# Station: SKS                                                                                     #
# Frequency: 230 GHz                                                                               #
# Columns are: year    day     tau     Tb (K)                                                      #
####################################################################################################
2009    1       0.29176334      68.6070875
2009    2       0.35739654      82.7243925
2009    3       0.18397771      49.13489375
2009    4       0.2296685       58.55860625
2009    5       0.24674649      61.78502
2009    6       0.295656        72.27758125
2009    7       0.39729927      82.4892125
2009    8       0.53102344      105.74043
2009    9       0.52895628      107.75369125
2009    10      0.29951736      69.9228725
2009    11      0.27449729      67.4606325
2009    12      0.39323424      86.16191625
2009    13      0.55695531      111.63833625
2009    14      0.63992796      125.201525
2009    15      0.48131479      100.6988225
2009    16      0.39249809      86.86626625
2009    17      0.35740272      80.42856
2009    18      0.61013666      122.0120325
2009    19      0.4752436       101.816515
2009    20      0.48978376      103.6471475
2009    21      0.36197275      82.72267625
2009    22      0.51529796      106.781805
2009    23      0.61814419      121.4509325
2009    24      0.51206788      106.58442
2009    25      0.63732826      123.72782125
2009    26      0.34737175      77.85543625
2009    27      0.35964236      79.85759
2009    28      0.50285442      104.3173075
2010    1       0.2519253       62.81347625
2010    2       0.35308932      81.8005175
2010    3       0.13596615      36.916945
2010    4       0.12284647      34.63354375
2010    5       0.24296979      60.4908725
2010    6       0.42381604      92.77142375
2010    7       0.7591379       139.3203325
2010    8       0.65444099      129.16585
2010    9       0.61587254      123.21053125
2010    10      0.5924315       121.98085
2010    11      0.40758943      88.20237875
2010    12      0.42719466      96.28572375
2010    13      0.35460645      82.99971875
2010    14      0.45998144      101.484115
2010    15      0.27338705      65.6037
2010    16      0.42469201      95.41389125
2010    17      0.32099306      76.9919425
2010    18      0.39445674      91.49942625
2010    19      0.3566902       84.68965875
2010    20      0.54920494      114.706865
2010    21      0.16316826      41.3605675
2010    22      0.38485258      85.13549375
2010    23      0.5000999       108.3745225
2010    24      0.43234481      95.60281
2010    25      0.42674566      93.2614975
2010    26      0.28578888      69.024415
2010    27      0.30872974      72.74310125
2010    28      0.31129478      73.1452525
2011    1       0.1382676       37.29638
2011    2       0.33977103      71.7559675
2011    3       0.9782834       165.5033
2011    4       0.36512294      84.19967875
2011    5       0.57648104      117.71851375
2011    6       0.5018358       106.52268125
2011    7       0.24226662      61.01348375
2011    8       0.21724618      55.96613375
2011    9       0.41734874      92.50692625
2011    10      0.15444415      41.96383875
2011    11      0.08918448      27.02916125
2011    12      0.08742871      26.81745
2011    13      0.09149666      27.545325
2011    14      0.56802995      98.59686375
2011    15      1.09768265      179.2278375
2011    16      0.71426339      136.53042375
2011    17      0.38708605      88.79197875
2011    18      0.29656717      71.78457875
2011    19      0.97522392      163.83117875
2011    20      0.5413369       112.07012125
2011    21      0.69828666      132.2663725
2011    22      0.43983821      94.99491125
2011    23      0.57254131      116.405615
2011    24      0.74934358      139.43517875
2011    25      0.81780098      149.5280875
2011    26      0.61477264      123.75417875
2011    27      0.81012709      147.6719625
2011    28      0.27090355      66.55853625
2012    1       0.16761856      42.9853175
2012    2       0.530825        109.52624
2012    3       0.32720732      74.82482375
2012    4       0.18194618      47.83636625
2012    5       0.20685812      53.46170625
2012    6       0.62925238      123.49800625
2012    7       0.71960614      133.79985
2012    8       0.77022845      142.1706375
2012    9       0.77205568      141.1642375
2012    10      0.59455712      118.85882875
2012    11      0.32413826      74.665075
2012    12      0.82205656      146.48612
2012    13      0.50621296      101.15849
2012    14      0.47767419      101.824615
2012    15      0.45268322      98.25270875
2012    16      0.72812028      137.3066125
2012    17      0.37065773      83.0120875
2012    18      0.2775043       67.06177125
2012    19      0.24668996      61.50433625
2012    20      0.22554126      56.3915275
2012    21      0.30292829      70.14094125
2012    22      0.91442198      161.31215
2012    23      0.86193631      151.55761375
2012    24      0.46943572      95.59603625
2012    25      0.23612585      60.20131125
2012    26      0.42125979      93.05785
2012    27      0.80747179      144.2602225
2012    28      0.57301706      114.68166375
2012    29      0.46589994      95.797735
2013    1       0.12421681      34.82336875
2013    2       0.24412815      61.8682575
2013    3       0.1416846       39.74605375
2013    4       0.15839919      43.23596
2013    5       0.22601495      56.67529125
2013    6       0.47291338      99.73093375
2013    7       0.43607574      95.16470125
2013    8       0.46837665      99.04007875
2013    9       0.4958511       105.89449375
2013    10      0.66070185      128.5206125
2013    11      0.2225234       54.8677775
2013    12      0.13794242      38.01625625
2013    13      0.3198117       75.3533475
2013    14      0.60741114      120.3311025
2013    15      0.80801738      147.9049
2013    16      0.61923974      123.2981225
2013    17      0.54882219      112.8561075
2013    18      0.50503414      106.87130875
2013    19      0.45082399      97.44905375
2013    20      0.18255096      46.90985625
2013    21      0.54856118      113.3429975
2013    22      0.35416998      81.93026375
2013    23      0.33880655      79.5836075
2013    24      0.19191169      51.00501
2013    25      0.21025255      55.1791025
2013    26      0.14438924      39.98697125
2013    27      0.24627018      61.37251875
2013    28      0.43186798      93.42354125
2014    1       0.60995162      122.90680125
2014    2       0.95033922      164.72295
2014    3       1.129659        182.7649375
2014    4       0.83960144      154.78505
2014    5       0.8193042       150.6642125
2014    6       0.7170314       137.870825
2014    7       0.55616368      112.18289375
2014    8       0.15294394      42.3797725
2014    9       0.27332229      67.27442125
2014    10      0.2729202       68.23999625
2014    11      0.33221475      79.15301125
2014    12      0.2516077       63.377345
2014    13      0.52405382      109.4789675
2014    14      0.49518835      105.807545
2014    15      0.51156308      106.59914375
2014    16      0.16656127      45.58157875
2014    17      0.10084715      30.5890825
2014    18      0.08793496      27.21708
2014    19      0.07746208      24.607315
2014    20      0.08361121      24.88427375
2014    21      0.32110954      75.03665375
2014    22      0.43269611      95.62508875
2014    23      0.26878718      66.6332225
2014    24      0.6320903       124.0722725
2014    25      0.37686626      84.9777425
2014    26      0.5580251       113.6940025
2014    27      0.2064361       53.3625
2014    28      0.47024704      99.68502125
2015    1       0.33580032      80.792575
2015    2       0.2980872       72.42962375
2015    3       0.52070942      108.75334
2015    4       0.23124119      58.296735
2015    5       0.28329484      69.9629925
2015    6       0.13824133      38.68170625
2015    7       0.2663249       63.11427125
2015    8       0.58353412      118.1884675
2015    9       0.76145698      140.682825
2015    10      0.71233915      133.5211875
2015    11      0.46783738      99.2666825
2015    12      0.46421198      98.7786925
2015    13      0.29385565      70.54142375
2015    14      0.4038462       90.55420625
2015    15      0.25200734      61.55527125
2015    16      0.428139        93.5165225
2015    17      0.46374959      99.409645
2015    18      0.14920011      39.76238375
2015    19      0.26562715      63.52137875
2015    20      0.22783005      57.32226375
2015    21      0.26530659      66.10747
2015    22      0.79386845      144.9589275
2015    23      0.70838724      134.9371125
2015    24      0.47363132      100.271205
2015    25      0.35847149      81.20495375
2015    26      0.47160895      100.6268375
2015    27      0.44040259      96.9705575
2015    28      0.44291231      95.66820625
2016    1       0.21713068      55.5351325
2016    2       0.2263626       59.0185575
2016    3       0.17092536      46.72894
2016    4       0.30363409      68.56308125
2016    5       0.70439736      133.603255
2016    6       0.34212681      76.6014225
2016    7       0.0438026       15.6609325
2016    8       0.10975109      31.2896375
2016    9       0.18057031      46.9366325
2016    10      0.311675        72.32597875
2016    11      0.46808765      100.88174375
2016    12      0.49038874      107.1507875
2016    13      0.49687058      107.35051375
2016    14      0.7573213       144.5859
2016    15      0.35967769      83.380665
2016    16      0.17549174      46.74836625
2016    17      0.25763504      62.97212
2016    18      0.24509936      61.15745625
2016    19      0.14096512      40.09858875
2016    20      0.23513656      57.5852275
2016    21      0.35173192      81.33085
2016    22      0.34071455      81.8997025
2016    23      0.34390554      82.65390625
2016    24      0.46941441      102.88085875
2016    25      0.23848892      61.57903625
2016    26      0.15867477      43.68387
2016    27      0.15569638      43.043835
2016    28      0.20319802      51.5895425
2016    29      0.50336135      109.92750375
2017    1       0.14363157      39.37356625
2017    2       0.47847248      95.29060375
2017    3       0.37008974      84.40863875
2017    4       0.43698748      96.1188425
2017    5       0.30499071      72.65255625
2017    6       0.15137384      41.56898375
2017    7       0.2739108       66.16017
2017    8       0.74054426      137.68578375
2017    9       0.46868544      101.93388
2017    10      0.64526669      126.5075475
2017    11      0.60164315      120.148095
2017    12      0.17840074      47.0416825
2017    13      0.17570577      46.2331125
2017    14      0.11132896      31.32425
2017    15      0.13658666      37.35441125
2017    16      0.08313513      25.29392875
2017    17      0.06161357      19.9800675
2017    18      0.2040259       51.99971625
2017    19      0.3541507       79.953475
2017    20      0.32187369      75.29288125
2017    21      0.47219941      98.3805325
2017    22      0.45936184      100.6392375
2017    23      0.19256894      50.57861125
2017    24      0.17388108      47.0677275
2017    25      0.26248774      64.34141875
2017    26      0.45985309      100.02541
2017    27      0.60617973      121.7885175
2017    28      0.61817153      125.5175225
2018    1       0.08241121      25.53399375
2018    2       0.26441313      62.6500725
2018    3       0.48790562      105.5959
2018    4       0.36281125      83.7023825
2018    5       0.17947321      48.54122625
2018    6       0.25337619      63.4990275
2018    7       0.57860031      120.139415
2018    8       0.25569425      63.14069875
2018    9       0.71536141      137.1894325
2018    10      0.40478904      88.18559625
2018    11      0.09221032      27.929605
2018    12      0.38584861      84.96442
2018    13      0.32528304      75.730255
2018    14      0.23493946      54.55497125
2018    15      0.57531164      115.44350625
2018    16      0.961193        157.236425
2018    17      0.27474915      66.052155
2018    18      0.18447758      48.48553625
2018    19      0.53029902      109.7956925
2018    20      0.84349114      151.4035125
2018    21      0.85223948      152.428325
2018    22      0.41265955      91.8977075
2018    23      0.50342039      106.11079375
2018    24      0.4669245       98.03929125
2018    25      0.4666254       91.30451125
2018    26      0.4865484       104.423855
2018    27      0.49216954      105.14268625
2018    28      0.50013765      106.48676375
