####################################################################################################
# Month: 02Feb                                                                                     #
# Station: SKS                                                                                     #
# Frequency: 230 GHz                                                                               #
# Columns are: year    day     segment         tau     Tb (K)                                      #
####################################################################################################
2009    1       0       0.1340905       37.30564
2009    1       1       0.1294969       36.13509
2009    1       2       0.156156        42.04858
2009    1       3       0.2144758       54.79907
2009    1       4       0.2661158       66.13093
2009    1       5       0.3972283       91.18169
2009    1       6       0.5179955       110.8239
2009    1       7       0.5185479       110.4318
2009    2       0       0.5427117       113.6399
2009    2       1       0.4045643       91.94179
2009    2       2       0.3556818       83.6771
2009    2       3       0.3482022       82.17256
2009    2       4       0.3041281       73.37846
2009    2       5       0.3329121       78.43976
2009    2       6       0.305351        72.83013
2009    2       7       0.2656211       65.71544
2009    3       0       0.2023421       52.76055
2009    3       1       0.2160467       55.80701
2009    3       2       0.214195        55.96925
2009    3       3       0.229814        59.57123
2009    3       4       0.2088467       55.24333
2009    3       5       0.1623629       44.74924
2009    3       6       0.1223214       35.25325
2009    3       7       0.1158929       33.72529
2009    4       0       0.1339187       37.73824
2009    4       1       0.2499022       62.21235
2009    4       2       0.2645914       66.18028
2009    4       3       0.2283037       58.92073
2009    4       4       0.2458025       61.99925
2009    4       5       0.2709595       67.72863
2009    4       6       0.2369976       60.15173
2009    4       7       0.2068724       53.53764
2009    5       0       0.2656894       65.50107
2009    5       1       0.3354127       79.56766
2009    5       2       0.3792354       88.39959
2009    5       3       0.2523131       63.79823
2009    5       4       0.1447659       40.00987
2009    5       5       0.1484683       40.93125
2009    5       6       0.1949416       51.68353
2009    5       7       0.2531455       64.38896
2009    6       0       0.2916477       72.19571
2009    6       1       0.2761547       68.839
2009    6       2       0.2404968       61.51268
2009    6       3       0.2701826       67.65281
2009    6       4       0.3691808       86.71374
2009    6       5       0.4125667       94.31523
2009    6       6       0.3102062       75.65783
2009    6       7       0.1948125       51.33365
2009    7       0       0.1255452       35.55361
2009    7       1       0.1119448       32.49068
2009    7       2       0.1150673       32.77573
2009    7       3       0.1603299       42.50018
2009    7       4       0.3720548       84.8846
2009    7       5       0.5293952       112.7658
2009    7       6       0.7660165       147.4634
2009    7       7       0.9980405       171.4797
2009    8       0       0.7300362       141.8295
2009    8       1       0.583819        119.4035
2009    8       2       0.7418886       141.0476
2009    8       3       0.7645231       143.8917
2009    8       4       0.9104567       161.2705
2009    8       5       0.2262511       58.19956
2009    8       6       0.1203651       34.60305
2009    8       7       0.1708477       45.67803
2009    9       0       0.2520456       62.44493
2009    9       1       0.3253682       76.91455
2009    9       2       0.40809         90.6173
2009    9       3       0.6887849       132.5109
2009    9       4       0.7741905       142.3246
2009    9       5       0.7393071       140.1779
2009    9       6       0.6465861       128.0475
2009    9       7       0.3972778       88.99185
2009    10      0       0.3436456       79.77296
2009    10      1       0.4546198       99.35384
2009    10      2       0.2897378       69.54107
2009    10      3       0.5113735       106.6193
2009    10      4       0.3409998       80.15981
2009    10      5       0.1459827       39.62609
2009    10      6       0.1461468       39.98116
2009    10      7       0.1636329       44.32875
2009    11      0       0.2445948       62.55606
2009    11      1       0.1923371       51.30333
2009    11      2       0.2084693       54.43504
2009    11      3       0.1826146       48.88092
2009    11      4       0.1963319       51.87129
2009    11      5       0.3379988       81.01363
2009    11      6       0.3711904       86.99929
2009    11      7       0.4624414       102.6255
2009    12      0       0.7886368       149.1336
2009    12      1       0.1079323       31.34314
2009    12      2       0.1360109       37.91373
2009    12      3       0.3042403       73.62003
2009    12      4       0.4246842       95.78191
2009    12      5       0.3429409       81.05042
2009    12      6       0.4555325       100.2565
2009    12      7       0.585896        120.196
2009    13      0       0.5168476       110.4707
2009    13      1       0.2468191       61.80478
2009    13      2       0.2181898       55.63531
2009    13      3       0.4885263       105.4774
2009    13      4       0.5700228       117.6494
2009    13      5       0.780923        145.5593
2009    13      6       0.7841939       144.6172
2009    13      7       0.85012         151.8926
2009    14      0       0.557557        115.2882
2009    14      1       0.7970147       146.7591
2009    14      2       0.7194438       136.4831
2009    14      3       0.7458165       138.4014
2009    14      4       0.5909135       117.7994
2009    14      5       0.5654618       114.5531
2009    14      6       0.6686382       130.4164
2009    14      7       0.4745782       101.9115
2009    15      0       0.51348         107.1153
2009    15      1       0.4073589       89.64904
2009    15      2       0.4073736       88.99
2009    15      3       0.4391304       93.6242
2009    15      4       0.5955144       117.3539
2009    15      5       0.5161873       106.2722
2009    15      6       0.4599492       97.31024
2009    15      7       0.5115245       105.2757
2009    16      0       0.4301127       93.27131
2009    16      1       0.417404        90.91314
2009    16      2       0.3942426       87.7177
2009    16      3       0.451748        98.11231
2009    16      4       0.4278566       93.85417
2009    16      5       0.5008495       105.8539
2009    16      6       0.3398148       78.58592
2009    16      7       0.1779565       46.62168
2009    17      0       0.1817999       47.57914
2009    17      1       0.1877233       48.76345
2009    17      2       0.1714222       45.13263
2009    17      3       0.4504031       98.24529
2009    17      4       0.4547508       99.23171
2009    17      5       0.4961846       105.8737
2009    17      6       0.4481669       97.73046
2009    17      7       0.468771        100.8721
2009    18      0       0.5447569       113.0588
2009    18      1       0.4075696       90.74026
2009    18      2       0.890578        157.5522
2009    18      3       0.5302294       110.781
2009    18      4       0.6726015       131.9479
2009    18      5       0.6235366       125.4963
2009    18      6       0.6280529       126.361
2009    18      7       0.5837684       120.1588
2009    19      0       0.5038109       108.3194
2009    19      1       0.4201069       94.6286
2009    19      2       0.4510751       99.48127
2009    19      3       0.834747        151.0902
2009    19      4       0.4068741       92.18447
2009    19      5       0.3539593       82.6037
2009    19      6       0.4387233       97.21163
2009    19      7       0.3926522       89.01285
2009    20      0       0.3970211       89.43653
2009    20      1       0.3853462       87.13423
2009    20      2       0.4865923       103.8642
2009    20      3       0.5794961       117.6045
2009    20      4       0.5922536       119.0502
2009    20      5       0.6013155       119.6817
2009    20      6       0.4449507       97.17463
2009    20      7       0.4312946       95.23119
2009    21      0       0.3014023       72.05934
2009    21      1       0.3847543       87.47606
2009    21      2       0.4302085       94.7978
2009    21      3       0.4552564       98.32102
2009    21      4       0.322377        75.72853
2009    21      5       0.3865183       87.56583
2009    21      6       0.3135892       74.13273
2009    21      7       0.301676        71.7001
2009    22      0       0.4151115       91.88361
2009    22      1       0.4566975       98.4709
2009    22      2       0.505637        105.8139
2009    22      3       0.5867693       117.7054
2009    22      4       0.4545975       97.27753
2009    22      5       0.5142081       106.398
2009    22      6       0.5228781       107.885
2009    22      7       0.6664847       128.8201
2009    23      0       0.5879725       118.1608
2009    23      1       0.8259119       149.5038
2009    23      2       0.6622261       128.9065
2009    23      3       0.7353153       137.5155
2009    23      4       0.5717196       115.1929
2009    23      5       0.5573144       112.6375
2009    23      6       0.4527847       96.41016
2009    23      7       0.551909        113.2803
2009    24      0       0.4932063       104.9043
2009    24      1       0.4548124       98.85607
2009    24      2       0.3889077       87.59694
2009    24      3       0.3877363       87.1449
2009    24      4       0.4168117       92.02315
2009    24      5       0.6308183       124.7456
2009    24      6       0.5646995       115.6579
2009    24      7       0.7595508       141.7465
2009    25      0       0.6150822       122.323
2009    25      1       0.7433719       139.39
2009    25      2       0.6289712       124.0411
2009    25      3       0.5892077       117.4463
2009    25      4       0.7133914       133.7468
2009    25      5       0.8993654       158.5707
2009    25      6       0.6374348       127.7714
2009    25      7       0.2718015       66.53327
2009    26      0       0.2688343       66.02951
2009    26      1       0.1770779       46.77102
2009    26      2       0.163219        43.66305
2009    26      3       0.1702294       45.26634
2009    26      4       0.4932258       105.4402
2009    26      5       0.5103362       107.5483
2009    26      6       0.5515136       112.7673
2009    26      7       0.4445378       95.35777
2009    27      0       0.5904678       117.391
2009    27      1       0.5653925       113.9892
2009    27      2       0.3747589       84.42665
2009    27      3       0.3197521       74.88325
2009    27      4       0.1601811       42.57464
2009    27      5       0.1904591       49.09881
2009    27      6       0.3210209       74.95785
2009    27      7       0.3551065       81.53932
2009    28      0       0.3238513       75.76331
2009    28      1       0.4659849       99.50374
2009    28      2       0.7868478       144.5117
2009    28      3       0.7056953       134.2897
2009    28      4       0.5012578       105.7581
2009    28      5       0.5365032       111.8963
2009    28      6       0.4107785       92.06816
2009    28      7       0.2919166       70.74745
2010    1       0       0.1151154       33.20592
2010    1       1       0.1791489       47.84729
2010    1       2       0.2964251       72.5195
2010    1       3       0.3390634       80.4449
2010    1       4       0.2926675       71.41808
2010    1       5       0.2324769       59.2804
2010    1       6       0.2444195       61.84665
2010    1       7       0.3160857       75.94507
2010    2       0       0.3162035       75.84946
2010    2       1       0.2822743       69.49193
2010    2       2       0.377076        87.07783
2010    2       3       0.5117998       110.5083
2010    2       4       0.4458383       99.15924
2010    2       5       0.3415541       80.27754
2010    2       6       0.3644059       83.77906
2010    2       7       0.1855627       48.26078
2010    3       0       0.2059149       52.47126
2010    3       1       0.2311721       57.9379
2010    3       2       0.1358228       37.29109
2010    3       3       0.141848        38.51565
2010    3       4       0.1410713       38.23991
2010    3       5       0.1005933       29.06526
2010    3       6       0.06310663      20.279
2010    3       7       0.06820016      21.53549
2010    4       0       0.07258802      22.67942
2010    4       1       0.09117963      27.18876
2010    4       2       0.1064299       30.82776
2010    4       3       0.1222703       34.54656
2010    4       4       0.1348951       37.44887
2010    4       5       0.1422328       39.23719
2010    4       6       0.1503027       41.15306
2010    4       7       0.1628733       43.98673
2010    5       0       0.168419        45.11258
2010    5       1       0.1796387       47.48857
2010    5       2       0.1853343       48.73852
2010    5       3       0.2204103       56.22836
2010    5       4       0.3010463       72.4995
2010    5       5       0.346222        81.0498
2010    5       6       0.2728625       66.79778
2010    5       7       0.2698252       66.01187
2010    6       0       0.2935677       70.64037
2010    6       1       0.2890563       69.75817
2010    6       2       0.2811425       68.31907
2010    6       3       0.2990818       71.97728
2010    6       4       0.4846537       105.4354
2010    6       5       0.4765822       103.5861
2010    6       6       0.5049881       107.9243
2010    6       7       0.761456        144.5307
2010    7       0       0.9376951       164.6126
2010    7       1       0.6042995       122.0922
2010    7       2       0.6405405       126.7665
2010    7       3       0.9107736       159.7812
2010    7       4       1.052277        174.3842
2010    7       5       0.9247149       161.4924
2010    7       6       0.7328495       139.1
2010    7       7       0.2699531       66.33356
2010    8       0       0.5561564       115.527
2010    8       1       0.6823037       132.46
2010    8       2       0.7827396       145.8175
2010    8       3       0.6787692       132.4416
2010    8       4       0.5617538       117.2665
2010    8       5       0.5608413       117.4052
2010    8       6       0.5850139       120.7562
2010    8       7       0.82795         151.6528
2010    9       0       0.7358552       140.8763
2010    9       1       0.6796383       133.7322
2010    9       2       0.5189152       111.0681
2010    9       3       0.7403929       142.1772
2010    9       4       0.8031053       149.8114
2010    9       5       0.7420904       142.1518
2010    9       6       0.3130919       75.09937
2010    9       7       0.3938911       90.76788
2010    10      0       0.4531625       100.8323
2010    10      1       0.5860823       121.2508
2010    10      2       0.6632365       132.1232
2010    10      3       0.628592        127.6384
2010    10      4       0.5161587       110.9455
2010    10      5       0.5840996       120.6792
2010    10      6       0.6643994       131.7803
2010    10      7       0.643721        130.5971
2010    11      0       0.3347751       80.74258
2010    11      1       0.2549642       64.78324
2010    11      2       0.1470948       40.96876
2010    11      3       0.2879207       70.5847
2010    11      4       0.2522426       62.16666
2010    11      5       0.3475132       81.90789
2010    11      6       0.7335169       142.1714
2010    11      7       0.9026879       162.2938
2010    12      0       0.3555991       83.07924
2010    12      1       0.5027016       108.839
2010    12      2       0.4289626       96.82211
2010    12      3       0.3741801       87.50999
2010    12      4       0.3571383       84.42756
2010    12      5       0.4277853       96.98329
2010    12      6       0.4853912       106.4327
2010    12      7       0.4857991       106.1919
2010    13      0       0.4586696       101.5178
2010    13      1       0.411456        93.25688
2010    13      2       0.3410164       80.7438
2010    13      3       0.3377202       80.36642
2010    13      4       0.3676385       86.06048
2010    13      5       0.3315414       79.2442
2010    13      6       0.2470002       61.84931
2010    13      7       0.3418093       80.95886
2010    14      0       0.4031892       92.8088
2010    14      1       0.3990597       91.52221
2010    14      2       0.4920053       106.3757
2010    14      3       0.5116018       110.0166
2010    14      4       0.5544948       116.6875
2010    14      5       0.4819994       105.053
2010    14      6       0.4465491       99.27181
2010    14      7       0.3909522       90.1373
2010    15      0       0.4739679       105.731
2010    15      1       0.4855226       107.459
2010    15      2       0.350787        82.35664
2010    15      3       0.2434351       60.19165
2010    15      4       0.08519033      26.16619
2010    15      5       0.1293945       36.421
2010    15      6       0.165612        44.44987
2010    15      7       0.253187        62.05425
2010    16      0       0.274688        66.97418
2010    16      1       0.3516271       80.64007
2010    16      2       0.4527142       100.1711
2010    16      3       0.4198957       95.4603
2010    16      4       0.5153614       111.3741
2010    16      5       0.5248126       112.6845
2010    16      6       0.4162178       95.74818
2010    16      7       0.4422193       100.2587
2010    17      0       0.4430206       99.86834
2010    17      1       0.3749856       87.69195
2010    17      2       0.3669952       86.9364
2010    17      3       0.3840143       90.87515
2010    17      4       0.1685939       46.00847
2010    17      5       0.2146101       56.152
2010    17      6       0.2878733       70.43387
2010    17      7       0.3278515       77.96936
2010    18      0       0.3639532       85.237
2010    18      1       0.4261481       97.86227
2010    18      2       0.4786293       107.2759
2010    18      3       0.3546547       85.18692
2010    18      4       0.4447125       101.4263
2010    18      5       0.5148339       112.9683
2010    18      6       0.3320853       80.32747
2010    18      7       0.2406369       61.71125
2010    19      0       0.2767827       68.99344
2010    19      1       0.2805075       69.73659
2010    19      2       0.2803413       69.74196
2010    19      3       0.3334271       80.27262
2010    19      4       0.3970454       92.65882
2010    19      5       0.4533682       103.0991
2010    19      6       0.4203554       97.5542
2010    19      7       0.411694        95.46054
2010    20      0       0.3945762       91.73098
2010    20      1       0.3532897       84.45931
2010    20      2       0.3267288       79.85924
2010    20      3       0.4049254       94.90129
2010    20      4       0.6427386       132.3837
2010    20      5       0.6617835       134.2418
2010    20      6       0.6908149       136.1893
2010    20      7       0.9187824       163.8893
2010    21      0       0.5706945       118.6088
2010    21      1       0.2838913       70.23685
2010    21      2       0.1228497       35.42724
2010    21      3       0.070367        22.5489
2010    21      4       0.068636        22.11092
2010    21      5       0.0645073       21.14941
2010    21      6       0.06700614      21.72169
2010    21      7       0.05739411      19.08073
2010    22      0       0.0819184       25.22802
2010    22      1       0.1851823       47.49436
2010    22      2       0.3550199       81.36024
2010    22      3       0.4194165       92.97248
2010    22      4       0.5298191       111.0868
2010    22      5       0.5570828       115.8463
2010    22      6       0.5560361       116.3775
2010    22      7       0.3943455       90.71825
2010    23      0       0.4490058       100.6835
2010    23      1       0.4282642       97.04387
2010    23      2       0.4395741       98.54322
2010    23      3       0.4261861       96.45709
2010    23      4       0.5511256       116.3554
2010    23      5       0.5621658       118.176
2010    23      6       0.5679035       119.0493
2010    23      7       0.5765741       120.6878
2010    24      0       0.4909257       107.34
2010    24      1       0.4623884       101.8976
2010    24      2       0.5753489       118.4275
2010    24      3       0.5926479       120.7595
2010    24      4       0.4030387       91.36138
2010    24      5       0.3608377       84.82826
2010    24      6       0.3148211       75.79523
2010    24      7       0.2587501       64.41301
2010    25      0       0.3519296       82.10079
2010    25      1       0.5809691       118.4755
2010    25      2       0.5867803       119.6909
2010    25      3       0.6520316       128.164
2010    25      4       0.4370414       97.68551
2010    25      5       0.2895775       71.1599
2010    25      6       0.2396525       60.79297
2010    25      7       0.2759833       68.02241
2010    26      0       0.2489145       62.48537
2010    26      1       0.2181695       56.35643
2010    26      2       0.1798121       48.10034
2010    26      3       0.4922105       107.5797
2010    26      4       0.3180734       76.4819
2010    26      5       0.1978948       51.13813
2010    26      6       0.2770375       67.29477
2010    26      7       0.3541987       82.75868
2010    27      0       0.3660737       84.8826
2010    27      1       0.4871406       105.9637
2010    27      2       0.4340998       97.76217
2010    27      3       0.4773113       105.5699
2010    27      4       0.2611736       65.54914
2010    27      5       0.1238202       35.35783
2010    27      6       0.1224239       34.92801
2010    27      7       0.1977948       51.93146
2010    28      0       0.2869767       70.36976
2010    28      1       0.6072131       124.7675
2010    28      2       0.1716313       45.89618
2010    28      3       0.2165412       55.73471
2010    28      4       0.1927709       50.6285
2010    28      5       0.2389668       60.04848
2010    28      6       0.3226343       76.61209
2010    28      7       0.4536239       101.1048
2011    1       0       0.2425332       60.84196
2011    1       1       0.2469637       61.59518
2011    1       2       0.2400289       60.02723
2011    1       3       0.1730944       46.00691
2011    1       4       0.07755725      24.246
2011    1       5       0.04945853      17.21825
2011    1       6       0.03786559      14.16683
2011    1       7       0.03863924      14.26868
2011    2       0       0.04665569      16.26498
2011    2       1       0.07183817      22.28852
2011    2       2       0.106817        30.1925
2011    2       3       0.1687804       43.90475
2011    2       4       0.2566085       62.09659
2011    2       5       0.5084765       107.0983
2011    2       6       0.7362409       140.3468
2011    2       7       0.8227511       151.8553
2011    3       0       0.9837182       168.7124
2011    3       1       1.073807        177.5356
2011    3       2       1.319477        198.0798
2011    3       3       1.321436        198.2863
2011    3       4       1.056878        177.2227
2011    3       5       0.8729937       158.802
2011    3       6       0.6765148       134.0549
2011    3       7       0.5214425       111.3327
2011    4       0       0.3692072       85.66757
2011    4       1       0.4619089       101.6571
2011    4       2       0.5481028       115.4962
2011    4       3       0.4072359       92.75366
2011    4       4       0.2674271       66.33555
2011    4       5       0.2876985       70.28663
2011    4       6       0.2649097       65.74405
2011    4       7       0.3144934       75.65667
2011    5       0       0.3576779       83.80521
2011    5       1       0.3603108       84.19545
2011    5       2       0.4939403       107.2211
2011    5       3       0.8379769       154.3425
2011    5       4       0.8342123       154.0037
2011    5       5       0.6803167       135.0746
2011    5       6       0.4367691       97.99365
2011    5       7       0.6106443       125.1119
2011    6       0       0.6950732       136.6157
2011    6       1       0.6029968       124.1159
2011    6       2       0.5723662       119.3476
2011    6       3       0.6498322       130.1747
2011    6       4       0.5413684       114.3599
2011    6       5       0.3851435       88.46594
2011    6       6       0.2687497       66.50352
2011    6       7       0.2991564       72.59819
2011    7       0       0.2768313       68.18747
2011    7       1       0.3032008       73.51772
2011    7       2       0.3495275       82.54782
2011    7       3       0.2672332       66.77373
2011    7       4       0.1868869       49.73145
2011    7       5       0.2008324       52.66189
2011    7       6       0.180033        48.0368
2011    7       7       0.1735879       46.65099
2011    8       0       0.155459        42.64019
2011    8       1       0.1428532       39.79039
2011    8       2       0.1700455       45.98469
2011    8       3       0.224439        57.87978
2011    8       4       0.2433691       61.82933
2011    8       5       0.2542031       63.96676
2011    8       6       0.270011        67.0914
2011    8       7       0.2775895       68.54653
2011    9       0       0.2774226       68.32158
2011    9       1       0.2719771       67.0886
2011    9       2       0.2814608       68.90539
2011    9       3       0.3480888       81.78354
2011    9       4       0.5948605       122.6217
2011    9       5       0.6025189       123.6622
2011    9       6       0.611765        125.1722
2011    9       7       0.3506962       82.5002
2011    10      0       0.2731092       67.63708
2011    10      1       0.1876913       49.71093
2011    10      2       0.1258346       35.63807
2011    10      3       0.1156107       33.23536
2011    10      4       0.1236933       35.1379
2011    10      5       0.1451025       40.05145
2011    10      6       0.1425886       39.55288
2011    10      7       0.121923        34.74704
2011    11      0       0.1013612       29.89435
2011    11      1       0.08400261      25.73219
2011    11      2       0.07923713      24.53813
2011    11      3       0.0819429       25.20731
2011    11      4       0.0880737       26.74924
2011    11      5       0.0943188       28.31992
2011    11      6       0.09381145      28.23529
2011    11      7       0.09072809      27.55686
2011    12      0       0.09118073      27.70784
2011    12      1       0.08696568      26.73054
2011    12      2       0.07811016      24.54249
2011    12      3       0.08383361      25.9469
2011    12      4       0.08060691      25.12127
2011    12      5       0.08401059      25.99036
2011    12      6       0.09270773      28.14062
2011    12      7       0.1020143       30.35958
2011    13      0       0.09502368      28.59076
2011    13      1       0.09059035      27.47617
2011    13      2       0.08080877      25.04634
2011    13      3       0.08296792      25.43691
2011    13      4       0.09504037      28.32715
2011    13      5       0.1055398       30.77102
2011    13      6       0.0979552       28.99885
2011    13      7       0.08404719      25.7154
2011    14      0       0.07011527      22.05083
2011    14      1       0.123252        34.70349
2011    14      2       0.117674        33.17079
2011    14      3       0.1528017       41.04832
2011    14      4       0.3920326       88.00848
2011    14      5       1.155881        184.2535
2011    14      6       1.320068        197.1723
2011    14      7       1.212415        188.3672
2011    15      0       1.21868         190.1882
2011    15      1       1.104897        180.7892
2011    15      2       1.091758        180.3009
2011    15      3       1.027747        174.6854
2011    15      4       0.7956602       149.4154
2011    15      5       1.304604        196.8206
2011    15      6       1.037251        173.6925
2011    15      7       1.200864        187.9305
2011    16      0       0.9463706       163.6916
2011    16      1       0.9961431       169.7785
2011    16      2       0.7504038       143.4233
2011    16      3       0.7736996       147.3935
2011    16      4       0.7534528       145.0515
2011    16      5       0.6678728       133.7659
2011    16      6       0.4277025       97.64313
2011    16      7       0.3984619       91.49596
2011    17      0       0.3642338       84.51586
2011    17      1       0.3357384       78.88155
2011    17      2       0.3952088       90.16498
2011    17      3       0.396113        90.88171
2011    17      4       0.4066668       92.85718
2011    17      5       0.3911906       90.08857
2011    17      6       0.4119133       92.70806
2011    17      7       0.3956237       90.23792
2011    18      0       0.3363746       80.29649
2011    18      1       0.3166298       76.53197
2011    18      2       0.2740331       68.48198
2011    18      3       0.1907805       50.94339
2011    18      4       0.2745319       68.05669
2011    18      5       0.3546505       83.26469
2011    18      6       0.4799456       106.1079
2011    18      7       0.1455914       40.59352
2011    19      0       0.4173837       94.44063
2011    19      1       0.803105        149.2387
2011    19      2       1.001426        170.0553
2011    19      3       1.043725        174.3151
2011    19      4       1.161708        183.5029
2011    19      5       1.09365         178.4993
2011    19      6       1.450478        207.0293
2011    19      7       0.8303157       153.5682
2011    20      0       0.6348108       128.5902
2011    20      1       0.6337116       128.1693
2011    20      2       0.6566462       131.3503
2011    20      3       0.8156398       152.1229
2011    20      4       0.664188        133.8783
2011    20      5       0.4089301       94.9625
2011    20      6       0.2302361       58.88157
2011    20      7       0.2865326       68.6059
2011    21      0       0.4020794       90.63968
2011    21      1       0.4669268       102.668
2011    21      2       0.5256723       112.0692
2011    21      3       0.8657866       157.5249
2011    21      4       1.236274        191.6335
2011    21      5       0.8304898       151.6851
2011    21      6       0.7078353       136.8153
2011    21      7       0.5512291       115.0953
2011    22      0       0.4639335       101.6657
2011    22      1       0.3308195       78.36829
2011    22      2       0.2693998       66.21207
2011    22      3       0.2973239       71.55316
2011    22      4       0.3436861       79.98653
2011    22      5       0.4532527       98.72794
2011    22      6       0.733403        138.1942
2011    22      7       0.6268872       125.2514
2011    23      0       0.44452         97.9328
2011    23      1       0.6152972       124.3999
2011    23      2       0.6963556       135.3751
2011    23      3       0.6762186       132.4621
2011    23      4       0.8486465       153.0488
2011    23      5       0.4411211       98.38161
2011    23      6       0.5455141       115.1342
2011    23      7       0.3126574       74.51041
2011    24      0       0.3945673       89.40333
2011    24      1       0.5576982       115.035
2011    24      2       0.6989026       133.4415
2011    24      3       0.8193734       149.0036
2011    24      4       0.9758011       166.7439
2011    24      5       0.8561463       154.8867
2011    24      6       0.968081        167.4593
2011    24      7       0.7241787       139.5081
2011    25      0       0.7243025       139.0273
2011    25      1       0.7502746       142.092
2011    25      2       0.6838876       133.1904
2011    25      3       0.7816035       144.3148
2011    25      4       0.8411077       151.7857
2011    25      5       1.083725        178.1928
2011    25      6       0.8948484       160.2296
2011    25      7       0.7826585       147.3921
2011    26      0       0.6900156       135.8543
2011    26      1       0.4967405       107.5892
2011    26      2       0.3789466       87.29143
2011    26      3       0.5742888       119.6251
2011    26      4       0.5867945       120.9687
2011    26      5       0.8829341       158.6737
2011    26      6       0.7093104       137.8139
2011    26      7       0.5991506       122.2171
2011    27      0       0.9426832       164.1629
2011    27      1       0.8781349       156.8944
2011    27      2       0.8172273       149.9566
2011    27      3       0.7320223       139.9249
2011    27      4       0.890975        158.4497
2011    27      5       1.048753        173.9613
2011    27      6       0.6578242       129.0533
2011    27      7       0.5133968       108.9726
2011    28      0       0.3549676       82.96487
2011    28      1       0.2761732       68.10036
2011    28      2       0.229614        58.56184
2011    28      3       0.2233038       56.9811
2011    28      4       0.2510146       62.58496
2011    28      5       0.2763424       67.57537
2011    28      6       0.2764295       67.66627
2011    28      7       0.2793833       68.03352
2012    1       0       0.06409852      20.39079
2012    1       1       0.0712265       22.07292
2012    1       2       0.08480359      25.26472
2012    1       3       0.1055244       30.08575
2012    1       4       0.1440387       38.93012
2012    1       5       0.2141776       53.91347
2012    1       6       0.30601         72.31709
2012    1       7       0.3510692       80.90768
2012    2       0       0.3791179       85.69234
2012    2       1       0.3794095       86.12973
2012    2       2       0.3345298       78.17324
2012    2       3       0.3651815       84.17881
2012    2       4       0.738549        141.3628
2012    2       5       0.8353049       153.123
2012    2       6       0.6140963       124.8585
2012    2       7       0.6004111       122.6915
2012    3       0       0.4096725       92.66092
2012    3       1       0.4846668       105.0998
2012    3       2       0.5604705       116.9334
2012    3       3       0.4590355       100.7056
2012    3       4       0.2954551       71.01434
2012    3       5       0.1793681       46.96138
2012    3       6       0.124023        34.76491
2012    3       7       0.1049671       30.45824
2012    4       0       0.1460683       40.14825
2012    4       1       0.349513        82.08754
2012    4       2       0.1699532       45.45308
2012    4       3       0.1681187       45.15063
2012    4       4       0.1606649       43.59376
2012    4       5       0.1426317       39.51923
2012    4       6       0.1537948       42.15858
2012    4       7       0.1648248       44.57986
2012    5       0       0.1728774       46.30154
2012    5       1       0.1882662       49.55823
2012    5       2       0.1996936       51.93834
2012    5       3       0.2015779       52.35151
2012    5       4       0.218204        55.97925
2012    5       5       0.2123064       54.9331
2012    5       6       0.2079322       53.8714
2012    5       7       0.2540073       62.76028
2012    6       0       0.3168222       74.19103
2012    6       1       0.4180688       91.90052
2012    6       2       0.4833823       102.6719
2012    6       3       0.8458322       153.5138
2012    6       4       0.6604659       131.6878
2012    6       5       0.6287528       127.8055
2012    6       6       0.8459843       154.8138
2012    6       7       0.8347105       151.3997
2012    7       0       1.180007        183.7224
2012    7       1       1.02602         170.6568
2012    7       2       0.7020096       135.4635
2012    7       3       0.6986578       133.6329
2012    7       4       0.5292348       111.4163
2012    7       5       0.5337499       111.4732
2012    7       6       0.5640144       114.8627
2012    7       7       0.5231556       109.171
2012    8       0       0.5897237       119.5606
2012    8       1       0.669968        130.2284
2012    8       2       0.7562228       141.4006
2012    8       3       0.7580044       141.3097
2012    8       4       0.8064156       147.3993
2012    8       5       0.8450026       151.2546
2012    8       6       0.8876599       155.6804
2012    8       7       0.8488306       150.5315
2012    9       0       0.7664099       140.7368
2012    9       1       0.6834562       130.6816
2012    9       2       0.861083        153.186
2012    9       3       1.051963        172.2448
2012    9       4       0.9583501       163.4078
2012    9       5       0.5849038       118.6792
2012    9       6       0.5165352       108.7732
2012    9       7       0.7537442       141.6045
2012    10      0       0.6399249       126.7381
2012    10      1       0.6701232       130.8227
2012    10      2       0.5308946       111.0707
2012    10      3       0.6513305       127.9997
2012    10      4       0.6814547       131.2293
2012    10      5       0.7525849       140.2482
2012    10      6       0.530607        111.0138
2012    10      7       0.2995372       71.74813
2012    11      0       0.2490568       61.95112
2012    11      1       0.25027         62.11325
2012    11      2       0.2436424       60.66478
2012    11      3       0.3679783       84.56912
2012    11      4       0.5928624       121.32
2012    11      5       0.5271905       111.6781
2012    11      6       0.1938594       50.30189
2012    11      7       0.1682463       44.72234
2012    12      0       0.1809594       47.58576
2012    12      1       0.7838169       146.9485
2012    12      2       0.6980627       136.0123
2012    12      3       1.039484        173.7508
2012    12      4       1.152497        184.5221
2012    12      5       0.9069673       161.5411
2012    12      6       0.7660842       145.2736
2012    12      7       1.048581        176.2548
2012    13      0       1.227593        191.8488
2012    13      1       0.7144588       139.6284
2012    13      2       0.654855        131.6565
2012    13      3       0.5168373       111.7435
2012    13      4       0.3983187       91.70325
2012    13      5       0.1944412       51.19854
2012    13      6       0.1270932       35.91223
2012    13      7       0.2161065       55.5767
2012    14      0       0.285311        69.6653
2012    14      1       0.3335326       78.99424
2012    14      2       0.3247993       77.28624
2012    14      3       0.4477338       99.15254
2012    14      4       0.4885216       105.6743
2012    14      5       0.6695692       131.7716
2012    14      6       0.5603671       115.6237
2012    14      7       0.7115589       136.429
2012    15      0       0.3540068       81.76282
2012    15      1       0.4450629       97.63407
2012    15      2       0.4441612       97.56545
2012    15      3       0.3567675       82.36036
2012    15      4       0.4570233       99.14507
2012    15      5       0.5051768       106.9906
2012    15      6       0.4612616       100.0863
2012    15      7       0.5980057       120.477
2012    16      0       0.7577655       141.2429
2012    16      1       0.7076245       135.561
2012    16      2       0.877074        155.185
2012    16      3       0.6798281       131.7863
2012    16      4       0.5552825       114.3763
2012    16      5       0.9038026       158.7154
2012    16      6       0.6968515       134.1181
2012    16      7       0.6467335       127.4679
2012    17      0       0.5374666       111.6648
2012    17      1       0.2312648       58.00887
2012    17      2       0.126361        35.28755
2012    17      3       0.3893919       87.55517
2012    17      4       0.3933685       88.27866
2012    17      5       0.4551875       98.84887
2012    17      6       0.4097187       91.17052
2012    17      7       0.4225028       93.28226
2012    18      0       0.3604673       83.39005
2012    18      1       0.3053997       72.26983
2012    18      2       0.3279088       76.42589
2012    18      3       0.2959502       70.56182
2012    18      4       0.2536722       62.5587
2012    18      5       0.2362278       59.20392
2012    18      6       0.1959104       50.90423
2012    18      7       0.244498        61.17973
2012    19      0       0.2264658       57.46763
2012    19      1       0.2925675       71.53115
2012    19      2       0.3853449       89.02548
2012    19      3       0.280133        68.82342
2012    19      4       0.2217151       56.30575
2012    19      5       0.21104         54.19203
2012    19      6       0.1850483       48.86945
2012    19      7       0.1712051       45.81978
2012    20      0       0.1733261       45.98011
2012    20      1       0.2024636       51.85875
2012    20      2       0.2601063       63.02009
2012    20      3       0.3342364       76.95514
2012    20      4       0.2655899       64.65497
2012    20      5       0.2120445       54.285
2012    20      6       0.1875969       49.17884
2012    20      7       0.1689664       45.19932
2012    21      0       0.153371        41.8564
2012    21      1       0.1592951       43.05076
2012    21      2       0.1726298       45.9221
2012    21      3       0.1914126       49.90798
2012    21      4       0.2677113       65.55865
2012    21      5       0.3548539       82.60884
2012    21      6       0.5154594       108.9949
2012    21      7       0.6086932       123.2279
2012    22      0       0.7503855       141.6134
2012    22      1       0.8227969       150.439
2012    22      2       0.7877216       147.8297
2012    22      3       0.8592564       156.3608
2012    22      4       1.02355         173.4829
2012    22      5       1.100309        181.5052
2012    22      6       0.8214604       152.7618
2012    22      7       1.149896        186.5044
2012    23      0       1.079192        180.1672
2012    23      1       1.056101        177.7484
2012    23      2       0.8984823       161.8296
2012    23      3       0.9268332       164.3722
2012    23      4       0.9655979       167.6758
2012    23      5       1.213908        190.111
2012    23      6       0.5351505       113.5896
2012    23      7       0.2202256       56.96711
2012    24      0       0.2521004       63.49936
2012    24      1       0.4669309       102.7503
2012    24      2       0.7491039       142.8427
2012    24      3       0.9088793       161.1247
2012    24      4       0.8601616       156.4761
2012    24      5       0.2457741       61.99519
2012    24      6       0.1329484       37.25406
2012    24      7       0.1395872       38.82588
2012    25      0       0.1572447       42.98776
2012    25      1       0.2158929       56.14166
2012    25      2       0.1895861       50.4297
2012    25      3       0.2262197       58.44801
2012    25      4       0.2605171       65.56381
2012    25      5       0.2774312       68.92688
2012    25      6       0.2946968       72.396
2012    25      7       0.2674183       66.71667
2012    26      0       0.2551597       63.99021
2012    26      1       0.2615867       65.1492
2012    26      2       0.2745349       67.79111
2012    26      3       0.2622291       65.52848
2012    26      4       0.524243        112.9817
2012    26      5       0.7262493       141.6263
2012    26      6       0.5616479       118.4112
2012    26      7       0.5044277       108.9846
2012    27      0       0.3672237       85.22267
2012    27      1       0.4093472       92.62101
2012    27      2       0.732215        140.8042
2012    27      3       0.8621461       155.66
2012    27      4       1.120827        181.3809
2012    27      5       1.231659        189.6943
2012    27      6       0.9919538       168.5444
2012    27      7       0.7444025       140.1543
2012    28      0       0.6228757       124.7305
2012    28      1       1.041939        172.8137
2012    28      2       0.6491475       128.6094
2012    28      3       0.3602257       83.47431
2012    28      4       0.3783303       87.70473
2012    28      5       0.7000064       137.0561
2012    28      6       0.4183544       92.45939
2012    28      7       0.4132575       90.60518
2012    29      0       0.301805        70.33781
2012    29      1       0.2844262       67.06337
2012    29      2       0.1620899       42.64737
2012    29      3       0.250187        60.94853
2012    29      4       0.6493662       127.764
2012    29      5       0.7553008       142.0248
2012    29      6       0.8059451       147.4742
2012    29      7       0.5180793       108.1218
2013    1       0       0.1672741       45.34355
2013    1       1       0.08236288      25.21733
2013    1       2       0.06948698      21.90806
2013    1       3       0.1023062       29.44478
2013    1       4       0.1130127       32.23818
2013    1       5       0.1336237       37.08532
2013    1       6       0.1423815       39.07873
2013    1       7       0.1832864       48.271
2013    2       0       0.2725706       67.2554
2013    2       1       0.3187895       76.61526
2013    2       2       0.3030228       73.72725
2013    2       3       0.2866904       70.94129
2013    2       4       0.2601941       66.20883
2013    2       5       0.1913308       51.55558
2013    2       6       0.1855516       50.2228
2013    2       7       0.1348754       38.41965
2013    3       0       0.1362565       38.68852
2013    3       1       0.1255888       36.07778
2013    3       2       0.1064761       31.39436
2013    3       3       0.1089885       31.92572
2013    3       4       0.1506979       41.85671
2013    3       5       0.197261        52.51523
2013    3       6       0.1693542       46.29213
2013    3       7       0.1388538       39.21798
2013    4       0       0.1583928       43.76576
2013    4       1       0.1620159       44.50478
2013    4       2       0.1637947       44.5754
2013    4       3       0.1934142       50.87653
2013    4       4       0.2020221       52.59217
2013    4       5       0.1475638       40.57551
2013    4       6       0.1158502       33.44805
2013    4       7       0.1241398       35.54948
2013    5       0       0.1435745       40.07397
2013    5       1       0.1677488       45.37195
2013    5       2       0.1557844       42.38985
2013    5       3       0.1422456       39.25992
2013    5       4       0.1886299       49.57532
2013    5       5       0.2593407       64.29134
2013    5       6       0.359444        83.54598
2013    5       7       0.3913517       88.894
2013    6       0       0.6844895       134.1231
2013    6       1       0.7442178       141.3845
2013    6       2       0.7682923       144.7815
2013    6       3       0.3872651       89.46641
2013    6       4       0.2058525       53.83381
2013    6       5       0.2274242       57.91873
2013    6       6       0.3316055       78.8381
2013    6       7       0.4341601       97.50132
2013    7       0       0.4126635       93.73902
2013    7       1       0.4909109       107.0184
2013    7       2       0.8683985       158.1337
2013    7       3       0.4608913       102.1221
2013    7       4       0.3903223       89.76801
2013    7       5       0.243973        61.48839
2013    7       6       0.2952517       71.78244
2013    7       7       0.3261947       77.26555
2013    8       0       0.35527         82.32535
2013    8       1       0.4592957       100.0269
2013    8       2       0.4439685       96.93571
2013    8       3       0.5149183       107.1859
2013    8       4       0.711222        134.5699
2013    8       5       0.6737866       129.8414
2013    8       6       0.2798907       67.83098
2013    8       7       0.3086614       73.60449
2013    9       0       0.417448        93.27966
2013    9       1       0.3458249       80.71399
2013    9       2       0.4172826       93.59999
2013    9       3       0.451076        99.09391
2013    9       4       0.6201332       125.1574
2013    9       5       0.578968        119.3656
2013    9       6       0.5921862       121.5707
2013    9       7       0.5438899       114.3747
2013    10      0       0.5040949       108.1493
2013    10      1       0.5573884       116.17
2013    10      2       0.6241091       125.5472
2013    10      3       0.4692263       101.6045
2013    10      4       0.7141016       136.0418
2013    10      5       0.7546671       140.709
2013    10      6       0.8815241       155.5985
2013    10      7       0.7805033       144.3446
2013    11      0       0.3414803       79.28752
2013    11      1       0.3906312       87.89202
2013    11      2       0.375382        85.85432
2013    11      3       0.212746        54.7752
2013    11      4       0.0753247       23.4301
2013    11      5       0.09769299      28.78138
2013    11      6       0.124114        35.04353
2013    11      7       0.162816        43.87815
2013    12      0       0.1729722       46.15524
2013    12      1       0.1661322       44.7144
2013    12      2       0.1569806       42.46274
2013    12      3       0.138871        38.28621
2013    12      4       0.1283749       35.65295
2013    12      5       0.118608        33.30388
2013    12      6       0.1062771       30.67229
2013    12      7       0.1153234       32.88234
2013    13      0       0.1678315       44.97435
2013    13      1       0.2840073       69.57747
2013    13      2       0.4948911       107.329
2013    13      3       0.4040689       91.83141
2013    13      4       0.3824696       87.78328
2013    13      5       0.2904267       70.04203
2013    13      6       0.2564936       63.5315
2013    13      7       0.2783049       67.75774
2013    14      0       0.3508356       81.29252
2013    14      1       0.5640029       114.9014
2013    14      2       0.5490909       112.5067
2013    14      3       0.6098759       119.9858
2013    14      4       0.7259637       136.9105
2013    14      5       0.7609655       141.1931
2013    14      6       0.5641796       115.7167
2013    14      7       0.734375        140.1421
2013    15      0       0.7147622       137.5657
2013    15      1       0.8840429       156.9757
2013    15      2       0.8400174       152.2669
2013    15      3       0.6989368       134.6371
2013    15      4       0.8335007       150.7233
2013    15      5       1.039773        173.1224
2013    15      6       0.6610021       130.7139
2013    15      7       0.7921039       147.2342
2013    16      0       0.7678694       144.9572
2013    16      1       0.6202879       125.6034
2013    16      2       0.5381916       113.374
2013    16      3       0.5083683       108.2216
2013    16      4       0.3905746       88.48008
2013    16      5       0.7014035       135.3617
2013    16      6       0.8843578       157.1975
2013    16      7       0.5428648       113.1895
2013    17      0       0.5970515       121.378
2013    17      1       0.6268633       125.8834
2013    17      2       0.9073397       160.7826
2013    17      3       0.5516043       115.7373
2013    17      4       0.5028876       108.3127
2013    17      5       0.5551629       116.2309
2013    17      6       0.333991        78.94484
2013    17      7       0.3156772       75.57912
2013    18      0       0.2868564       69.69609
2013    18      1       0.3670913       84.81828
2013    18      2       0.4801764       104.2873
2013    18      3       0.5522282       115.4419
2013    18      4       0.6752932       132.3129
2013    18      5       0.5475237       114.5122
2013    18      6       0.6114186       123.803
2013    18      7       0.5196853       110.0988
2013    19      0       0.3815218       86.6843
2013    19      1       0.4431749       97.2212
2013    19      2       0.6084296       122.4114
2013    19      3       0.6893214       133.3262
2013    19      4       0.4533971       99.06051
2013    19      5       0.3585713       82.81451
2013    19      6       0.3349911       78.82613
2013    19      7       0.3371847       79.24818
2013    20      0       0.381042        87.68505
2013    20      1       0.3248685       77.81315
2013    20      2       0.2034247       53.03862
2013    20      3       0.07569757      23.39619
2013    20      4       0.09420771      27.73979
2013    20      5       0.1098459       31.20967
2013    20      6       0.1168031       32.99739
2013    20      7       0.1545182       41.39899
2013    21      0       0.2575079       63.16448
2013    21      1       0.5045704       107.8877
2013    21      2       0.5739747       118.1871
2013    21      3       0.6500735       128.7413
2013    21      4       0.5165916       109.8058
2013    21      5       0.5415934       113.1345
2013    21      6       0.7033986       137.8388
2013    21      7       0.6407793       127.9843
2013    22      0       0.5472118       114.4361
2013    22      1       0.3159528       75.01197
2013    22      2       0.2852043       69.22772
2013    22      3       0.2802871       68.23348
2013    22      4       0.2796393       68.35173
2013    22      5       0.4220771       94.36172
2013    22      6       0.3453601       81.69636
2013    22      7       0.3576273       84.12303
2013    23      0       0.45026         100.5339
2013    23      1       0.3120811       75.10928
2013    23      2       0.2974607       72.18381
2013    23      3       0.467483        103.2721
2013    23      4       0.4727505       104.5008
2013    23      5       0.283686        69.73994
2013    23      6       0.2202369       56.86942
2013    23      7       0.2064942       54.45961
2013    24      0       0.2171843       56.7745
2013    24      1       0.2458365       62.76576
2013    24      2       0.2326503       60.0115
2013    24      3       0.209996        55.15536
2013    24      4       0.1770584       47.73034
2013    24      5       0.1479065       41.02869
2013    24      6       0.1242204       35.74776
2013    24      7       0.1804411       48.82617
2013    25      0       0.2360763       60.92955
2013    25      1       0.1843691       49.67006
2013    25      2       0.1771927       47.98055
2013    25      3       0.186138        49.96867
2013    25      4       0.225031        58.37953
2013    25      5       0.2528383       64.30886
2013    25      6       0.2277283       58.80131
2013    25      7       0.1926467       51.39429
2013    26      0       0.1560312       43.06965
2013    26      1       0.1617527       44.19918
2013    26      2       0.14653         40.6579
2013    26      3       0.1336515       37.53219
2013    26      4       0.1243131       35.22306
2013    26      5       0.1268407       35.82082
2013    26      6       0.1401101       38.84072
2013    26      7       0.1658846       44.55225
2013    27      0       0.2023235       52.45105
2013    27      1       0.2451663       61.41101
2013    27      2       0.246945        61.66488
2013    27      3       0.253895        63.33253
2013    27      4       0.3672711       85.43858
2013    27      5       0.234712        59.36116
2013    27      6       0.1561297       42.23897
2013    27      7       0.2637188       65.08197
2013    28      0       0.2502346       62.40652
2013    28      1       0.2125313       54.48597
2013    28      2       0.297756        71.91741
2013    28      3       0.5490907       115.3639
2013    28      4       0.7098765       137.867
2013    28      5       0.7068177       137.5394
2013    28      6       0.4202318       94.12859
2013    28      7       0.3084052       73.67954
2014    1       0       0.3912545       91.16185
2014    1       1       0.4023422       92.49466
2014    1       2       0.4614367       102.3803
2014    1       3       0.5957066       122.3997
2014    1       4       0.7090923       137.3478
2014    1       5       0.799091        148.2852
2014    1       6       0.8303896       152.9621
2014    1       7       0.6903001       136.2228
2014    2       0       0.8060336       150.1759
2014    2       1       0.8712448       156.612
2014    2       2       0.8624529       155.198
2014    2       3       1.112442        180.8389
2014    2       4       1.022296        172.4288
2014    2       5       1.194989        187.6053
2014    2       6       0.9017968       160.9155
2014    2       7       0.8314587       154.0092
2014    3       0       1.215711        191.4679
2014    3       1       1.250405        193.1397
2014    3       2       0.9381642       164.8969
2014    3       3       1.213821        189.9201
2014    3       4       1.090086        179.3419
2014    3       5       1.22383         191.3266
2014    3       6       1.181197        187.8173
2014    3       7       0.9240578       164.2091
2014    4       0       0.8364552       155.0312
2014    4       1       0.8474162       156.1354
2014    4       2       0.848726        156.0854
2014    4       3       0.9112592       162.5113
2014    4       4       0.8157753       151.9099
2014    4       5       0.8657769       157.5941
2014    4       6       0.8715051       158.5157
2014    4       7       0.7198976       140.4974
2014    5       0       0.7699142       146.657
2014    5       1       0.7541595       144.3977
2014    5       2       0.7754756       146.3828
2014    5       3       0.906099        159.6817
2014    5       4       0.8618255       154.3003
2014    5       5       0.8487751       152.7395
2014    5       6       0.8050599       148.388
2014    5       7       0.8331248       152.7667
2014    6       0       0.8275617       152.3344
2014    6       1       0.5618968       117.6429
2014    6       2       0.4961332       107.3881
2014    6       3       0.6152587       125.4823
2014    6       4       0.636982        128.4819
2014    6       5       0.8720824       158.1472
2014    6       6       0.8156773       151.5529
2014    6       7       0.9106591       161.9369
2014    7       0       0.8140698       150.1875
2014    7       1       0.7695986       144.3432
2014    7       2       0.5910817       121.7825
2014    7       3       0.9521283       167.6897
2014    7       4       0.5379058       115.3596
2014    7       5       0.3209398       78.04911
2014    7       6       0.2441183       62.64335
2014    7       7       0.2194671       57.40819
2014    8       0       0.1877121       50.37458
2014    8       1       0.1355201       38.35694
2014    8       2       0.1376845       38.89846
2014    8       3       0.1418133       39.93866
2014    8       4       0.1433588       40.24681
2014    8       5       0.1527969       42.14626
2014    8       6       0.1698301       46.02939
2014    8       7       0.1548357       43.04708
2014    9       0       0.2077635       54.85493
2014    9       1       0.3235483       78.55047
2014    9       2       0.368112        86.42043
2014    9       3       0.3508685       82.69956
2014    9       4       0.3309283       78.64621
2014    9       5       0.2266382       57.89696
2014    9       6       0.163152        43.97073
2014    9       7       0.2155675       55.15608
2014    10      0       0.1738939       47.82435
2014    10      1       0.2373936       61.8997
2014    10      2       0.1598134       44.51343
2014    10      3       0.2088285       55.0946
2014    10      4       0.2991871       74.11181
2014    10      5       0.3769877       89.08
2014    10      6       0.3633124       86.6778
2014    10      7       0.363945        86.71828
2014    11      0       0.4052911       94.28131
2014    11      1       0.4517552       102.2582
2014    11      2       0.441709        100.1144
2014    11      3       0.3751831       88.16637
2014    11      4       0.3189303       77.40893
2014    11      5       0.2688701       67.16285
2014    11      6       0.2090751       54.40432
2014    11      7       0.1869041       49.42771
2014    12      0       0.176629        47.55715
2014    12      1       0.1762776       47.8047
2014    12      2       0.1994983       52.96176
2014    12      3       0.2800073       69.78017
2014    12      4       0.2891802       71.40502
2014    12      5       0.2791191       69.15551
2014    12      6       0.2947501       72.13351
2014    12      7       0.3174          76.22094
2014    13      0       0.4014957       91.15756
2014    13      1       0.4525134       99.63955
2014    13      2       0.5768967       118.1918
2014    13      3       0.4744626       101.2446
2014    13      4       0.4555559       97.75643
2014    13      5       0.4997752       105.8436
2014    13      6       0.6257735       125.2364
2014    13      7       0.7059576       136.7618
2014    14      0       0.6178819       124.8011
2014    14      1       0.5033862       107.3154
2014    14      2       0.4343812       96.10103
2014    14      3       0.4402167       97.28425
2014    14      4       0.5135537       109.7281
2014    14      5       0.4550611       100.312
2014    14      6       0.3898558       87.80108
2014    14      7       0.6071702       123.1174
2014    15      0       0.6787299       132.3951
2014    15      1       0.9034308       159.3744
2014    15      2       0.5195993       110.9082
2014    15      3       0.4263402       96.22381
2014    15      4       0.5195589       111.9923
2014    15      5       0.5800391       121.572
2014    15      6       0.2469818       62.92022
2014    15      7       0.2178246       57.40712
2014    16      0       0.2733829       69.44991
2014    16      1       0.1877903       50.1741
2014    16      2       0.1609054       44.0299
2014    16      3       0.1663139       45.61293
2014    16      4       0.1641674       45.40301
2014    16      5       0.1649808       45.7944
2014    16      6       0.1346838       38.76263
2014    16      7       0.08026569      25.42575
2014    17      0       0.08188589      25.87404
2014    17      1       0.08949289      27.83242
2014    17      2       0.1042058       31.47607
2014    17      3       0.1137957       33.83193
2014    17      4       0.1203683       35.40796
2014    17      5       0.1205708       35.43406
2014    17      6       0.09852792      30.04056
2014    17      7       0.07792991      24.81562
2014    18      0       0.07297195      23.50728
2014    18      1       0.06905666      22.4944
2014    18      2       0.07408385      23.7755
2014    18      3       0.08564772      26.68878
2014    18      4       0.0998775       30.22105
2014    18      5       0.1086436       32.34156
2014    18      6       0.1037097       31.10724
2014    18      7       0.0894887       27.60083
2014    19      0       0.08650172      26.86999
2014    19      1       0.08886371      27.46249
2014    19      2       0.08913286      27.56489
2014    19      3       0.08883926      27.55237
2014    19      4       0.08922345      27.65349
2014    19      5       0.07472573      23.99221
2014    19      6       0.05527887      18.96369
2014    19      7       0.04713105      16.79939
2014    20      0       0.04474104      16.15494
2014    20      1       0.04922049      17.28918
2014    20      2       0.0482988       16.88581
2014    20      3       0.05055394      17.35498
2014    20      4       0.07424177      23.06775
2014    20      5       0.09778421      28.31653
2014    20      6       0.123413        33.75302
2014    20      7       0.1806364       46.25198
2014    21      0       0.2750231       65.64968
2014    21      1       0.2492702       61.02595
2014    21      2       0.2069598       52.75555
2014    21      3       0.3220512       75.93782
2014    21      4       0.310886        74.38124
2014    21      5       0.4825188       103.439
2014    21      6       0.3246079       77.23264
2014    21      7       0.3975593       89.87135
2014    22      0       0.4626055       101.1127
2014    22      1       0.6996219       136.4831
2014    22      2       0.5182563       111.5037
2014    22      3       0.5970838       124.0224
2014    22      4       0.3763858       88.38888
2014    22      5       0.2914434       72.39906
2014    22      6       0.2735514       68.78572
2014    22      7       0.2426208       62.30515
2014    23      0       0.23179         59.86462
2014    23      1       0.2486404       63.30927
2014    23      2       0.2152695       56.17259
2014    23      3       0.2466905       62.81276
2014    23      4       0.2328458       59.68555
2014    23      5       0.2701197       67.07079
2014    23      6       0.3200338       76.4439
2014    23      7       0.3849077       87.7063
2014    24      0       0.4078867       91.31388
2014    24      1       0.5252975       109.8086
2014    24      2       0.7346889       138.7674
2014    24      3       0.9248178       160.8806
2014    24      4       0.8463178       153.145
2014    24      5       0.5736993       118.3734
2014    24      6       0.5941252       121.031
2014    24      7       0.4498892       99.2583
2014    25      0       0.2799326       68.48828
2014    25      1       0.3245271       77.18688
2014    25      2       0.4946857       106.4755
2014    25      3       0.6401869       127.7449
2014    25      4       0.4991017       106.8595
2014    25      5       0.2880414       70.15324
2014    25      6       0.2365997       59.84894
2014    25      7       0.251855        63.0647
2014    26      0       0.282398        69.35889
2014    26      1       0.3026954       73.39406
2014    26      2       0.6601246       131.9287
2014    26      3       0.7251572       140.4029
2014    26      4       0.7493085       143.2623
2014    26      5       0.7740918       145.899
2014    26      6       0.6710368       132.7279
2014    26      7       0.2993885       72.57827
2014    27      0       0.2318489       59.04182
2014    27      1       0.1706098       46.02051
2014    27      2       0.1423886       39.7302
2014    27      3       0.2094807       54.44989
2014    27      4       0.2479215       62.26222
2014    27      5       0.2687788       66.15983
2014    27      6       0.2109397       54.07983
2014    27      7       0.1695208       45.1557
2014    28      0       0.1799973       47.76077
2014    28      1       0.2346144       59.81965
2014    28      2       0.3353321       79.31893
2014    28      3       0.4513055       98.98242
2014    28      4       0.7179797       137.9964
2014    28      5       0.654932        130.1276
2014    28      6       0.6202939       125.5222
2014    28      7       0.5675214       117.9522
2015    1       0       0.3980721       92.74269
2015    1       1       0.4043721       94.29752
2015    1       2       0.2758955       69.59072
2015    1       3       0.2683496       67.90777
2015    1       4       0.3144276       76.9569
2015    1       5       0.368506        87.13264
2015    1       6       0.3662394       86.22867
2015    1       7       0.2905403       71.48369
2015    2       0       0.3232198       77.90878
2015    2       1       0.3513788       83.54185
2015    2       2       0.3821196       89.17622
2015    2       3       0.4138486       94.60443
2015    2       4       0.2334703       59.88651
2015    2       5       0.2589046       64.9435
2015    2       6       0.2264502       58.08176
2015    2       7       0.1953057       51.29394
2015    3       0       0.2497174       62.69139
2015    3       1       0.4710123       103.3306
2015    3       2       0.309628        74.47573
2015    3       3       0.4866608       105.5987
2015    3       4       0.7013491       136.5716
2015    3       5       0.6014948       123.0833
2015    3       6       0.8102476       150.4832
2015    3       7       0.5355654       113.7922
2015    4       0       0.320861        77.18913
2015    4       1       0.2328638       59.62946
2015    4       2       0.1490175       41.02484
2015    4       3       0.1393213       38.57169
2015    4       4       0.1588212       42.8607
2015    4       5       0.2039186       52.71131
2015    4       6       0.3025322       73.27864
2015    4       7       0.3425939       81.10811
2015    5       0       0.3705813       86.20011
2015    5       1       0.3374799       80.17002
2015    5       2       0.2694228       67.37442
2015    5       3       0.2477085       63.10233
2015    5       4       0.2336266       60.18761
2015    5       5       0.2608629       65.80677
2015    5       6       0.2803203       69.68765
2015    5       7       0.2663564       67.17503
2015    6       0       0.2485087       63.90927
2015    6       1       0.1493402       42.08093
2015    6       2       0.114029        33.78751
2015    6       3       0.1444839       40.77617
2015    6       4       0.2384145       61.50897
2015    6       5       0.1207616       35.16622
2015    6       6       0.03779589      14.21102
2015    6       7       0.05259682      18.01356
2015    7       0       0.06924309      22.23542
2015    7       1       0.07931095      24.48716
2015    7       2       0.09900042      29.04018
2015    7       3       0.1418678       38.95631
2015    7       4       0.3612768       84.81468
2015    7       5       0.4379375       98.23813
2015    7       6       0.5041124       109.0615
2015    7       7       0.4378502       98.08079
2015    8       0       0.4602689       102.0922
2015    8       1       0.6857603       135.4157
2015    8       2       0.6350879       128.0738
2015    8       3       0.6794828       133.7853
2015    8       4       0.9122217       161.6574
2015    8       5       0.5758764       118.5304
2015    8       6       0.3301886       77.57698
2015    8       7       0.3893864       88.37596
2015    9       0       0.7707604       143.4116
2015    9       1       0.6592582       127.8215
2015    9       2       0.5840225       118.3397
2015    9       3       0.7452185       139.9076
2015    9       4       0.8747181       154.143
2015    9       5       0.807749        144.9853
2015    9       6       0.891536        155.9752
2015    9       7       0.7583931       140.8787
2015    10      0       0.7999483       146.5968
2015    10      1       0.930193        160.9001
2015    10      2       0.9650016       164.1232
2015    10      3       0.6869261       132.9718
2015    10      4       0.5168545       108.3111
2015    10      5       0.6389231       123.7987
2015    10      6       0.5937563       117.6816
2015    10      7       0.5671103       113.7862
2015    11      0       0.4984597       102.888
2015    11      1       0.5368725       108.8042
2015    11      2       0.4883319       102.53
2015    11      3       0.4093482       89.47206
2015    11      4       0.4735963       100.1021
2015    11      5       0.4432298       95.95275
2015    11      6       0.4605464       99.19905
2015    11      7       0.4323142       95.1853
2015    12      0       0.361402        83.15393
2015    12      1       0.3838743       86.18573
2015    12      2       0.3917992       87.21656
2015    12      3       0.5189698       106.9761
2015    12      4       0.4046863       89.92365
2015    12      5       0.6600403       130.1606
2015    12      6       0.688791        134.0005
2015    12      7       0.3041329       72.61247
2015    13      0       0.3284146       77.27288
2015    13      1       0.2797357       68.04065
2015    13      2       0.2168126       55.30495
2015    13      3       0.3805689       87.18084
2015    13      4       0.2112571       54.19974
2015    13      5       0.2348355       59.24402
2015    13      6       0.358651        83.33458
2015    13      7       0.3405698       79.75373
2015    14      0       0.3806743       86.92754
2015    14      1       0.3149747       74.90964
2015    14      2       0.3017221       72.36382
2015    14      3       0.485898        104.7223
2015    14      4       0.5332487       112.1412
2015    14      5       0.4305537       95.59006
2015    14      6       0.4047011       91.15934
2015    14      7       0.378997        86.61975
2015    15      0       0.3667408       84.4244
2015    15      1       0.3664891       84.29629
2015    15      2       0.3330827       78.17539
2015    15      3       0.2282331       57.58267
2015    15      4       0.2286859       57.64257
2015    15      5       0.2089796       53.42126
2015    15      6       0.1231308       34.2178
2015    15      7       0.1607167       42.68179
2015    16      0       0.2310703       57.82784
2015    16      1       0.2821288       68.32252
2015    16      2       0.2765005       67.32812
2015    16      3       0.4957907       106.4271
2015    16      4       0.623277        125.4868
2015    16      5       0.5650282       116.8667
2015    16      6       0.4668352       101.4656
2015    16      7       0.4844813       104.4075
2015    17      0       0.4123895       92.35116
2015    17      1       0.4013094       90.30794
2015    17      2       0.5093          108.2855
2015    17      3       0.6738888       132.1677
2015    17      4       0.5383309       112.6081
2015    17      5       0.5944374       120.8903
2015    17      6       0.2946778       70.22736
2015    17      7       0.2856629       68.4391
2015    18      0       0.2550848       62.73137
2015    18      1       0.171125        45.30837
2015    18      2       0.1753177       46.80169
2015    18      3       0.08250299      25.36201
2015    18      4       0.07706798      23.85427
2015    18      5       0.06132838      19.9463
2015    18      6       0.0779342       24.00039
2015    18      7       0.2932398       70.09467
2015    19      0       0.3317309       77.66287
2015    19      1       0.2888815       68.82954
2015    19      2       0.2723151       65.20198
2015    19      3       0.4230684       92.316
2015    19      4       0.3442256       79.11712
2015    19      5       0.1606811       42.80067
2015    19      6       0.1641815       43.75682
2015    19      7       0.1399331       38.48603
2015    20      0       0.1115879       32.0714
2015    20      1       0.08548281      25.79114
2015    20      2       0.1785631       46.90311
2015    20      3       0.2589277       63.96041
2015    20      4       0.2703529       66.65835
2015    20      5       0.2971449       72.45177
2015    20      6       0.3070081       74.69837
2015    20      7       0.313573        76.04356
2015    21      0       0.2986646       73.25149
2015    21      1       0.2649352       66.5823
2015    21      2       0.2265246       58.80409
2015    21      3       0.2426318       61.9499
2015    21      4       0.2363665       60.39274
2015    21      5       0.2414969       61.1301
2015    21      6       0.2682928       66.39754
2015    21      7       0.3435403       80.3516
2015    22      0       0.3763477       86.49122
2015    22      1       0.5023165       107.2313
2015    22      2       0.6887511       134.3707
2015    22      3       0.8964287       159.8661
2015    22      4       0.9183064       162.7709
2015    22      5       0.961415        167.2323
2015    22      6       0.9082962       161.3399
2015    22      7       1.099086        180.369
2015    23      0       0.9824288       169.4542
2015    23      1       1.010965        172.7925
2015    23      2       0.9172396       162.4564
2015    23      3       0.5946649       121.6628
2015    23      4       0.612461        124.6942
2015    23      5       0.5725446       118.7504
2015    23      6       0.425383        95.1229
2015    23      7       0.551411        114.5635
2015    24      0       0.5181826       109.1044
2015    24      1       0.2493525       61.70238
2015    24      2       0.3113573       74.12156
2015    24      3       0.6362695       126.5681
2015    24      4       0.7339666       139.2042
2015    24      5       0.6392031       128.0804
2015    24      6       0.4389345       98.07259
2015    24      7       0.2617845       65.31601
2015    25      0       0.2175438       55.96796
2015    25      1       0.5113548       110.1344
2015    25      2       0.6017094       123.9975
2015    25      3       0.5344884       114.0559
2015    25      4       0.460338        102.0703
2015    25      5       0.1485725       40.91093
2015    25      6       0.1306705       36.85111
2015    25      7       0.2630945       65.65153
2015    26      0       0.3705519       86.24268
2015    26      1       0.3539483       82.99575
2015    26      2       0.3568515       83.18411
2015    26      3       0.3827092       87.12796
2015    26      4       0.3669249       85.10587
2015    26      5       0.4247934       95.79963
2015    26      6       0.5282292       113.2076
2015    26      7       0.9888632       171.3511
2015    27      0       0.4317644       97.04877
2015    27      1       0.4056739       91.65173
2015    27      2       0.3416132       79.92707
2015    27      3       0.3291836       77.00696
2015    27      4       0.429711        94.79503
2015    27      5       0.5244929       111.9095
2015    27      6       0.4717982       102.7226
2015    27      7       0.5889835       120.7028
2015    28      0       0.6269113       126.6844
2015    28      1       0.8662507       157.187
2015    28      2       0.3336985       79.44204
2015    28      3       0.3761053       87.32463
2015    28      4       0.4836895       105.7142
2015    28      5       0.3689905       85.87665
2015    28      6       0.2578607       64.47986
2015    28      7       0.229792        58.63687
2016    1       0       0.1349231       37.50023
2016    1       1       0.09903791      29.20234
2016    1       2       0.1588195       42.63909
2016    1       3       0.2364744       60.00271
2016    1       4       0.2705368       67.18878
2016    1       5       0.3021281       73.38544
2016    1       6       0.2704632       67.41547
2016    1       7       0.2646624       66.947
2016    2       0       0.2066338       54.92176
2016    2       1       0.2429022       62.73936
2016    2       2       0.2535707       64.82165
2016    2       3       0.2382501       61.49634
2016    2       4       0.2396834       61.83683
2016    2       5       0.2275724       59.28603
2016    2       6       0.2052461       54.45718
2016    2       7       0.1970421       52.58931
2016    3       0       0.1961988       52.40574
2016    3       1       0.1907217       51.18686
2016    3       2       0.1777415       48.30723
2016    3       3       0.1667656       45.87284
2016    3       4       0.1635213       45.08137
2016    3       5       0.1601217       44.23031
2016    3       6       0.1588188       43.94104
2016    3       7       0.1535135       42.80613
2016    4       0       0.1430056       40.14901
2016    4       1       0.1638137       44.29483
2016    4       2       0.1697373       45.89492
2016    4       3       0.1891525       50.60164
2016    4       4       0.2237794       57.84715
2016    4       5       0.2491293       62.8197
2016    4       6       0.3350018       79.6021
2016    4       7       0.9554531       167.2953
2016    5       0       0.9536183       166.8186
2016    5       1       1.045976        174.7084
2016    5       2       0.5270611       112.2544
2016    5       3       0.4491019       97.83424
2016    5       4       0.6662984       129.9
2016    5       5       0.6943465       132.9467
2016    5       6       0.6683982       129.4325
2016    5       7       0.6303785       124.9312
2016    6       0       0.5078974       106.7768
2016    6       1       0.5374066       111.3233
2016    6       2       0.3859424       86.96502
2016    6       3       0.521702        109.6634
2016    6       4       0.4252024       94.72279
2016    6       5       0.1278352       36.12452
2016    6       6       0.1191228       34.48071
2016    6       7       0.1119057       32.75484
2016    7       0       0.058672        19.58106
2016    7       1       0.04436199      15.85654
2016    7       2       0.04024165      14.73683
2016    7       3       0.03770261      14.09643
2016    7       4       0.03769369      14.09782
2016    7       5       0.03880251      14.36144
2016    7       6       0.04190305      15.14
2016    7       7       0.05104328      17.41734
2016    8       0       0.06453378      20.70847
2016    8       1       0.08073144      24.59211
2016    8       2       0.09807291      28.70582
2016    8       3       0.1099612       31.48981
2016    8       4       0.1218861       34.19326
2016    8       5       0.128835        35.77742
2016    8       6       0.1307632       36.15626
2016    8       7       0.1432251       38.69395
2016    9       0       0.1858706       47.54247
2016    9       1       0.2053397       51.58875
2016    9       2       0.1972513       50.00385
2016    9       3       0.1717077       44.95374
2016    9       4       0.1617261       43.0131
2016    9       5       0.1556768       41.93689
2016    9       6       0.1703243       45.25644
2016    9       7       0.196666        51.19782
2016    10      0       0.2346968       59.62461
2016    10      1       0.2323237       59.37853
2016    10      2       0.163646        44.40469
2016    10      3       0.1309853       36.45525
2016    10      4       0.288262        69.67115
2016    10      5       0.3883781       87.4978
2016    10      6       0.4707137       101.3362
2016    10      7       0.5843944       120.2396
2016    11      0       0.6787165       134.213
2016    11      1       0.546954        116.4112
2016    11      2       0.5295689       113.8332
2016    11      3       0.7728716       147.2349
2016    11      4       0.3476215       82.14084
2016    11      5       0.2313484       59.42777
2016    11      6       0.2708086       67.70992
2016    11      7       0.3668117       86.08312
2016    12      0       0.4623031       103.0531
2016    12      1       0.4484219       100.5797
2016    12      2       0.4489358       100.6443
2016    12      3       0.5069443       109.855
2016    12      4       0.5630318       118.5302
2016    12      5       0.5230464       112.4068
2016    12      6       0.4579252       101.6194
2016    12      7       0.5125014       110.5178
2016    13      0       0.6434096       129.9526
2016    13      1       0.5331152       114.6072
2016    13      2       0.4523286       101.455
2016    13      3       0.3844987       89.26709
2016    13      4       0.3984143       90.71622
2016    13      5       0.4774964       104.6256
2016    13      6       0.4259287       96.2173
2016    13      7       0.6597731       131.9631
2016    14      0       0.8362242       155.174
2016    14      1       0.7570709       145.073
2016    14      2       1.031333        174.9834
2016    14      3       0.8624593       158.6711
2016    14      4       0.6608939       134.1486
2016    14      5       0.6902492       137.308
2016    14      6       0.6513113       131.6621
2016    14      7       0.5690286       119.667
2016    15      0       0.5042072       109.4393
2016    15      1       0.4961505       107.9485
2016    15      2       0.4681209       103.4536
2016    15      3       0.4143033       94.58695
2016    15      4       0.3589179       84.86685
2016    15      5       0.2679495       67.5769
2016    15      6       0.2172198       57.14109
2016    15      7       0.1505524       42.03213
2016    16      0       0.1272602       36.2951
2016    16      1       0.1310597       37.19363
2016    16      2       0.1194167       34.32713
2016    16      3       0.183771        48.47095
2016    16      4       0.2436876       61.11167
2016    16      5       0.2207752       57.05125
2016    16      6       0.1984717       52.02638
2016    16      7       0.1794918       47.51082
2016    17      0       0.1840662       48.3205
2016    17      1       0.1860305       49.10909
2016    17      2       0.2596579       63.52519
2016    17      3       0.2872011       68.88036
2016    17      4       0.3171821       74.37984
2016    17      5       0.2537378       62.57044
2016    17      6       0.272496        65.95457
2016    17      7       0.3007087       71.03697
2016    18      0       0.2391766       59.55459
2016    18      1       0.2512799       61.943
2016    18      2       0.2507213       61.26602
2016    18      3       0.2379174       58.94188
2016    18      4       0.2985562       72.71409
2016    18      5       0.3008336       74.21593
2016    18      6       0.3070552       76.30726
2016    18      7       0.07525464      24.31688
2016    19      0       0.1397471       40.13531
2016    19      1       0.2186014       58.42958
2016    19      2       0.1181447       34.8746
2016    19      3       0.1262809       36.63073
2016    19      4       0.1211626       35.38433
2016    19      5       0.1181278       34.59363
2016    19      6       0.1291721       37.16076
2016    19      7       0.1564844       43.57977
2016    20      0       0.1810149       49.11908
2016    20      1       0.1910915       51.35565
2016    20      2       0.190105        51.12518
2016    20      3       0.1949526       52.22633
2016    20      4       0.1954761       52.3437
2016    20      5       0.1352467       38.38775
2016    20      6       0.08696147      26.73113
2016    20      7       0.7062442       139.393
2016    21      0       0.5960124       120.4821
2016    21      1       0.3892046       89.40784
2016    21      2       0.3960925       91.43226
2016    21      3       0.2379902       60.36314
2016    21      4       0.2176985       55.8886
2016    21      5       0.2188625       56.40796
2016    21      6       0.3586242       84.38254
2016    21      7       0.3993705       92.28236
2016    22      0       0.3722238       87.48511
2016    22      1       0.3772639       88.24791
2016    22      2       0.3873937       90.49603
2016    22      3       0.3869247       90.97019
2016    22      4       0.3832034       90.49009
2016    22      5       0.2987794       74.85807
2016    22      6       0.2721764       69.19916
2016    22      7       0.2477511       63.45106
2016    23      0       0.2829801       70.19328
2016    23      1       0.350732        83.03013
2016    23      2       0.4003825       92.99525
2016    23      3       0.4118707       95.47463
2016    23      4       0.3505005       84.42953
2016    23      5       0.2914754       72.99468
2016    23      6       0.2944061       73.9621
2016    23      7       0.368897        88.15165
2016    24      0       0.4951244       108.9972
2016    24      1       0.6393741       130.6685
2016    24      2       0.552553        117.4668
2016    24      3       0.5262693       113.0504
2016    24      4       0.5290951       112.0444
2016    24      5       0.4084667       91.90703
2016    24      6       0.3328173       80.17884
2016    24      7       0.2716154       68.7337
2016    25      0       0.2774948       70.05953
2016    25      1       0.2783236       70.12521
2016    25      2       0.2488994       64.03104
2016    25      3       0.2394723       61.8896
2016    25      4       0.2272383       59.15197
2016    25      5       0.2123481       55.83743
2016    25      6       0.2059192       54.40614
2016    25      7       0.2182157       57.13137
2016    26      0       0.1976355       52.66229
2016    26      1       0.1856151       49.97675
2016    26      2       0.1509781       41.99517
2016    26      3       0.1325497       37.60487
2016    26      4       0.1487753       41.29811
2016    26      5       0.1518555       42.07594
2016    26      6       0.1447206       40.45423
2016    26      7       0.1572684       43.4036
2016    27      0       0.1545845       42.86075
2016    27      1       0.1680709       45.91591
2016    27      2       0.1732735       46.99561
2016    27      3       0.1859211       49.83391
2016    27      4       0.1627579       44.62942
2016    27      5       0.1491794       41.68424
2016    27      6       0.1392545       39.436
2016    27      7       0.1125292       32.99484
2016    28      0       0.07579194      24.02569
2016    28      1       0.06768458      21.9133
2016    28      2       0.08671682      26.43622
2016    28      3       0.1162546       33.48764
2016    28      4       0.156636        43.09212
2016    28      5       0.2878277       71.56836
2016    28      6       0.3993241       92.80744
2016    28      7       0.4353484       99.38557
2016    29      0       0.5217164       114.4707
2016    29      1       0.5176817       113.8469
2016    29      2       0.56659         120.6452
2016    29      3       0.5770149       120.5166
2016    29      4       0.503487        110.2384
2016    29      5       0.5944652       123.8248
2016    29      6       0.4182497       95.97473
2016    29      7       0.3276859       79.9027
2017    1       0       0.07559044      23.57795
2017    1       1       0.08134747      25.01731
2017    1       2       0.09666347      28.7769
2017    1       3       0.1228337       34.98428
2017    1       4       0.1607209       43.53828
2017    1       5       0.1750676       46.75013
2017    1       6       0.2189345       56.24526
2017    1       7       0.2178945       56.09842
2017    2       0       0.1944198       51.03578
2017    2       1       0.1752956       46.6862
2017    2       2       0.1795505       47.52435
2017    2       3       0.3261462       77.83179
2017    2       4       1.11833         182.8908
2017    2       5       1.030306        174.6608
2017    2       6       0.4820887       105.3395
2017    2       7       0.321643        76.35561
2017    3       0       0.2720327       66.55279
2017    3       1       0.2832072       68.81647
2017    3       2       0.2815367       68.66498
2017    3       3       0.5426052       115.0473
2017    3       4       0.3593461       83.68538
2017    3       5       0.4238379       94.72351
2017    3       6       0.4002403       88.96073
2017    3       7       0.3979118       88.81795
2017    4       0       0.4512301       97.94673
2017    4       1       0.421483        93.33613
2017    4       2       0.3114589       73.46418
2017    4       3       0.3783768       86.14114
2017    4       4       0.6637202       132.1309
2017    4       5       0.5397238       114.745
2017    4       6       0.4024234       92.51844
2017    4       7       0.3274836       78.66822
2017    5       0       0.3306002       78.81794
2017    5       1       0.2866413       69.85306
2017    5       2       0.4472066       98.03493
2017    5       3       0.4132936       93.3617
2017    5       4       0.2840116       69.20038
2017    5       5       0.2186773       55.84246
2017    5       6       0.2177068       55.52955
2017    5       7       0.2417883       60.58043
2017    6       0       0.1881334       49.70908
2017    6       1       0.15603         42.68772
2017    6       2       0.1540662       42.02412
2017    6       3       0.1403296       39.20439
2017    6       4       0.1526315       42.06297
2017    6       5       0.1414926       39.48189
2017    6       6       0.1293122       36.4183
2017    6       7       0.1489952       40.9634
2017    7       0       0.1773264       47.46087
2017    7       1       0.2192664       56.52304
2017    7       2       0.2253141       57.46185
2017    7       3       0.2253703       57.17112
2017    7       4       0.2938178       70.24951
2017    7       5       0.4664818       99.64951
2017    7       6       0.3136802       74.55712
2017    7       7       0.2700294       66.20834
2017    8       0       0.257755        63.15587
2017    8       1       0.690449        133.6651
2017    8       2       0.6587801       131.055
2017    8       3       1.063228        177.3986
2017    8       4       0.7639287       145.31
2017    8       5       0.7105851       138.7131
2017    8       6       0.6164642       125.9797
2017    8       7       1.163164        186.2089
2017    9       0       0.5799276       120.7598
2017    9       1       0.335106        79.80322
2017    9       2       0.2858344       70.14056
2017    9       3       0.4439164       99.07379
2017    9       4       0.5640358       118.0669
2017    9       5       0.6372068       128.4373
2017    9       6       0.4750778       103.5839
2017    9       7       0.4283787       95.60557
2017    10      0       0.3967762       90.0526
2017    10      1       0.3908622       89.01338
2017    10      2       0.6459544       129.9156
2017    10      3       0.4996596       108.1028
2017    10      4       0.6441009       129.3823
2017    10      5       0.8450265       153.783
2017    10      6       0.9176278       161.4192
2017    10      7       0.8221259       150.3915
2017    11      0       0.4771624       103.2136
2017    11      1       0.4916863       105.5101
2017    11      2       0.4808167       103.6627
2017    11      3       0.5501541       114.1865
2017    11      4       0.9591903       165.2902
2017    11      5       0.8192418       150.3257
2017    11      6       0.6176802       125.2531
2017    11      7       0.4172134       93.74286
2017    12      0       0.3013966       72.41261
2017    12      1       0.1720611       45.97259
2017    12      2       0.1656603       44.74848
2017    12      3       0.1739674       46.51078
2017    12      4       0.1613186       43.52346
2017    12      5       0.1343307       37.38121
2017    12      6       0.1485821       40.55396
2017    12      7       0.1698891       45.23037
2017    13      0       0.1881571       49.11499
2017    13      1       0.2004531       51.71381
2017    13      2       0.2278351       57.70083
2017    13      3       0.2162213       55.47524
2017    13      4       0.1685274       45.30272
2017    13      5       0.1096321       31.62189
2017    13      6       0.08685679      25.81964
2017    13      7       0.2079633       53.11578
2017    14      0       0.1805189       47.06177
2017    14      1       0.1485074       39.68617
2017    14      2       0.1703565       44.37696
2017    14      3       0.08329262      25.25168
2017    14      4       0.06541666      20.90828
2017    14      5       0.09915419      28.95345
2017    14      6       0.08774928      26.11462
2017    14      7       0.05563617      18.24107
2017    15      0       0.051383        17.27873
2017    15      1       0.04960405      16.94773
2017    15      2       0.06993844      22.0266
2017    15      3       0.1391065       38.30392
2017    15      4       0.2153381       55.16405
2017    15      5       0.2162873       55.29509
2017    15      6       0.1960762       51.39277
2017    15      7       0.1549597       42.4264
2017    16      0       0.142135        39.6279
2017    16      1       0.1648878       44.7483
2017    16      2       0.09383799      28.29713
2017    16      3       0.06866653      22.12412
2017    16      4       0.04670383      16.42301
2017    16      5       0.04657152      16.3551
2017    16      6       0.05017652      17.161
2017    16      7       0.05210182      17.61487
2017    17      0       0.05625895      18.65172
2017    17      1       0.06301719      20.32235
2017    17      2       0.06276665      20.26019
2017    17      3       0.06454178      20.70165
2017    17      4       0.06803925      21.53483
2017    17      5       0.06344963      20.43077
2017    17      6       0.05804293      19.11678
2017    17      7       0.0567922       18.82225
2017    18      0       0.05603274      18.67941
2017    18      1       0.08048109      24.89251
2017    18      2       0.1455028       40.37147
2017    18      3       0.2126059       55.26836
2017    18      4       0.3296603       78.94833
2017    18      5       0.4129134       94.08866
2017    18      6       0.2184608       56.42468
2017    18      7       0.1765502       47.32431
2017    19      0       0.1778075       47.56509
2017    19      1       0.1969976       51.59991
2017    19      2       0.2440419       61.25397
2017    19      3       0.3137323       75.04547
2017    19      4       0.7633184       144.9398
2017    19      5       0.4664321       102.0434
2017    19      6       0.3392022       79.37804
2017    19      7       0.3316736       77.80212
2017    20      0       0.5178528       110.1819
2017    20      1       0.3855377       87.48619
2017    20      2       0.3857545       87.81673
2017    20      3       0.3607834       83.51513
2017    20      4       0.2891298       70.15487
2017    20      5       0.2486264       62.06288
2017    20      6       0.2129938       54.77721
2017    20      7       0.1743111       46.34814
2017    21      0       0.2748525       67.59949
2017    21      1       0.3428767       80.5614
2017    21      2       0.3200398       76.41467
2017    21      3       0.2371404       59.9483
2017    21      4       0.3175088       75.3173
2017    21      5       0.6164305       123.4207
2017    21      6       0.9209084       161.3001
2017    21      7       0.7478382       142.4823
2017    22      0       0.6216062       126.5362
2017    22      1       0.4067316       92.95152
2017    22      2       0.3097367       75.06992
2017    22      3       0.5925381       122.9126
2017    22      4       0.5563915       117.3313
2017    22      5       0.5055675       109.2501
2017    22      6       0.4038689       92.29297
2017    22      7       0.2784542       68.76929
2017    23      0       0.2039572       53.27495
2017    23      1       0.147417        40.63835
2017    23      2       0.1382482       38.54727
2017    23      3       0.1797318       47.90576
2017    23      4       0.2953651       72.32314
2017    23      5       0.1910249       50.2598
2017    23      6       0.1835714       48.80525
2017    23      7       0.2012359       52.87437
2017    24      0       0.1883537       49.99258
2017    24      1       0.140905        39.29168
2017    24      2       0.1769234       47.66591
2017    24      3       0.2205617       57.39468
2017    24      4       0.1868592       50.10325
2017    24      5       0.1664289       45.58079
2017    24      6       0.1611091       44.51384
2017    24      7       0.1499076       41.99909
2017    25      0       0.1383846       39.19907
2017    25      1       0.1563567       43.10249
2017    25      2       0.2177924       56.16234
2017    25      3       0.2565028       64.11177
2017    25      4       0.2576134       64.43886
2017    25      5       0.2744481       67.52194
2017    25      6       0.3872706       87.65586
2017    25      7       0.4115333       92.53902
2017    26      0       0.3573804       83.66518
2017    26      1       0.3355053       79.44958
2017    26      2       0.3645039       84.6573
2017    26      3       0.3885404       89.08033
2017    26      4       0.4728641       103.3898
2017    26      5       0.6771756       132.8588
2017    26      6       0.6877323       135.5951
2017    26      7       0.3951227       91.50719
2017    27      0       0.3378961       80.89974
2017    27      1       0.8890954       161.2248
2017    27      2       0.4732463       103.657
2017    27      3       0.4647284       101.8964
2017    27      4       0.7015308       135.7283
2017    27      5       0.5219983       112.1852
2017    27      6       0.607206        124.0921
2017    27      7       0.8537365       154.6246
2017    28      0       0.6703532       131.5548
2017    28      1       0.6539198       129.7324
2017    28      2       0.5445843       115.0081
2017    28      3       0.6264648       127.4453
2017    28      4       0.7636154       146.3347
2017    28      5       0.722935        141.6979
2017    28      6       0.5254738       113.276
2017    28      7       0.4380259       99.09098
2018    1       0       0.06830955      22.11502
2018    1       1       0.06974424      22.44516
2018    1       2       0.07291741      23.1807
2018    1       3       0.07390906      23.42549
2018    1       4       0.07703023      24.22077
2018    1       5       0.1005261       30.11368
2018    1       6       0.08938572      27.1661
2018    1       7       0.1074674       31.60503
2018    2       0       0.1265158       35.82062
2018    2       1       0.1346571       37.81496
2018    2       2       0.1749378       46.4217
2018    2       3       0.1851993       48.31009
2018    2       4       0.1795812       47.08362
2018    2       5       0.2871337       68.76999
2018    2       6       0.4676772       100.6552
2018    2       7       0.5596029       116.3244
2018    3       0       0.5511556       116.2887
2018    3       1       0.4683923       103.8217
2018    3       2       0.5321482       114.2147
2018    3       3       0.4793172       104.5006
2018    3       4       0.5432985       114.37
2018    3       5       0.5955109       123.5446
2018    3       6       0.3818943       86.39156
2018    3       7       0.351528        81.63534
2018    4       0       0.2706636       66.51677
2018    4       1       0.3201783       75.30987
2018    4       2       0.3744078       84.49733
2018    4       3       0.3296329       77.83441
2018    4       4       0.3934636       89.78566
2018    4       5       0.5125883       110.024
2018    4       6       0.4537947       101.9585
2018    4       7       0.2477608       63.69252
2018    5       0       0.1951504       52.54641
2018    5       1       0.2162393       57.19764
2018    5       2       0.2392148       61.91038
2018    5       3       0.2201806       57.70642
2018    5       4       0.1914811       51.50355
2018    5       5       0.1642088       45.44385
2018    5       6       0.1216565       35.35686
2018    5       7       0.08765421      26.6647
2018    6       0       0.1033006       30.5632
2018    6       1       0.174655        47.50794
2018    6       2       0.2785015       69.97562
2018    6       3       0.2874418       72.04089
2018    6       4       0.1939858       52.34664
2018    6       5       0.173637        47.73271
2018    6       6       0.3288926       79.97842
2018    6       7       0.4865952       107.8468
2018    7       0       0.4857841       107.2421
2018    7       1       0.4517754       102.0628
2018    7       2       0.677927        136.9402
2018    7       3       0.4967527       110.0716
2018    7       4       0.3107447       75.34452
2018    7       5       0.8784741       160.104
2018    7       6       0.7626789       148.0273
2018    7       7       0.5646656       121.3228
2018    8       0       0.3722084       89.14908
2018    8       1       0.3369302       82.22945
2018    8       2       0.1706141       46.70731
2018    8       3       0.138928        38.25311
2018    8       4       0.1787863       46.0704
2018    8       5       0.204988        51.68118
2018    8       6       0.2754323       66.4077
2018    8       7       0.3676667       84.62736
2018    9       0       0.3912724       89.25216
2018    9       1       0.5698909       117.7099
2018    9       2       0.7932822       148.0884
2018    9       3       0.8482964       155.3546
2018    9       4       0.8229017       152.2714
2018    9       5       0.7834912       147.465
2018    9       6       0.7860305       147.164
2018    9       7       0.727726        140.21
2018    10      0       0.6489327       129.5814
2018    10      1       0.5618026       116.9152
2018    10      2       0.5635711       116.4148
2018    10      3       0.5279154       112.1576
2018    10      4       0.4705678       104.2338
2018    10      5       0.2949227       73.3247
2018    10      6       0.04926059      17.36852
2018    10      7       0.1213394       35.48875
2018    11      0       0.1204921       35.17353
2018    11      1       0.1028973       30.80479
2018    11      2       0.1029469       30.7118
2018    11      3       0.08666378      26.59318
2018    11      4       0.07957298      24.72859
2018    11      5       0.07620006      23.86168
2018    11      6       0.07783171      24.1845
2018    11      7       0.09107772      27.37877
2018    12      0       0.199053        52.07406
2018    12      1       0.2807337       68.86148
2018    12      2       0.2593468       64.35932
2018    12      3       0.4534286       99.02266
2018    12      4       0.5571705       114.4033
2018    12      5       0.7059284       135.0333
2018    12      6       0.4333351       94.85396
2018    12      7       0.1977928       51.10728
2018    13      0       0.1740099       46.30979
2018    13      1       0.1702109       45.43144
2018    13      2       0.124169        34.76609
2018    13      3       0.3291195       78.0798
2018    13      4       0.4476061       99.96704
2018    13      5       0.4249747       95.97048
2018    13      6       0.511323        110.2491
2018    13      7       0.4208512       95.0683
2018    14      0       0.2431962       61.34682
2018    14      1       0.5140663       109.5009
2018    14      2       0.6815663       135.1166
2018    14      3       0.08425725      25.77769
2018    14      4       0.0676635       21.52836
2018    14      5       0.06675594      21.07985
2018    14      6       0.0862041       25.51285
2018    14      7       0.1358061       36.5767
2018    15      0       0.4045176       90.54685
2018    15      1       0.4602366       98.89116
2018    15      2       0.7250774       137.3569
2018    15      3       0.8604238       153.3053
2018    15      4       0.4936782       105.2254
2018    15      5       0.3856907       86.51634
2018    15      6       0.5917932       119.4815
2018    15      7       0.6810756       132.2246
2018    16      0       0.8873122       156.2555
2018    16      1       0.5049988       105.3999
2018    16      2       0.7931439       146.7879
2018    16      3       0.5208125       109.6271
2018    16      4       0.7572641       141.8342
2018    16      5       1.760504        221.9276
2018    16      6       1.518339        210.1743
2018    16      7       0.9471695       165.8849
2018    17      0       0.4777538       104.4813
2018    17      1       0.4456658       99.50068
2018    17      2       0.3853012       89.30656
2018    17      3       0.3116497       75.59172
2018    17      4       0.1896399       50.29841
2018    17      5       0.1324834       37.10471
2018    17      6       0.1275463       35.90372
2018    17      7       0.1279531       36.23014
2018    18      0       0.1204164       34.52224
2018    18      1       0.1659966       45.24645
2018    18      2       0.1925146       51.13471
2018    18      3       0.209783        54.49534
2018    18      4       0.2260731       57.41584
2018    18      5       0.2119567       53.77702
2018    18      6       0.1882581       48.72624
2018    18      7       0.1608221       42.56645
2018    19      0       0.2582609       61.85029
2018    19      1       0.348865        80.26011
2018    19      2       0.4502764       98.54904
2018    19      3       0.4984809       107.4502
2018    19      4       0.5685374       118.4355
2018    19      5       0.8202123       151.9974
2018    19      6       0.6976755       136.5859
2018    19      7       0.6000838       123.2371
2018    20      0       0.5643883       117.4572
2018    20      1       0.7603721       143.3874
2018    20      2       1.249833        192.6749
2018    20      3       0.8648376       155.5991
2018    20      4       0.8239903       150.8594
2018    20      5       1.066556        176.9664
2018    20      6       0.6774612       133.1798
2018    20      7       0.7404906       141.1039
2018    21      0       0.9675683       166.3036
2018    21      1       0.7611095       142.7003
2018    21      2       0.7938524       146.7336
2018    21      3       0.9199215       158.7193
2018    21      4       1.031888        169.6948
2018    21      5       0.9309505       160.7654
2018    21      6       0.7390322       140.8541
2018    21      7       0.6735934       133.6555
2018    22      0       0.2998763       72.47081
2018    22      1       0.3272528       78.01138
2018    22      2       0.2820771       69.15734
2018    22      3       0.5651598       118.1639
2018    22      4       0.5946083       122.2795
2018    22      5       0.5214981       110.6634
2018    22      6       0.3922012       88.95113
2018    22      7       0.3186028       75.4842
2018    23      0       0.30994         73.98838
2018    23      1       0.3492589       80.94158
2018    23      2       0.6399341       128.4379
2018    23      3       0.6971566       135.8822
2018    23      4       0.5908956       120.7039
2018    23      5       0.6556063       130.3303
2018    23      6       0.4649214       102.4051
2018    23      7       0.3196502       76.19699
2018    24      0       0.5378047       113.6392
2018    24      1       0.6265856       125.7977
2018    24      2       0.7766658       145.3825
2018    24      3       0.7251587       140.7352
2018    24      4       0.1522559       41.94808
2018    24      5       0.4506218       100.2216
2018    24      6       0.3229285       77.14813
2018    24      7       0.143375        39.44192
2018    25      0       0.117757        33.12703
2018    25      1       0.1259661       34.92944
2018    25      2       0.1307804       35.70998
2018    25      3       0.2252305       55.85114
2018    25      4       0.4277036       93.6671
2018    25      5       0.8814673       156.8438
2018    25      6       0.9186092       160.5106
2018    25      7       0.9054891       159.797
2018    26      0       0.8168183       151.8629
2018    26      1       0.4188165       95.25414
2018    26      2       0.3747876       87.40873
2018    26      3       0.6271149       127.3737
2018    26      4       0.4056111       92.41174
2018    26      5       0.2901842       71.06773
2018    26      6       0.4475701       99.7181
2018    26      7       0.5114845       110.2938
2018    27      0       0.4591174       102.0608
2018    27      1       0.5789084       121.0347
2018    27      2       0.4418064       98.97533
2018    27      3       0.5974639       123.5323
2018    27      4       0.3694363       86.29692
2018    27      5       0.5316101       113.4721
2018    27      6       0.2103286       54.02394
2018    27      7       0.7486852       141.7454
2018    28      0       0.7069658       138.4071
2018    28      1       0.5676771       118.7851
2018    28      2       0.6723794       132.835
2018    28      3       0.5952453       122.6644
2018    28      4       0.4376059       98.33178
2018    28      5       0.2745272       67.46339
2018    28      6       0.3364539       79.88028
2018    28      7       0.4102466       93.52706
