####################################################################################################
# Month: 05May                                                                                     #
# Station: SGO                                                                                     #
# Frequency: 230 GHz                                                                               #
# Columns are: year    day     tau     Tb (K)                                                      #
####################################################################################################
2009    1       0.06884623      21.59324875
2009    2       0.12275203      34.63415875
2009    3       0.13442         37.63733125
2009    4       0.09177056      26.3486075
2009    5       0.13150554      36.2566675
2009    6       0.09115184      26.91633375
2009    7       0.19469192      49.96751125
2009    8       0.159861        42.55586375
2009    9       0.14646503      39.23362375
2009    10      0.2844649       68.261465
2009    11      0.41814511      93.59694375
2009    12      0.3736869       85.2661625
2009    13      0.28353165      67.049715
2009    14      0.16290126      42.5361925
2009    15      0.21596504      55.12218875
2009    16      0.19375208      49.39726375
2009    17      0.21622586      54.5554975
2009    18      0.06343375      20.166425
2009    19      0.08587872      25.77344625
2009    20      0.07041574      22.2163075
2009    21      0.13986796      38.55809125
2009    22      0.0721566       22.73764625
2009    23      0.0624059       20.0913275
2009    24      0.19063459      48.79799875
2009    25      0.20567956      51.65733
2009    26      0.05921471      19.09958875
2009    27      0.0794085       23.28968125
2009    28      0.24100735      58.8348725
2009    29      0.26906951      63.69749
2009    30      0.21016421      52.7200875
2009    31      0.1384737       37.691865
2010    1       0.14375085      38.52999875
2010    2       0.27043731      65.07426125
2010    3       0.17502112      46.01547625
2010    4       0.14037066      38.39725625
2010    5       0.16484099      42.99561625
2010    6       0.13060228      34.74629625
2010    7       0.06719897      21.3245925
2010    8       0.05441139      18.4206475
2010    9       0.0330021       12.93098125
2010    10      0.03001218      12.14075
2010    11      0.03900945      14.32924125
2010    12      0.14050558      37.40434375
2010    13      0.2422178       59.33568125
2010    14      0.20773962      51.81224125
2010    15      0.19916282      50.210225
2010    16      0.11685347      32.55902625
2010    17      0.06173429      19.6627225
2010    18      0.15998544      42.94073125
2010    19      0.10275231      29.77364875
2010    20      0.09440421      27.72494875
2010    21      0.14953098      40.00453875
2010    22      0.14134022      37.988765
2010    23      0.04127893      14.753783
2010    24      0.1378096       37.441805
2010    25      0.11454725      32.1152525
2010    26      0.13603912      36.81039875
2010    27      0.08674253      26.00296125
2010    28      0.12691405      34.87589875
2010    29      0.21669458      53.55595625
2010    30      0.05873103      18.9489375
2010    31      0.04424626      15.52595875
2011    1       0.03730902      13.994245
2011    2       0.04294494      15.25318125
2011    3       0.05474258      18.35351125
2011    4       0.10638938      30.74688875
2011    5       0.08214324      25.313245
2011    6       0.05037357      17.2096125
2011    7       0.06684757      21.31893625
2011    8       0.04192647      15.07012125
2011    9       0.04932056      17.00306375
2011    10      0.04585328      16.1508
2011    11      0.23039159      56.9612475
2011    12      0.17990923      46.60419625
2011    13      0.05018179      17.3424825
2011    14      0.04391219      15.52208375
2011    15      0.05827721      19.0688025
2011    16      0.04521053      15.88771875
2011    17      0.06371444      20.24477875
2011    18      0.14348105      38.78962375
2011    19      0.12860062      35.18381375
2011    20      0.08340555      24.6268775
2011    21      0.09703902      28.07646625
2011    22      0.04743941      16.3429
2011    23      0.04589243      16.04372875
2011    24      0.10220931      29.003445
2011    25      0.08068102      24.5598375
2011    26      0.07079648      22.1917
2011    27      0.05029451      17.11286
2011    28      0.08345585      24.6166525
2011    29      0.07306633      22.4145225
2011    30      0.06691416      21.06724625
2011    31      0.05035075      17.18025125
2012    1       0.06371707      20.291725
2012    2       0.05371968      18.08047625
2012    3       0.05279996      17.691385
2012    4       0.09314641      27.34018875
2012    5       0.18654472      48.50629625
2012    6       0.15458516      41.81912125
2012    7       0.04184156      15.20462875
2012    8       0.09060343      26.417065
2012    9       0.09240011      27.3642325
2012    10      0.13608336      35.97193375
2012    11      0.2814658       66.01824125
2012    12      0.1602379       42.371825
2012    13      0.21851421      54.4773825
2012    14      0.10382437      29.88655375
2012    15      0.08448055      25.4141075
2012    16      0.0912768       26.56185125
2012    17      0.24654724      59.53138
2012    18      0.06848224      20.56155975
2012    19      0.17304724      45.1410825
2012    20      0.140314        38.328745
2012    21      0.13325765      36.43898125
2012    22      0.15066515      40.078745
2012    23      0.07799661      23.71028125
2012    24      0.06957603      21.25372625
2012    25      0.19271792      48.19246625
2012    26      0.33464492      76.50583625
2012    27      0.38199998      85.82921625
2012    28      0.21005408      53.187295
2012    29      0.12966517      35.97262125
2012    30      0.15309888      40.5665375
2012    31      0.26063924      63.63389375
2013    1       0.09912349      28.76602875
2013    2       0.1937456       48.37535
2013    3       0.17731166      45.34466375
2013    4       0.07790904      23.671445
2013    5       0.06336883      20.4787925
2013    6       0.05936796      19.3595675
2013    7       0.11367392      32.69714
2013    8       0.11572875      33.364925
2013    9       0.08143524      24.539215
2013    10      0.12712593      34.258555
2013    11      0.04472548      15.7147075
2013    12      0.12778305      34.54215375
2013    13      0.17770203      44.7071975
2013    14      0.04145019      14.71404625
2013    15      0.02545298      10.68073688
2013    16      0.05247654      17.550188
2013    17      0.09050406      26.5037075
2013    18      0.34718171      78.47548375
2013    19      0.0898694       26.2997125
2013    20      0.04974884      16.93802
2013    21      0.07126948      21.78769875
2013    22      0.12947847      35.17828375
2013    23      0.07393935      22.82132875
2013    24      0.0797562       24.6479325
2013    25      0.05701032      18.96189375
2013    26      0.08305179      24.7838275
2013    27      0.26198498      62.183205
2013    28      0.2144574       52.753135
2013    29      0.09604722      27.604865
2013    30      0.18272339      47.42922375
2013    31      0.19666002      49.0215575
2014    1       0.37267028      83.2517625
2014    2       0.35224615      80.160695
2014    3       0.24616622      58.6637675
2014    4       0.06525632      20.69798125
2014    5       0.22982331      56.6656925
2014    6       0.30008404      71.379135
2014    7       0.16262739      43.67363875
2014    8       0.08088407      24.58491625
2014    9       0.12435854      34.850875
2014    10      0.16791385      44.49891
2014    11      0.15409636      41.3190575
2014    12      0.06779933      21.44196
2014    13      0.15428724      40.883955
2014    14      0.21512351      53.442115
2014    15      0.1699884       44.3241475
2014    16      0.10924524      30.21703875
2014    17      0.12766201      34.9811175
2014    18      0.12130409      33.35756
2014    19      0.08114015      24.38469625
2014    20      0.10016023      28.71419
2014    21      0.1766236       44.3781075
2014    22      0.09889623      28.0904
2014    23      0.03318732      12.812655
2014    24      0.03768908      14.11386125
2014    25      0.07620249      23.28547375
2014    26      0.05350044      17.92831625
2014    27      0.04273019      15.22911
2014    28      0.06045833      19.63575125
2014    29      0.15852591      41.91322125
2014    30      0.04577392      15.99308
2014    31      0.05815608      18.82869375
2015    1       0.1113356       30.88112
2015    2       0.11696661      31.47534125
2015    3       0.06944912      21.67635
2015    4       0.06202165      20.01867875
2015    5       0.05355919      17.94512625
2015    6       0.058596        19.295335
2015    7       0.18575228      47.291695
2015    8       0.15858941      41.94978125
2015    9       0.08061755      24.3220525
2015    10      0.06763247      21.35123375
2015    11      0.14098538      38.0639
2015    12      0.1510189       40.86063625
2015    13      0.10104913      29.1341425
2015    14      0.09973545      29.14202375
2015    15      0.20081718      50.67212625
2015    16      0.08382128      25.55542875
2015    17      0.05934542      19.6940875
2015    18      0.05623009      18.6559025
2015    19      0.0838657       25.1013175
2015    20      0.04209917      15.2399225
2015    21      0.05331777      18.0019325
2015    22      0.0745117       22.7986475
2015    23      0.05552923      18.27031375
2015    24      0.03978528      14.46515125
2015    25      0.04888574      16.6146225
2015    26      0.06162068      19.64588625
2015    27      0.05387071      17.95106375
2015    28      0.08782641      25.87226375
2015    29      0.13383889      35.03882875
2015    30      0.06568596      20.61517375
2015    31      0.09404873      27.15283375
2016    1       0.27799931      66.31604125
2016    2       0.37354506      84.06903
2016    3       0.28654961      69.321715
2016    4       0.13175314      36.09004125
2016    5       0.22671831      55.97967375
2016    6       0.07986611      24.18904625
2016    7       0.14491549      38.83535125
2016    8       0.1120994       31.5044775
2016    9       0.19418556      48.78549
2016    10      0.2060772       51.59453125
2016    11      0.27716411      65.59296
2016    12      0.13301962      35.59540375
2016    13      0.19085119      48.119675
2016    14      0.18598601      46.9893925
2016    15      0.13376305      35.75704625
2016    16      0.15943071      42.3088075
2016    17      0.21706113      53.791075
2016    18      0.09935306      28.73486
2016    19      0.1143793       32.19633875
2016    20      0.17986885      46.01322125
2016    21      0.20528701      50.7467075
2016    22      0.0419863       15.09172875
2016    23      0.19226181      48.83049625
2016    24      0.11443345      32.3926075
2016    25      0.07873646      23.7884075
2016    26      0.07521008      22.8052675
2016    27      0.22618802      56.059885
2016    28      0.14159844      37.61109125
2016    29      0.27267149      64.14983625
2016    30      0.10257524      29.2367575
2016    31      0.06226255      19.72753
2017    1       0.07788859      24.01666125
2017    2       0.08388959      25.14746125
2017    3       0.09298209      27.46370625
2017    4       0.09342769      27.5980825
2017    5       0.07774335      24.09269375
2017    6       0.08471983      25.50570875
2017    7       0.17907355      46.00642375
2017    8       0.12734508      34.59661875
2017    9       0.1550002       40.4541175
2017    10      0.17456915      44.96062
2017    11      0.27207198      64.6500775
2017    12      0.31944834      73.7464475
2017    13      0.23175079      57.3910975
2017    14      0.18783402      47.97943
2017    15      0.05619816      18.53593375
2017    16      0.0875282       26.1879675
2017    17      0.11269496      31.6619075
2017    18      0.24301845      58.2650775
2017    19      0.15095776      39.54060875
2017    20      0.05143237      17.2906425
2017    21      0.18822416      48.06497625
2017    22      0.11845916      32.82629375
2017    23      0.27761845      65.28591125
2017    24      0.32191101      73.66656625
2017    25      0.28379822      66.5714625
2017    26      0.22412381      55.00747625
2017    27      0.15235926      40.2108925
2017    28      0.06669314      20.77015125
2017    29      0.14423328      38.3297275
2017    30      0.15223063      39.96975
2017    31      0.0679059       21.536485
2018    1       0.08820644      26.34843625
2018    2       0.11096331      31.62607125
2018    3       0.16402035      43.4003675
2018    4       0.16070142      43.14089375
2018    5       0.09261849      27.9174725
2018    6       0.09847497      28.79801
2018    7       0.15153142      40.68892
2018    8       0.20873859      52.6652
2018    9       0.18601678      47.30524625
2018    10      0.22582866      55.5232775
2018    11      0.11900183      33.8044675
2018    12      0.07154804      22.60768625
2018    13      0.20241495      50.83711375
2018    14      0.16615926      42.56996125
2018    15      0.24965224      59.399295
2018    16      0.38042622      85.89118375
2018    17      0.17262861      44.21563875
2018    18      0.04394901      15.52831375
2018    19      0.09910747      28.6879425
2018    20      0.08122098      24.51253875
2018    21      0.17566852      44.742295
2018    22      0.10879653      31.07969125
2018    23      0.0875169       26.339505
2018    24      0.05551154      18.46885625
2018    25      0.03935792      14.42621875
2018    26      0.05082866      17.1831975
2018    27      0.08766235      26.18998125
2018    28      0.20497221      51.09542
2018    29      0.33736151      77.42255125
2018    30      0.31005012      72.06633375
2018    31      0.07841249      23.85091
