####################################################################################################
# Month: 10Oct                                                                                     #
# Station: FAIR                                                                                    #
# Frequency: 230 GHz                                                                               #
# Columns are: year    day     segment         tau     Tb (K)                                      #
####################################################################################################
2009    1       0       0.4447739       96.89248
2009    1       1       0.4471692       97.07281
2009    1       2       0.4410581       96.04782
2009    1       3       0.4316191       94.49083
2009    1       4       0.4629717       99.56878
2009    1       5       0.374576        84.28424
2009    1       6       0.3163147       73.58516
2009    1       7       0.3355144       77.0096
2009    2       0       0.6396742       124.9694
2009    2       1       0.4947998       103.6862
2009    2       2       0.49553         103.7831
2009    2       3       0.4884639       102.9433
2009    2       4       0.3533091       80.44138
2009    2       5       0.3344609       77.07269
2009    2       6       0.2645987       63.99701
2009    2       7       0.3274798       76.11484
2009    3       0       0.2792747       67.27166
2009    3       1       0.2779902       66.96695
2009    3       2       0.2780893       67.0201
2009    3       3       0.3528567       80.79318
2009    3       4       0.3768934       84.96549
2009    3       5       0.4713773       100.5737
2009    3       6       0.5069511       106.6596
2009    3       7       0.5015317       105.8267
2009    4       0       0.4877636       103.5877
2009    4       1       0.451316        98.01812
2009    4       2       0.4242029       93.89797
2009    4       3       0.4202603       93.22833
2009    4       4       0.4286245       94.6015
2009    4       5       0.4479452       97.97673
2009    4       6       0.4383588       96.41424
2009    4       7       0.4427533       96.93217
2009    5       0       0.4769637       102.0611
2009    5       1       0.4478136       97.75981
2009    5       2       0.465394        100.5683
2009    5       3       0.4487275       97.63471
2009    5       4       0.2995054       72.03482
2009    5       5       0.3913106       88.12794
2009    5       6       0.4078913       90.89654
2009    5       7       0.4137028       91.63315
2009    6       0       0.6089269       121.7116
2009    6       1       0.6803652       131.4067
2009    6       2       0.5968605       119.6741
2009    6       3       0.4829422       102.6477
2009    6       4       0.646144        126.4562
2009    6       5       0.7252399       136.5167
2009    6       6       0.6354997       124.8298
2009    6       7       0.4316132       94.31608
2009    7       0       0.4415217       96.066
2009    7       1       0.3419842       79.02466
2009    7       2       0.2418007       60.10764
2009    7       3       0.2276463       57.20816
2009    7       4       0.2083559       53.10298
2009    7       5       0.3009517       70.80276
2009    7       6       0.3679939       83.28914
2009    7       7       0.3771351       85.4709
2009    8       0       0.3649966       83.77657
2009    8       1       0.6179877       124.8503
2009    8       2       0.5341722       111.8086
2009    8       3       0.6930751       134.3883
2009    8       4       0.9087858       160.3004
2009    8       5       0.9491341       165.2278
2009    8       6       1.039655        174.0067
2009    8       7       0.8415115       154.8151
2009    9       0       0.8352351       154.5989
2009    9       1       1.009664        173.0528
2009    9       2       1.110597        182.8003
2009    9       3       0.9585094       168.5338
2009    9       4       0.9079601       164.084
2009    9       5       0.8425274       156.9835
2009    9       6       0.69982         139.5218
2009    9       7       0.6262977       129.4185
2009    10      0       0.6215423       128.7092
2009    10      1       0.6324396       130.4248
2009    10      2       0.6620729       134.5342
2009    10      3       0.6762863       136.759
2009    10      4       0.7172602       142.1589
2009    10      5       0.7614481       147.8834
2009    10      6       0.7288458       144.0562
2009    10      7       0.865843        160.5751
2009    11      0       0.8665536       160.6019
2009    11      1       0.8241299       155.9082
2009    11      2       0.8294385       156.7969
2009    11      3       0.8568264       160.1317
2009    11      4       0.910959        166.1894
2009    11      5       0.9973138       175.126
2009    11      6       0.9746927       172.684
2009    11      7       0.9480758       169.9473
2009    12      0       0.9090807       165.8549
2009    12      1       0.86762         161.3271
2009    12      2       0.8287012       156.9291
2009    12      3       0.7694938       149.7368
2009    12      4       0.7249435       144.187
2009    12      5       0.710052        142.2341
2009    12      6       0.6603566       135.0972
2009    12      7       0.5748559       122.4815
2009    13      0       0.5569561       119.8333
2009    13      1       0.5471942       118.3497
2009    13      2       0.6023666       126.6896
2009    13      3       0.6175233       128.7369
2009    13      4       0.6255664       129.6654
2009    13      5       0.6434047       131.9995
2009    13      6       0.6576047       133.684
2009    13      7       0.6685141       134.922
2009    14      0       0.6418569       131.0014
2009    14      1       0.5638783       118.9998
2009    14      2       0.4051648       92.30105
2009    14      3       0.2978252       71.62938
2009    14      4       0.2930592       70.60447
2009    14      5       0.2904802       70.11193
2009    14      6       0.28622         69.49876
2009    14      7       0.2773565       67.81373
2009    15      0       0.2182616       55.63583
2009    15      1       0.1543916       41.7903
2009    15      2       0.1543308       42.04963
2009    15      3       0.1410267       39.16835
2009    15      4       0.1107641       32.07962
2009    15      5       0.1115621       32.43023
2009    15      6       0.1355551       38.12806
2009    15      7       0.1517468       41.91331
2009    16      0       0.1815487       48.28788
2009    16      1       0.1669907       45.30636
2009    16      2       0.1671089       45.02722
2009    16      3       0.2043928       52.77817
2009    16      4       0.2188011       55.42442
2009    16      5       0.2256239       56.77305
2009    16      6       0.2437304       60.25279
2009    16      7       0.2658583       64.60806
2009    17      0       0.2918153       69.59053
2009    17      1       0.2972011       70.55264
2009    17      2       0.3028701       71.62567
2009    17      3       0.3145814       73.81005
2009    17      4       0.3179982       74.39615
2009    17      5       0.2805922       67.2434
2009    17      6       0.2671843       64.74468
2009    17      7       0.264763        64.29673
2009    18      0       0.2961708       70.33888
2009    18      1       0.2939358       69.992
2009    18      2       0.2839823       68.24184
2009    18      3       0.287216        68.96515
2009    18      4       0.3035536       72.18552
2009    18      5       0.3005163       71.65714
2009    18      6       0.2917674       69.96368
2009    18      7       0.3014047       71.7655
2009    19      0       0.3098217       73.30247
2009    19      1       0.3069199       72.6816
2009    19      2       0.3106235       73.20731
2009    19      3       0.3059162       72.24464
2009    19      4       0.2742097       66.09556
2009    19      5       0.2868763       68.59551
2009    19      6       0.3068185       72.41074
2009    19      7       0.3129226       73.57675
2009    20      0       0.3197694       74.96239
2009    20      1       0.3150293       73.92196
2009    20      2       0.3504179       80.08849
2009    20      3       0.5370656       110.0218
2009    20      4       0.6420367       125.0798
2009    20      5       0.6851345       131.0904
2009    20      6       0.6368297       124.853
2009    20      7       0.524892        108.9881
2009    21      0       0.5546604       113.1677
2009    21      1       0.468622        100.0501
2009    21      2       0.3353157       77.38974
2009    21      3       0.2797937       67.12572
2009    21      4       0.2870673       68.75744
2009    21      5       0.3220923       75.43462
2009    21      6       0.3565694       81.7695
2009    21      7       0.4288585       94.46239
2009    22      0       0.453436        98.55929
2009    22      1       0.4723152       101.602
2009    22      2       0.580165        118.1521
2009    22      3       0.5650533       116.7072
2009    22      4       0.5097483       108.6542
2009    22      5       0.4606689       100.6425
2009    22      6       0.4039587       91.00528
2009    22      7       0.4748607       103.1235
2009    23      0       0.5121781       109.215
2009    23      1       0.4952595       106.5774
2009    23      2       0.410074        92.61546
2009    23      3       0.3882831       88.90216
2009    23      4       0.3844958       88.02533
2009    23      5       0.5702731       118.2488
2009    23      6       0.6684626       131.5261
2009    23      7       0.5604076       115.6498
2009    24      0       0.3894143       88.40249
2009    24      1       0.3385747       79.25511
2009    24      2       0.3440147       80.1341
2009    24      3       0.3479642       80.72849
2009    24      4       0.3315719       77.6529
2009    24      5       0.3116435       73.97032
2009    24      6       0.3325324       77.85933
2009    24      7       0.3412597       79.43589
2009    25      0       0.3348208       78.02738
2009    25      1       0.2958228       70.57231
2009    25      2       0.3101781       73.4097
2009    25      3       0.3088915       73.43162
2009    25      4       0.2628586       64.44843
2009    25      5       0.2435537       60.43486
2009    25      6       0.249228        61.4556
2009    25      7       0.2563669       62.8013
2009    26      0       0.2733666       66.09438
2009    26      1       0.3231491       75.63195
2009    26      2       0.4235812       93.20664
2009    26      3       0.4979407       105.0567
2009    26      4       0.5211101       108.5304
2009    26      5       0.5585578       113.9898
2009    26      6       0.6550445       127.3147
2009    26      7       0.6927098       132.3905
2009    27      0       0.7048067       134.3161
2009    27      1       0.6828475       131.2425
2009    27      2       0.5805593       116.9678
2009    27      3       0.5029787       105.336
2009    27      4       0.483248        102.0248
2009    27      5       0.4759826       100.7738
2009    27      6       0.5156284       106.9462
2009    27      7       0.5258742       108.4887
2009    28      0       0.4875024       102.5344
2009    28      1       0.4607841       98.38441
2009    28      2       0.4965828       104.109
2009    28      3       0.4643206       98.8054
2009    28      4       0.419433        91.32993
2009    28      5       0.3882191       85.9385
2009    28      6       0.3792018       84.18593
2009    28      7       0.3975907       87.2992
2009    29      0       0.2951775       68.94846
2009    29      1       0.2880804       67.58298
2009    29      2       0.2771072       65.50431
2009    29      3       0.3541596       79.73514
2009    29      4       0.425862        91.91463
2009    29      5       0.4717141       99.27956
2009    29      6       0.420482        90.94972
2009    29      7       0.2795852       65.85797
2009    30      0       0.2309885       56.45589
2009    30      1       0.228059        55.88088
2009    30      2       0.2201068       54.20747
2009    30      3       0.2090317       51.85268
2009    30      4       0.1976168       49.47535
2009    30      5       0.1910008       48.0887
2009    30      6       0.1896629       47.77223
2009    30      7       0.1981568       49.52508
2009    31      0       0.191265        48.04579
2009    31      1       0.1823802       46.17988
2009    31      2       0.1827813       46.24364
2009    31      3       0.1825748       46.21215
2009    31      4       0.1831968       46.37531
2009    31      5       0.1864635       47.03082
2009    31      6       0.1820461       46.15483
2009    31      7       0.1732316       44.33024
2010    1       0       0.5354166       112.3401
2010    1       1       0.5448111       114.0159
2010    1       2       0.6664507       130.6747
2010    1       3       0.6720915       131.7404
2010    1       4       0.7928337       148.0734
2010    1       5       0.9118995       162.2414
2010    1       6       1.002367        171.9909
2010    1       7       0.9395233       165.4733
2010    2       0       0.8988446       161.097
2010    2       1       0.8817396       158.2985
2010    2       2       0.9835287       168.3168
2010    2       3       0.5312237       112.9271
2010    2       4       0.404872        91.74269
2010    2       5       0.6932286       134.771
2010    2       6       0.5025494       107.3958
2010    2       7       0.4445166       98.0165
2010    3       0       0.4440587       98.15815
2010    3       1       0.4780487       103.7306
2010    3       2       0.4804889       104.0748
2010    3       3       0.4596631       100.7911
2010    3       4       0.4329419       96.44931
2010    3       5       0.3863974       88.33434
2010    3       6       0.3546544       82.6046
2010    3       7       0.3153414       75.12212
2010    4       0       0.2537459       62.47164
2010    4       1       0.3419245       78.9479
2010    4       2       0.5115197       107.7694
2010    4       3       0.6013945       121.2815
2010    4       4       0.4843674       103.4014
2010    4       5       0.52542         108.9568
2010    4       6       0.4622104       98.96847
2010    4       7       0.3890752       86.99055
2010    5       0       0.3506306       80.52539
2010    5       1       0.3735459       84.908
2010    5       2       0.4006549       89.63246
2010    5       3       0.4272132       94.11943
2010    5       4       0.3891297       87.80873
2010    5       5       0.3500546       80.91151
2010    5       6       0.3377512       78.58963
2010    5       7       0.4085427       91.03325
2010    6       0       0.4830938       103.5267
2010    6       1       0.6349101       125.8645
2010    6       2       0.474261        101.764
2010    6       3       0.3992976       89.1786
2010    6       4       0.404058        89.83493
2010    6       5       0.4433941       95.97202
2010    6       6       0.5317371       109.9082
2010    6       7       0.5566161       114.4432
2010    7       0       0.623111        124.0954
2010    7       1       0.4820461       103.1054
2010    7       2       0.4203291       92.95415
2010    7       3       0.4911715       104.1973
2010    7       4       0.4799852       102.5674
2010    7       5       0.5122947       107.5453
2010    7       6       0.6151379       122.4005
2010    7       7       0.4670286       100.0784
2010    8       0       0.6708536       129.985
2010    8       1       0.5464243       112.3687
2010    8       2       0.6247739       123.5699
2010    8       3       0.6441263       126.1836
2010    8       4       0.5421202       111.5903
2010    8       5       0.4869837       102.9784
2010    8       6       0.448553        96.65555
2010    8       7       0.4184449       91.61172
2010    9       0       0.4001071       88.59528
2010    9       1       0.4140903       91.16441
2010    9       2       0.4545929       98.24406
2010    9       3       0.4160419       92.04242
2010    9       4       0.3515404       80.65426
2010    9       5       0.3570704       81.66464
2010    9       6       0.3602522       82.21004
2010    9       7       0.375482        84.89585
2010    10      0       0.4326019       94.66831
2010    10      1       0.4282145       93.82653
2010    10      2       0.2876964       68.54853
2010    10      3       0.2713059       65.33769
2010    10      4       0.3277682       75.68845
2010    10      5       0.3745385       83.79164
2010    10      6       0.3554121       80.55292
2010    10      7       0.37088         83.46903
2010    11      0       0.3499774       79.67119
2010    11      1       0.4179657       91.42755
2010    11      2       0.4534551       97.32035
2010    11      3       0.5124903       106.7754
2010    11      4       0.3737757       83.818
2010    11      5       0.3338616       76.83063
2010    11      6       0.3302119       76.38156
2010    11      7       0.3422643       78.52269
2010    12      0       0.3533552       80.44615
2010    12      1       0.3467632       79.29627
2010    12      2       0.3178345       74.10055
2010    12      3       0.3084871       72.35266
2010    12      4       0.3195493       74.2666
2010    12      5       0.3290727       75.92632
2010    12      6       0.3447464       78.82153
2010    12      7       0.3698942       83.34652
2010    13      0       0.5233475       108.3907
2010    13      1       0.491702        103.4426
2010    13      2       0.3547886       80.57596
2010    13      3       0.3156944       73.41132
2010    13      4       0.2877774       68.222
2010    13      5       0.2690386       64.59973
2010    13      6       0.2630434       63.42161
2010    13      7       0.2527785       61.48197
2010    14      0       0.2474099       60.38255
2010    14      1       0.2616455       63.21856
2010    14      2       0.2495799       60.84117
2010    14      3       0.2167559       54.21611
2010    14      4       0.205871        51.95699
2010    14      5       0.2104746       52.88456
2010    14      6       0.2169776       54.2217
2010    14      7       0.2292443       56.67814
2010    15      0       0.2481061       60.34654
2010    15      1       0.2857864       67.74864
2010    15      2       0.2131294       53.46338
2010    15      3       0.2068088       52.20903
2010    15      4       0.2024706       51.29765
2010    15      5       0.1961217       49.96199
2010    15      6       0.1993932       50.6503
2010    15      7       0.1963929       50.06311
2010    16      0       0.1871238       48.08742
2010    16      1       0.1602512       42.43548
2010    16      2       0.1705227       44.67877
2010    16      3       0.1838917       47.6084
2010    16      4       0.1999677       51.13844
2010    16      5       0.2022304       51.69193
2010    16      6       0.194847        50.1414
2010    16      7       0.1928143       49.73704
2010    17      0       0.1617771       43.1223
2010    17      1       0.1449534       39.43359
2010    17      2       0.1967544       50.68042
2010    17      3       0.3535445       81.12055
2010    17      4       0.4922916       103.9106
2010    17      5       0.495748        104.4592
2010    17      6       0.4932263       104.3497
2010    17      7       0.4074793       90.9996
2010    18      0       0.349936        80.95347
2010    18      1       0.298261        71.35212
2010    18      2       0.3416661       79.53042
2010    18      3       0.4868958       105.0191
2010    18      4       0.5357318       112.4867
2010    18      5       0.6193977       123.9374
2010    18      6       0.7105116       135.6333
2010    18      7       0.7682699       143.0078
2010    19      0       0.5948924       120.295
2010    19      1       0.5888894       119.4171
2010    19      2       0.551132        113.8386
2010    19      3       0.491198        104.5511
2010    19      4       0.4909341       104.3625
2010    19      5       0.611325        122.4156
2010    19      6       0.5817967       118.005
2010    19      7       0.4974315       105.3003
2010    20      0       0.4676339       100.9041
2010    20      1       0.4355231       95.60421
2010    20      2       0.4120327       91.4804
2010    20      3       0.3594641       82.25233
2010    20      4       0.3235886       75.52686
2010    20      5       0.3104486       72.96001
2010    20      6       0.3314201       76.7379
2010    20      7       0.335155        77.44424
2010    21      0       0.3343827       77.22619
2010    21      1       0.3400525       78.24838
2010    21      2       0.320913        74.88649
2010    21      3       0.2985269       70.7857
2010    21      4       0.2785138       66.88287
2010    21      5       0.2597415       63.10752
2010    21      6       0.237803        58.77525
2010    21      7       0.2193965       55.22234
2010    22      0       0.2017019       51.70182
2010    22      1       0.1900464       49.28577
2010    22      2       0.2032499       52.18061
2010    22      3       0.2247135       56.79671
2010    22      4       0.2036449       52.42311
2010    22      5       0.1831491       48.05893
2010    22      6       0.1614219       43.33583
2010    22      7       0.1321284       36.75642
2010    23      0       0.118856        33.66678
2010    23      1       0.09808383      28.74732
2010    23      2       0.09213683      27.22555
2010    23      3       0.102742        29.58267
2010    23      4       0.1437795       38.36723
2010    23      5       0.1827772       46.93529
2010    23      6       0.1865833       48.09662
2010    23      7       0.2139824       53.73966
2010    24      0       0.2423037       59.39815
2010    24      1       0.2373941       58.42422
2010    24      2       0.2205507       55.13301
2010    24      3       0.2133325       53.67176
2010    24      4       0.1826656       47.60986
2010    24      5       0.1511375       41.11522
2010    24      6       0.1784572       46.97842
2010    24      7       0.2113366       54.04469
2010    25      0       0.2198105       55.90738
2010    25      1       0.2374109       59.57486
2010    25      2       0.2841024       69.05922
2010    25      3       0.323845        76.7582
2010    25      4       0.3324451       78.33829
2010    25      5       0.3325999       78.37543
2010    25      6       0.3281525       77.47781
2010    25      7       0.3162444       75.11255
2010    26      0       0.3196614       75.73153
2010    26      1       0.3381475       79.18494
2010    26      2       0.3627529       83.6483
2010    26      3       0.3950915       89.1506
2010    26      4       0.4435915       96.90847
2010    26      5       0.6554332       128.2841
2010    26      6       0.6562236       128.3129
2010    26      7       0.5932145       119.3332
2010    27      0       0.5331027       110.3443
2010    27      1       0.4285629       93.68381
2010    27      2       0.3342417       77.0652
2010    27      3       0.2757215       66.0363
2010    27      4       0.2261886       56.33493
2010    27      5       0.2158078       54.33756
2010    27      6       0.2027028       51.59848
2010    27      7       0.1846313       47.73798
2010    28      0       0.1963662       50.12539
2010    28      1       0.211013        53.34069
2010    28      2       0.2312816       57.55918
2010    28      3       0.3056454       71.92905
2010    28      4       0.3733362       83.70093
2010    28      5       0.4725245       99.84637
2010    28      6       0.4420078       95.28726
2010    28      7       0.3908138       87.11913
2010    29      0       0.3476363       79.69509
2010    29      1       0.3733741       84.3447
2010    29      2       0.5182459       107.7615
2010    29      3       0.5343947       110.4003
2010    29      4       0.4753832       101.6343
2010    29      5       0.544173        111.9784
2010    29      6       0.6478909       126.3105
2010    29      7       0.588109        117.7943
2010    30      0       0.6091773       120.4774
2010    30      1       0.5055865       105.2201
2010    30      2       0.3889526       86.16181
2010    30      3       0.5349708       109.3198
2010    30      4       0.433289        93.15064
2010    30      5       0.2916174       68.08998
2010    30      6       0.2695292       63.77393
2010    30      7       0.2292292       55.9186
2010    31      0       0.2103476       52.11027
2010    31      1       0.1922226       48.42311
2010    31      2       0.1764843       45.22959
2010    31      3       0.1597469       41.71595
2010    31      4       0.1520782       39.96287
2010    31      5       0.2170549       53.79932
2010    31      6       0.2344553       57.4943
2010    31      7       0.1795599       46.2465
2011    1       0       0.4391902       95.56572
2011    1       1       0.418442        92.08465
2011    1       2       0.4412936       95.68104
2011    1       3       0.8141599       147.7235
2011    1       4       0.4983913       105.1392
2011    1       5       0.3876729       87.01794
2011    1       6       0.4186952       92.34041
2011    1       7       0.510698        107.4473
2011    2       0       0.5777566       117.5583
2011    2       1       0.6077567       121.9514
2011    2       2       0.5508016       114.2812
2011    2       3       0.4700766       101.9209
2011    2       4       0.5131269       109.0449
2011    2       5       0.497022        106.4533
2011    2       6       0.4711969       102.3844
2011    2       7       0.4692189       102.147
2011    3       0       0.4858837       104.7483
2011    3       1       0.4963618       106.3788
2011    3       2       0.552559        115.0884
2011    3       3       0.5840057       119.3403
2011    3       4       0.5318863       111.7674
2011    3       5       0.4993881       106.8398
2011    3       6       0.5196982       110.0472
2011    3       7       0.7006875       134.6908
2011    4       0       0.7375929       139.2907
2011    4       1       0.6081432       122.4924
2011    4       2       0.5787995       118.3106
2011    4       3       0.5767942       117.9412
2011    4       4       0.5918613       120.1149
2011    4       5       0.8065108       147.7802
2011    4       6       0.7220206       137.1691
2011    4       7       0.7220755       137.1264
2011    5       0       0.7298105       137.9919
2011    5       1       0.6735295       130.7933
2011    5       2       0.6457696       127.5581
2011    5       3       0.6342631       126.2495
2011    5       4       0.5873151       119.5882
2011    5       5       0.4789799       102.9443
2011    5       6       0.4322702       95.16279
2011    5       7       0.4194115       93.16009
2011    6       0       0.4739543       102.2845
2011    6       1       0.436268        96.06979
2011    6       2       0.4539221       98.85544
2011    6       3       0.5424508       112.4916
2011    6       4       0.4824049       103.3118
2011    6       5       0.469924        101.4465
2011    6       6       0.4589769       99.96554
2011    6       7       0.4998181       106.6458
2011    7       0       0.5077699       108.2422
2011    7       1       0.4867248       104.7847
2011    7       2       0.5091455       107.9201
2011    7       3       0.6277855       124.74
2011    7       4       0.5621631       115.4106
2011    7       5       0.5393458       111.5525
2011    7       6       0.5488951       112.995
2011    7       7       0.6773552       131.3444
2011    8       0       0.5451139       112.7932
2011    8       1       0.4885986       103.8854
2011    8       2       0.4532087       98.22277
2011    8       3       0.4579493       98.98058
2011    8       4       0.4434778       96.59049
2011    8       5       0.4576138       98.632
2011    8       6       0.4615308       99.20896
2011    8       7       0.6374942       125.8251
2011    9       0       0.5983029       119.9516
2011    9       1       0.5748269       116.6586
2011    9       2       0.6082229       121.413
2011    9       3       0.5467971       112.3898
2011    9       4       0.467817        99.94323
2011    9       5       0.4107031       90.49891
2011    9       6       0.3616654       82.02037
2011    9       7       0.3476648       79.60112
2011    10      0       0.3754415       84.5976
2011    10      1       0.4279469       93.6102
2011    10      2       0.3211925       74.63988
2011    10      3       0.2728829       65.46228
2011    10      4       0.2775011       66.32849
2011    10      5       0.3005709       70.67401
2011    10      6       0.3040073       71.32201
2011    10      7       0.3358778       77.27467
2011    11      0       0.6388557       125.1424
2011    11      1       0.4925782       103.7875
2011    11      2       0.4266327       92.99561
2011    11      3       0.2935953       69.2588
2011    11      4       0.27803         66.33784
2011    11      5       0.2780697       66.34691
2011    11      6       0.2770146       66.14657
2011    11      7       0.4796362       101.428
2011    12      0       0.4450045       95.68604
2011    12      1       0.4190916       91.20245
2011    12      2       0.3051346       71.0683
2011    12      3       0.2746233       65.29172
2011    12      4       0.3025732       70.50006
2011    12      5       0.3312228       75.68647
2011    12      6       0.2446084       59.42287
2011    12      7       0.4228219       91.9965
2011    13      0       0.3700075       83.17689
2011    13      1       0.269599        64.63529
2011    13      2       0.2063192       51.84858
2011    13      3       0.2146669       53.49208
2011    13      4       0.2520817       60.85006
2011    13      5       0.2272657       55.83704
2011    13      6       0.2643675       63.28307
2011    13      7       0.4480462       96.24832
2011    14      0       0.5749444       116.2616
2011    14      1       0.4200914       92.53645
2011    14      2       0.3104208       73.18668
2011    14      3       0.2977501       70.84475
2011    14      4       0.3249684       75.75798
2011    14      5       0.3805036       85.56358
2011    14      6       0.5151898       107.7842
2011    14      7       0.5552277       114.5343
2011    15      0       0.5306842       111.3378
2011    15      1       0.4986321       106.5561
2011    15      2       0.4877505       104.9638
2011    15      3       0.5478421       114.3078
2011    15      4       0.5588594       115.7882
2011    15      5       0.5341328       112.132
2011    15      6       0.5249432       110.8388
2011    15      7       0.506173        107.8063
2011    16      0       0.4839003       104.153
2011    16      1       0.5058075       107.1111
2011    16      2       0.5330166       111.0058
2011    16      3       0.526463        109.9272
2011    16      4       0.5022829       106.1935
2011    16      5       0.4924546       104.5972
2011    16      6       0.4998703       105.6127
2011    16      7       0.4954822       105.0486
2011    17      0       0.6284777       124.7369
2011    17      1       0.4997509       105.5716
2011    17      2       0.4001428       89.06704
2011    17      3       0.4632651       99.25613
2011    17      4       0.4885494       103.4308
2011    17      5       0.4784989       102.2211
2011    17      6       0.3686309       83.60991
2011    17      7       0.3537212       80.80315
2011    18      0       0.3438826       78.91578
2011    18      1       0.3308493       76.52152
2011    18      2       0.3336814       76.97685
2011    18      3       0.4159421       91.11394
2011    18      4       0.3719781       83.67932
2011    18      5       0.3148928       73.33328
2011    18      6       0.3227966       74.7578
2011    18      7       0.3696145       83.0709
2011    19      0       0.4201179       91.46881
2011    19      1       0.3929163       86.98525
2011    19      2       0.3916765       86.7797
2011    19      3       0.4326096       93.55001
2011    19      4       0.406465        89.04582
2011    19      5       0.4092103       89.52463
2011    19      6       0.4084141       89.23255
2011    19      7       0.3248874       74.47503
2011    20      0       0.3189094       73.42412
2011    20      1       0.2543693       61.34067
2011    20      2       0.2576932       62.16232
2011    20      3       0.3070701       71.59615
2011    20      4       0.3092999       72.26048
2011    20      5       0.2561016       62.21314
2011    20      6       0.2919029       69.0192
2011    20      7       0.3266556       75.57829
2011    21      0       0.2929151       69.47355
2011    21      1       0.2769842       66.51316
2011    21      2       0.2518897       61.61272
2011    21      3       0.2320014       57.69477
2011    21      4       0.2908265       69.54703
2011    21      5       0.2915883       69.87034
2011    21      6       0.2925511       70.0589
2011    21      7       0.3083885       72.94211
2011    22      0       0.3088469       72.86821
2011    22      1       0.2931324       69.77076
2011    22      2       0.2445635       60.10867
2011    22      3       0.220851        55.26455
2011    22      4       0.2172351       54.55421
2011    22      5       0.2193089       54.91922
2011    22      6       0.2244593       55.95514
2011    22      7       0.22737         56.55224
2011    23      0       0.2376506       58.61305
2011    23      1       0.264797        63.99222
2011    23      2       0.3166654       74.07513
2011    23      3       0.3535792       80.80015
2011    23      4       0.3669331       83.12604
2011    23      5       0.5434496       111.7839
2011    23      6       0.4751853       101.0931
2011    23      7       0.4170915       91.62198
2011    24      0       0.4139074       91.0596
2011    24      1       0.4518815       96.97248
2011    24      2       0.4049952       89.36299
2011    24      3       0.4020208       88.79111
2011    24      4       0.3841576       85.73791
2011    24      5       0.3492183       79.64361
2011    24      6       0.3210559       74.64345
2011    24      7       0.4114114       91.00713
2011    25      0       0.4109361       91.17139
2011    25      1       0.3640905       83.2472
2011    25      2       0.4617944       100.056
2011    25      3       0.5025652       106.7124
2011    25      4       0.4659062       101.2212
2011    25      5       0.4311369       95.3743
2011    25      6       0.4487806       98.18123
2011    25      7       0.4571895       99.17223
2011    26      0       0.5324541       110.5032
2011    26      1       0.4893852       104.0125
2011    26      2       0.5054435       106.0926
2011    26      3       0.4722837       101.1575
2011    26      4       0.4355953       95.4452
2011    26      5       0.4549696       98.42712
2011    26      6       0.8555646       152.3419
2011    26      7       0.7515264       139.5232
2011    27      0       0.7173137       134.9531
2011    27      1       0.6455741       125.3594
2011    27      2       0.5963047       118.5988
2011    27      3       0.4913456       103.0103
2011    27      4       0.3219619       74.13417
2011    27      5       0.2476412       59.84606
2011    27      6       0.2131956       52.98891
2011    27      7       0.1720568       44.70408
2011    28      0       0.1577708       41.50655
2011    28      1       0.1408827       37.8541
2011    28      2       0.1148728       32.18107
2011    28      3       0.1024205       29.39126
2011    28      4       0.1120973       31.64253
2011    28      5       0.1657495       43.76946
2011    28      6       0.2198324       55.25409
2011    28      7       0.238321        58.92567
2011    29      0       0.2511073       61.25763
2011    29      1       0.3254013       75.48982
2011    29      2       0.3831888       86.03171
2011    29      3       0.3378199       77.93667
2011    29      4       0.2951189       69.91241
2011    29      5       0.3031905       71.44969
2011    29      6       0.3275891       76.12506
2011    29      7       0.340442        78.57448
2011    30      0       0.3149091       73.89044
2011    30      1       0.2939036       69.81297
2011    30      2       0.2761877       66.24969
2011    30      3       0.2666055       64.30484
2011    30      4       0.298808        70.24911
2011    30      5       0.3325519       76.0294
2011    30      6       0.3268834       74.77956
2011    30      7       0.3790157       84.03579
2011    31      0       0.3049871       70.55311
2011    31      1       0.2374003       57.44683
2011    31      2       0.2064436       51.12761
2011    31      3       0.2288233       55.37071
2011    31      4       0.2253364       54.56753
2011    31      5       0.1570401       40.85439
2011    31      6       0.1330731       35.75046
2011    31      7       0.143784        38.14452
2012    1       0       0.3559573       80.1686
2012    1       1       0.4462135       95.30045
2012    1       2       0.5426581       110.5388
2012    1       3       0.6224376       122.102
2012    1       4       0.6098065       120.5531
2012    1       5       0.4709093       99.8242
2012    1       6       0.3360189       77.03488
2012    1       7       0.3557683       80.86102
2012    2       0       0.3617955       82.21233
2012    2       1       0.3312451       76.94675
2012    2       2       0.2498498       61.54097
2012    2       3       0.2595394       62.90284
2012    2       4       0.2666988       64.27236
2012    2       5       0.3833593       86.47847
2012    2       6       0.4280059       94.46174
2012    2       7       0.4740773       102.344
2012    3       0       0.5273919       110.671
2012    3       1       0.535483        111.7291
2012    3       2       0.5485259       113.3092
2012    3       3       0.5269314       109.9882
2012    3       4       0.4490902       97.81812
2012    3       5       0.3983027       89.27708
2012    3       6       0.3555876       81.70133
2012    3       7       0.3836235       86.74572
2012    4       0       0.3939546       89.32021
2012    4       1       0.3827159       87.68205
2012    4       2       0.4764864       103.9098
2012    4       3       0.7654613       143.9961
2012    4       4       0.7092085       138.6934
2012    4       5       0.6415692       130.2728
2012    4       6       0.7550859       145.0182
2012    4       7       0.8470394       155.9334
2012    5       0       0.7404235       143.0961
2012    5       1       0.8833287       160.509
2012    5       2       0.6770531       135.9024
2012    5       3       0.5935015       123.9624
2012    5       4       0.6145476       126.4179
2012    5       5       0.5907374       122.5333
2012    5       6       0.537808        114.3662
2012    5       7       0.5151224       110.5272
2012    6       0       0.6886896       134.0177
2012    6       1       0.9214898       161.483
2012    6       2       1.038544        173.5917
2012    6       3       0.8193458       150.8579
2012    6       4       0.7342289       139.3789
2012    6       5       0.7910193       146.3062
2012    6       6       0.9510127       164.5962
2012    6       7       0.54496         113.1954
2012    7       0       0.5045828       106.5451
2012    7       1       0.6552303       128.5904
2012    7       2       0.6615112       128.3573
2012    7       3       0.6715882       129.5526
2012    7       4       0.6487192       127.7029
2012    7       5       0.5628028       115.7123
2012    7       6       0.5805562       117.6987
2012    7       7       0.6718025       129.9717
2012    8       0       0.7155688       136.4323
2012    8       1       0.8118823       147.8826
2012    8       2       0.8095646       147.9711
2012    8       3       0.8174492       148.803
2012    8       4       0.8024707       147.3908
2012    8       5       0.8012075       147.2963
2012    8       6       0.7957211       146.3099
2012    8       7       0.7031211       134.6757
2012    9       0       0.5948305       119.5153
2012    9       1       0.4492345       97.30032
2012    9       2       0.4237213       92.67902
2012    9       3       0.3788557       84.96991
2012    9       4       0.2956286       70.03363
2012    9       5       0.2780193       66.68836
2012    9       6       0.2773845       66.60263
2012    9       7       0.4968142       104.8051
2012    10      0       0.6136817       122.0832
2012    10      1       0.4726935       101.1941
2012    10      2       0.2869801       68.6073
2012    10      3       0.2160196       54.50859
2012    10      4       0.1893367       49.00115
2012    10      5       0.1595332       42.53546
2012    10      6       0.1471289       39.72037
2012    10      7       0.1418395       38.53047
2012    11      0       0.1615636       42.80281
2012    11      1       0.1187482       33.33624
2012    11      2       0.08241338      24.90041
2012    11      3       0.07302186      22.55087
2012    11      4       0.07756968      23.56409
2012    11      5       0.08683806      25.68721
2012    11      6       0.09730311      28.05285
2012    11      7       0.1117208       31.35951
2012    12      0       0.1532755       40.57221
2012    12      1       0.1878139       47.8918
2012    12      2       0.2133019       53.20429
2012    12      3       0.2392367       58.35657
2012    12      4       0.2668489       63.57126
2012    12      5       0.4012533       87.4709
2012    12      6       0.3859414       84.59717
2012    12      7       0.521204        106.3523
2012    13      0       0.4646114       97.69882
2012    13      1       0.4494327       95.39484
2012    13      2       0.2969647       69.09351
2012    13      3       0.2412712       58.57831
2012    13      4       0.1960465       49.56294
2012    13      5       0.2203257       54.40415
2012    13      6       0.2734149       64.56728
2012    13      7       0.2561462       62.24653
2012    14      0       0.2713189       65.38408
2012    14      1       0.3826151       85.25037
2012    14      2       0.4882941       103.1267
2012    14      3       0.5452631       112.1956
2012    14      4       0.5524662       113.4121
2012    14      5       0.5102121       107.2149
2012    14      6       0.4920493       104.6469
2012    14      7       0.5423521       112.126
2012    15      0       0.6602235       129.0182
2012    15      1       0.7611369       141.8455
2012    15      2       0.6961243       133.5741
2012    15      3       0.5517235       113.5401
2012    15      4       0.5085955       107.2733
2012    15      5       0.6224375       124.1521
2012    15      6       0.7100114       135.4846
2012    15      7       0.8611664       152.5914
2012    16      0       0.7519017       139.5367
2012    16      1       0.6584304       127.2635
2012    16      2       0.5533413       112.4632
2012    16      3       0.453053        97.05109
2012    16      4       0.3801626       86.84541
2012    16      5       0.3439151       78.38262
2012    16      6       0.3609261       81.16302
2012    16      7       0.4396535       94.66229
2012    17      0       0.4910653       102.8027
2012    17      1       0.4554071       97.07181
2012    17      2       0.3842827       85.30232
2012    17      3       0.302221        70.43667
2012    17      4       0.2803816       66.21808
2012    17      5       0.2695569       64.1603
2012    17      6       0.2510087       60.60972
2012    17      7       0.2976265       69.491
2012    18      0       0.2684193       63.91004
2012    18      1       0.28005         66.05989
2012    18      2       0.3404743       77.05223
2012    18      3       0.3332328       75.63535
2012    18      4       0.4089398       88.78024
2012    18      5       0.3535822       79.27212
2012    18      6       0.2285391       56.01636
2012    18      7       0.2165134       53.66556
2012    19      0       0.2251564       55.28745
2012    19      1       0.2049892       51.20832
2012    19      2       0.2330813       56.93916
2012    19      3       0.3720121       82.85481
2012    19      4       0.4248519       91.63216
2012    19      5       0.4120664       89.23961
2012    19      6       0.3145488       72.04626
2012    19      7       0.2148801       52.85939
2012    20      0       0.2008065       50.02844
2012    20      1       0.2147657       52.84362
2012    20      2       0.2385877       57.50895
2012    20      3       0.2176108       53.50611
2012    20      4       0.2107893       52.08153
2012    20      5       0.2142589       52.63627
2012    20      6       0.2078189       51.36921
2012    20      7       0.1976357       49.53746
2012    21      0       0.1880992       47.73294
2012    21      1       0.1816546       46.47484
2012    21      2       0.1749069       45.09495
2012    21      3       0.1629279       42.62756
2012    21      4       0.1480357       39.51331
2012    21      5       0.1432714       38.51
2012    21      6       0.1383692       37.46283
2012    21      7       0.1296192       35.59868
2012    22      0       0.1180589       33.08242
2012    22      1       0.1021733       29.4892
2012    22      2       0.09097756      26.88073
2012    22      3       0.09032234      26.7264
2012    22      4       0.09536587      27.9302
2012    22      5       0.105855        30.42376
2012    22      6       0.1100088       31.44149
2012    22      7       0.120112        33.78695
2012    23      0       0.1250738       34.91827
2012    23      1       0.1237445       34.58512
2012    23      2       0.1248692       34.819
2012    23      3       0.1184527       33.34021
2012    23      4       0.1068347       30.69251
2012    23      5       0.1077862       30.91711
2012    23      6       0.1131887       32.07738
2012    23      7       0.1148982       32.33112
2012    24      0       0.1131938       31.86393
2012    24      1       0.1194063       33.23253
2012    24      2       0.1518064       40.39951
2012    24      3       0.2019479       50.93514
2012    24      4       0.2088921       52.38884
2012    24      5       0.1935834       49.34028
2012    24      6       0.1894086       48.45599
2012    24      7       0.1818112       46.80148
2012    25      0       0.1683835       43.99942
2012    25      1       0.160619        42.35636
2012    25      2       0.156198        41.49091
2012    25      3       0.1524072       40.74516
2012    25      4       0.1537031       40.92698
2012    25      5       0.1451332       39.13892
2012    25      6       0.1388126       37.71558
2012    25      7       0.1439452       38.67383
2012    26      0       0.1669849       43.62005
2012    26      1       0.1816933       46.70051
2012    26      2       0.1927479       49.0467
2012    26      3       0.1955662       49.60884
2012    26      4       0.2130819       53.13481
2012    26      5       0.2564311       61.67423
2012    26      6       0.2031878       51.41078
2012    26      7       0.158908        42.23343
2012    27      0       0.1435165       38.97224
2012    27      1       0.19346         49.79811
2012    27      2       0.2826942       67.85097
2012    27      3       0.3297432       76.8015
2012    27      4       0.3144319       74.02814
2012    27      5       0.2645555       64.3679
2012    27      6       0.2786273       66.9099
2012    27      7       0.3013655       71.23501
2012    28      0       0.2184201       54.74992
2012    28      1       0.2002663       50.84709
2012    28      2       0.201192        51.24749
2012    28      3       0.2198953       55.3945
2012    28      4       0.2599872       63.48524
2012    28      5       0.2952267       70.17392
2012    28      6       0.2545082       62.04271
2012    28      7       0.2441872       59.92959
2012    29      0       0.2431866       59.75624
2012    29      1       0.2546343       61.92943
2012    29      2       0.3064735       71.48298
2012    29      3       0.3443869       78.25753
2012    29      4       0.3429426       78.23383
2012    29      5       0.4410516       94.21295
2012    29      6       0.5604939       112.4619
2012    29      7       0.4901024       101.9422
2012    30      0       0.452048        95.6849
2012    30      1       0.3424574       76.82982
2012    30      2       0.2385546       57.25037
2012    30      3       0.2807422       65.17075
2012    30      4       0.3251628       73.06745
2012    30      5       0.2815729       65.00562
2012    30      6       0.268759        62.54517
2012    30      7       0.2318551       55.4845
2012    31      0       0.3853537       83.35264
2012    31      1       0.4222761       89.68383
2012    31      2       0.4362942       91.98732
2012    31      3       0.4259035       90.36829
2012    31      4       0.187143        46.73367
2012    31      5       0.1978276       49.04756
2012    31      6       0.2375423       56.96411
2012    31      7       0.2189192       53.27175
2013    1       0       0.7574683       141.829
2013    1       1       0.6448458       126.9254
2013    1       2       0.5615808       114.7415
2013    1       3       0.5334027       110.4983
2013    1       4       0.5342137       110.5862
2013    1       5       0.5550462       113.6916
2013    1       6       0.533322        110.9351
2013    1       7       0.5720169       117.1081
2013    2       0       0.7561384       141.7958
2013    2       1       0.5894732       119.5897
2013    2       2       0.5711398       116.9023
2013    2       3       0.6346598       125.8973
2013    2       4       0.6003722       121.0046
2013    2       5       0.5225498       109.4241
2013    2       6       0.4776018       102.6391
2013    2       7       0.4456263       97.57574
2013    3       0       0.4931663       105.5589
2013    3       1       0.4809762       103.7683
2013    3       2       0.4539801       99.30378
2013    3       3       0.5318643       111.7995
2013    3       4       0.479284        103.7419
2013    3       5       0.4355448       96.18069
2013    3       6       0.4352706       96.14898
2013    3       7       0.457093        99.83966
2013    4       0       0.3810063       87.05185
2013    4       1       0.333266        78.14368
2013    4       2       0.3515083       81.25576
2013    4       3       0.3883213       87.67823
2013    4       4       0.4668928       100.5687
2013    4       5       0.5310541       110.5904
2013    4       6       0.5410663       112.5224
2013    4       7       0.6381258       126.4857
2013    5       0       0.7107048       136.1075
2013    5       1       0.5395322       112.1431
2013    5       2       0.4799231       102.8716
2013    5       3       0.430573        94.83431
2013    5       4       0.3938701       88.55918
2013    5       5       0.3559894       81.85449
2013    5       6       0.3158107       74.54084
2013    5       7       0.2940138       70.60354
2013    6       0       0.2991895       71.78409
2013    6       1       0.3214218       76.15953
2013    6       2       0.3077122       73.6639
2013    6       3       0.2977475       71.76084
2013    6       4       0.3430539       80.16074
2013    6       5       0.4612211       100.4061
2013    6       6       0.5165474       108.7979
2013    6       7       0.5545583       114.1673
2013    7       0       0.5980101       120.1432
2013    7       1       0.585459        118.176
2013    7       2       0.5049137       106.0959
2013    7       3       0.4761453       101.6352
2013    7       4       0.5033208       105.847
2013    7       5       0.7136305       135.7395
2013    7       6       0.6515107       127.5027
2013    7       7       0.5727522       116.3061
2013    8       0       0.5407767       111.785
2013    8       1       0.2609385       63.94651
2013    8       2       0.1953637       50.66474
2013    8       3       0.2012067       51.84771
2013    8       4       0.2400333       59.96403
2013    8       5       0.5184492       109.42
2013    8       6       0.6820276       132.5828
2013    8       7       0.7574983       142.433
2013    9       0       0.788207        145.8671
2013    9       1       0.6939881       134.5315
2013    9       2       0.6364085       127.0326
2013    9       3       0.6830703       133.4957
2013    9       4       0.9969246       169.2312
2013    9       5       0.8086683       148.5956
2013    9       6       0.9122802       159.6134
2013    9       7       0.9798341       165.6264
2013    10      0       0.934108        160.7101
2013    10      1       0.8704368       153.7059
2013    10      2       0.8313675       149.2951
2013    10      3       0.7226153       136.8401
2013    10      4       0.5694453       116.1281
2013    10      5       0.2862009       68.42398
2013    10      6       0.2636069       64.03844
2013    10      7       0.3134482       73.68619
2013    11      0       0.3367755       78.04855
2013    11      1       0.3304086       77.14812
2013    11      2       0.339307        78.91086
2013    11      3       0.4457226       97.4756
2013    11      4       0.5513004       113.6944
2013    11      5       0.5174459       108.6865
2013    11      6       0.4908863       104.8294
2013    11      7       0.5188334       109.3433
2013    12      0       0.5492665       114.0823
2013    12      1       0.5137586       108.6135
2013    12      2       0.494531        105.8782
2013    12      3       0.4900823       105.13
2013    12      4       0.457906        99.93573
2013    12      5       0.5066589       107.4291
2013    12      6       0.5580623       115.298
2013    12      7       0.5786293       118.7574
2013    13      0       0.5432835       114.0301
2013    13      1       0.4612893       101.3239
2013    13      2       0.4703998       102.7322
2013    13      3       0.4769783       103.9587
2013    13      4       0.4497041       99.95997
2013    13      5       0.5334664       113.2732
2013    13      6       0.6405757       129.4103
2013    13      7       0.6812005       135.1974
2013    14      0       0.9976329       170.1827
2013    14      1       0.7106852       136.989
2013    14      2       0.594455        121.3633
2013    14      3       0.7891938       145.8533
2013    14      4       0.4631604       100.126
2013    14      5       0.4725226       101.5132
2013    14      6       0.5339743       111.2184
2013    14      7       0.5276691       109.9545
2013    15      0       0.831883        150.1473
2013    15      1       0.5849488       118.8266
2013    15      2       0.644271        126.6606
2013    15      3       0.66015         127.9863
2013    15      4       0.5334055       110.9813
2013    15      5       0.6673687       130.9211
2013    15      6       0.6168659       123.7565
2013    15      7       0.6472246       127.6987
2013    16      0       0.7192657       137.6581
2013    16      1       0.6760501       132.9802
2013    16      2       0.8664089       157.0341
2013    16      3       0.7944124       148.8451
2013    16      4       0.9162917       162.4406
2013    16      5       0.8859815       158.7646
2013    16      6       1.13038         183.3643
2013    16      7       0.7285747       141.1323
2013    17      0       0.6989772       137.5225
2013    17      1       0.624267        127.2187
2013    17      2       0.6064185       124.4594
2013    17      3       0.820628        153.0133
2013    17      4       0.7565568       145.5187
2013    17      5       0.7619847       146.2839
2013    17      6       0.7859319       149.4229
2013    17      7       0.8255237       154.1248
2013    18      0       1.107196        181.5172
2013    18      1       0.8183968       152.2085
2013    18      2       0.520552        110.5249
2013    18      3       0.6132109       123.8552
2013    18      4       0.5833062       120.1217
2013    18      5       0.5616873       117.4635
2013    18      6       0.5713952       118.8611
2013    18      7       0.5687768       118.1974
2013    19      0       0.5976261       121.856
2013    19      1       0.4255437       95.12942
2013    19      2       0.3685242       85.32902
2013    19      3       0.364875        84.4441
2013    19      4       0.392254        89.81161
2013    19      5       0.401084        90.80033
2013    19      6       0.7160961       138.933
2013    19      7       0.6189977       125.8442
2013    20      0       0.4683814       103.0848
2013    20      1       0.4528515       99.26421
2013    20      2       0.4943913       104.7971
2013    20      3       0.3842774       86.79876
2013    20      4       0.4340607       95.41809
2013    20      5       0.4189219       92.87546
2013    20      6       0.3978511       89.26958
2013    20      7       0.390511        88.03427
2013    21      0       0.4979598       105.0562
2013    21      1       0.4236913       93.09563
2013    21      2       0.4051653       89.94041
2013    21      3       0.3708765       83.85199
2013    21      4       0.3460141       79.39256
2013    21      5       0.317634        74.20279
2013    21      6       0.3188256       74.27827
2013    21      7       0.300181        70.77842
2013    22      0       0.3107968       72.7091
2013    22      1       0.3022355       71.15027
2013    22      2       0.2475527       60.78405
2013    22      3       0.2251594       56.39092
2013    22      4       0.2143801       54.19888
2013    22      5       0.255277        62.16247
2013    22      6       0.4504593       96.89234
2013    22      7       0.432327        94.23336
2013    23      0       0.379455        85.29338
2013    23      1       0.3657862       82.75194
2013    23      2       0.3462773       79.32432
2013    23      3       0.3194272       74.20317
2013    23      4       0.254221        62.05415
2013    23      5       0.2623103       63.76549
2013    23      6       0.2903946       69.23448
2013    23      7       0.2707531       65.48115
2013    24      0       0.2636554       64.14694
2013    24      1       0.2859338       68.42934
2013    24      2       0.3668037       83.07082
2013    24      3       0.3537315       80.67104
2013    24      4       0.2729542       65.91578
2013    24      5       0.2328739       58.18844
2013    24      6       0.1905179       49.39295
2013    24      7       0.1803911       46.9134
2013    25      0       0.3281909       75.55584
2013    25      1       0.4948476       104.9553
2013    25      2       0.5711381       116.7753
2013    25      3       0.5636044       116.4479
2013    25      4       0.5587524       115.5381
2013    25      5       0.597533        120.916
2013    25      6       0.5421981       113.154
2013    25      7       0.437276        96.87709
2013    26      0       0.3961534       89.77039
2013    26      1       0.3278149       76.97916
2013    26      2       0.2704763       65.75373
2013    26      3       0.3473044       80.14823
2013    26      4       0.3301925       76.79586
2013    26      5       0.2991738       70.74061
2013    26      6       0.2982443       70.47514
2013    26      7       0.3169533       74.08482
2013    27      0       0.3062995       72.22024
2013    27      1       0.297597        70.77738
2013    27      2       0.2273437       57.25224
2013    27      3       0.1524597       41.29133
2013    27      4       0.1453477       39.46261
2013    27      5       0.2034338       51.61257
2013    27      6       0.5443978       113.2768
2013    27      7       0.6823499       133.0641
2013    28      0       0.7182083       137.9195
2013    28      1       0.8192365       149.9663
2013    28      2       0.9288413       162.284
2013    28      3       1.141714        183.5502
2013    28      4       1.217077        190.8109
2013    28      5       0.843735        156.0098
2013    28      6       0.6898823       136.38
2013    28      7       0.887288        159.8585
2013    29      0       0.7983149       149.6915
2013    29      1       0.660646        131.9136
2013    29      2       0.7298146       139.9428
2013    29      3       0.7438186       140.4919
2013    29      4       0.5464405       113.5846
2013    29      5       0.6342005       125.5997
2013    29      6       0.6816289       131.1142
2013    29      7       0.9316651       159.4684
2013    30      0       0.7467489       139.5061
2013    30      1       0.5189181       108.864
2013    30      2       0.3585094       82.52338
2013    30      3       0.3022918       71.86394
2013    30      4       0.3760293       85.40061
2013    30      5       0.6106451       122.409
2013    30      6       0.6095593       122.226
2013    30      7       0.5902809       119.5208
2013    31      0       0.5334893       111.3212
2013    31      1       0.4316743       95.10479
2013    31      2       0.4156711       92.21478
2013    31      3       0.4131619       91.62278
2013    31      4       0.4048694       90.21436
2013    31      5       0.408686        90.91481
2013    31      6       0.4598392       99.33887
2013    31      7       0.5057281       106.5558
2014    1       0       0.8282349       147.5935
2014    1       1       0.7316225       136.6438
2014    1       2       0.5845039       117.2507
2014    1       3       0.3632847       82.18285
2014    1       4       0.3414288       78.30858
2014    1       5       0.3605065       81.787
2014    1       6       0.5322379       110.3691
2014    1       7       0.6432834       126.4185
2014    2       0       0.5356126       110.84
2014    2       1       0.4104554       90.60789
2014    2       2       0.4040673       89.48609
2014    2       3       0.444063        95.91199
2014    2       4       0.4415108       95.41732
2014    2       5       0.4138768       90.97459
2014    2       6       0.4061027       89.69876
2014    2       7       0.3860634       86.36807
2014    3       0       0.4021755       89.25049
2014    3       1       0.4323401       94.20582
2014    3       2       0.3614621       82.25893
2014    3       3       0.3404208       78.52041
2014    3       4       0.3120553       73.01422
2014    3       5       0.3158458       73.43813
2014    3       6       0.404695        89.0903
2014    3       7       0.4376547       94.8788
2014    4       0       0.7785138       142.9772
2014    4       1       0.6872382       131.4158
2014    4       2       0.6845555       131.2543
2014    4       3       0.6292071       124.3506
2014    4       4       0.5893505       117.7448
2014    4       5       0.6178062       121.8713
2014    4       6       0.7783804       143.3872
2014    4       7       0.5938591       118.9375
2014    5       0       0.4985807       104.6415
2014    5       1       0.3712061       83.25021
2014    5       2       0.4418466       95.71419
2014    5       3       0.7107593       134.6492
2014    5       4       0.7996748       145.6121
2014    5       5       0.8293059       149.6499
2014    5       6       0.6949096       133.5163
2014    5       7       0.6923029       132.7578
2014    6       0       0.8864794       155.4596
2014    6       1       0.8861656       155.1259
2014    6       2       0.7743688       141.738
2014    6       3       0.6617664       127.1317
2014    6       4       0.6102353       120.0721
2014    6       5       0.5930795       117.3543
2014    6       6       0.5045828       104.198
2014    6       7       0.4097611       88.85946
2014    7       0       0.4574227       96.77976
2014    7       1       0.4161732       89.94211
2014    7       2       0.422309        91.1517
2014    7       3       0.3648923       81.32273
2014    7       4       0.3150561       72.31825
2014    7       5       0.26501         62.89391
2014    7       6       0.2589827       61.76364
2014    7       7       0.2159656       53.34921
2014    8       0       0.296826        69.05175
2014    8       1       0.2161312       53.37848
2014    8       2       0.1840646       46.73502
2014    8       3       0.17808         45.40255
2014    8       4       0.1831084       46.42442
2014    8       5       0.2039643       50.69916
2014    8       6       0.2699536       63.70981
2014    8       7       0.2478735       59.43121
2014    9       0       0.315844        72.27887
2014    9       1       0.2264102       55.35777
2014    9       2       0.2290058       56.02201
2014    9       3       0.2309626       56.53595
2014    9       4       0.2028912       50.91667
2014    9       5       0.223896        55.37905
2014    9       6       0.2446314       60.02157
2014    9       7       0.2276407       56.98216
2014    10      0       0.1976854       51.00554
2014    10      1       0.1507417       40.45708
2014    10      2       0.4298168       93.32762
2014    10      3       0.5584823       115.074
2014    10      4       0.6871448       134.9672
2014    10      5       0.6932551       134.873
2014    10      6       0.6912869       134.4405
2014    10      7       0.6518694       129.2664
2014    11      0       0.6025467       122.4935
2014    11      1       0.5528544       115.5248
2014    11      2       0.5101123       109.2584
2014    11      3       0.6433984       128.536
2014    11      4       0.7799808       146.2098
2014    11      5       0.676876        133.4663
2014    11      6       0.5878442       121.3057
2014    11      7       0.5233451       111.7606
2014    12      0       0.5245415       111.5318
2014    12      1       0.5413038       113.562
2014    12      2       0.4736917       102.8
2014    12      3       0.6659074       130.9323
2014    12      4       0.7376598       140.7732
2014    12      5       0.9832716       168.2721
2014    12      6       0.6568254       129.5685
2014    12      7       0.5637462       116.2219
2014    13      0       0.4933431       105.41
2014    13      1       0.4664451       101.1552
2014    13      2       0.4243638       94.30985
2014    13      3       0.4205471       93.64138
2014    13      4       0.4392236       96.79978
2014    13      5       0.4864443       104.2918
2014    13      6       0.5418794       112.6529
2014    13      7       0.5325995       111.3507
2014    14      0       0.5275427       110.8638
2014    14      1       0.6153935       123.8188
2014    14      2       0.5707224       117.0562
2014    14      3       0.4578891       99.69149
2014    14      4       0.3839121       86.97379
2014    14      5       0.3201759       75.17962
2014    14      6       0.2865581       68.77066
2014    14      7       0.2630891       64.20745
2014    15      0       0.2539438       62.40867
2014    15      1       0.2541609       62.41071
2014    15      2       0.2551963       62.61665
2014    15      3       0.2757312       66.64501
2014    15      4       0.3209937       75.2934
2014    15      5       0.5124813       107.8624
2014    15      6       0.4711896       101.2489
2014    15      7       0.4595347       99.37415
2014    16      0       0.4346476       95.24411
2014    16      1       0.4439298       96.72433
2014    16      2       0.3697536       83.91504
2014    16      3       0.36482         82.92203
2014    16      4       0.3763475       84.91451
2014    16      5       0.3834066       86.11554
2014    16      6       0.3968257       88.5485
2014    16      7       0.4002302       89.43566
2014    17      0       0.4181902       92.33679
2014    17      1       0.4410652       95.75241
2014    17      2       0.3940909       87.92309
2014    17      3       0.3231798       75.48915
2014    17      4       0.3102326       73.15452
2014    17      5       0.331053        77.14919
2014    17      6       0.339603        78.9087
2014    17      7       0.3283808       76.95218
2014    18      0       0.3187812       75.34727
2014    18      1       0.2922873       70.41413
2014    18      2       0.2423337       60.50594
2014    18      3       0.2281621       57.57196
2014    18      4       0.2833451       68.62235
2014    18      5       0.3265269       76.84252
2014    18      6       0.332149        77.95638
2014    18      7       0.3004237       72.01097
2014    19      0       0.2695297       66.01689
2014    19      1       0.2611657       64.30136
2014    19      2       0.2625047       64.35585
2014    19      3       0.259019        63.49785
2014    19      4       0.2786214       67.15598
2014    19      5       0.2919981       69.83878
2014    19      6       0.3147366       74.23494
2014    19      7       0.3462328       80.09631
2014    20      0       0.3710805       84.6849
2014    20      1       0.4000631       89.8951
2014    20      2       0.4420084       97.08641
2014    20      3       0.5532132       114.7223
2014    20      4       0.5068692       107.7542
2014    20      5       0.5233531       110.103
2014    20      6       0.5336759       111.5411
2014    20      7       0.4921325       105.3222
2014    21      0       0.4682202       101.8989
2014    21      1       0.4740289       102.7409
2014    21      2       0.4942666       105.5771
2014    21      3       0.5389142       111.8915
2014    21      4       0.6397538       125.8023
2014    21      5       0.6182891       122.6719
2014    21      6       0.5240955       109.1814
2014    21      7       0.5044486       106.0575
2014    22      0       0.4597557       99.05762
2014    22      1       0.4236055       93.11796
2014    22      2       0.4074294       90.36334
2014    22      3       0.3982651       88.63487
2014    22      4       0.34788         79.85035
2014    22      5       0.331859        76.95639
2014    22      6       0.3253266       75.87899
2014    22      7       0.2881908       68.99921
2014    23      0       0.2783882       67.18791
2014    23      1       0.2777928       67.07257
2014    23      2       0.2874311       68.8129
2014    23      3       0.2907694       69.29752
2014    23      4       0.287334        68.52636
2014    23      5       0.2825052       67.4987
2014    23      6       0.2563105       62.3417
2014    23      7       0.2437545       59.72217
2014    24      0       0.2587523       62.64361
2014    24      1       0.2937031       69.40831
2014    24      2       0.3984147       88.31276
2014    24      3       0.3283366       75.84924
2014    24      4       0.2889418       68.39203
2014    24      5       0.2889845       68.26424
2014    24      6       0.3365785       76.80279
2014    24      7       0.3544527       80.01922
2014    25      0       0.3427428       77.8945
2014    25      1       0.3549024       79.96238
2014    25      2       0.434339        93.59064
2014    25      3       0.3990591       87.68604
2014    25      4       0.3324428       76.19093
2014    25      5       0.291645        68.59851
2014    25      6       0.2227186       54.91538
2014    25      7       0.1887183       47.74769
2014    26      0       0.1820852       46.2971
2014    26      1       0.1826345       46.48344
2014    26      2       0.1739558       44.78641
2014    26      3       0.1536315       40.52374
2014    26      4       0.1460431       38.86585
2014    26      5       0.1604654       41.96177
2014    26      6       0.173699        44.79131
2014    26      7       0.1839974       46.99774
2014    27      0       0.1998551       50.36189
2014    27      1       0.1981392       50.07966
2014    27      2       0.1700558       44.28276
2014    27      3       0.1485982       39.66336
2014    27      4       0.1340915       36.36105
2014    27      5       0.1507118       39.66565
2014    27      6       0.1597526       41.85412
2014    27      7       0.1840656       47.13493
2014    28      0       0.2111259       52.59278
2014    28      1       0.2227118       55.01725
2014    28      2       0.2246362       55.64126
2014    28      3       0.2152969       53.89791
2014    28      4       0.2076693       52.48167
2014    28      5       0.2042803       51.82108
2014    28      6       0.1998721       50.92635
2014    28      7       0.1728751       45.15378
2014    29      0       0.1401402       37.88193
2014    29      1       0.1308672       35.82036
2014    29      2       0.1139135       32.02307
2014    29      3       0.1242648       34.84221
2014    29      4       0.2314863       58.3845
2014    29      5       0.3047446       72.61308
2014    29      6       0.3716312       84.2402
2014    29      7       0.5191234       107.367
2014    30      0       0.4296722       93.18603
2014    30      1       0.2628592       63.03452
2014    30      2       0.2873112       67.69968
2014    30      3       0.2949808       69.12514
2014    30      4       0.3180318       73.56374
2014    30      5       0.3257799       75.14185
2014    30      6       0.3210364       74.40666
2014    30      7       0.2900186       68.73518
2014    31      0       0.2572325       62.34689
2014    31      1       0.2616352       62.99366
2014    31      2       0.3097321       71.88799
2014    31      3       0.4431793       94.91109
2014    31      4       0.4773526       100.2066
2014    31      5       0.495756        105.3952
2014    31      6       0.3975679       88.74744
2014    31      7       0.3344963       75.95625
2015    1       0       0.5507539       111.3033
2015    1       1       0.5132507       105.3915
2015    1       2       0.7140497       132.7973
2015    1       3       0.5119198       105.1461
2015    1       4       0.6819137       128.4246
2015    1       5       0.4295679       91.99907
2015    1       6       0.2629765       62.84511
2015    1       7       0.2627252       63.18566
2015    2       0       0.4418533       95.44093
2015    2       1       0.2480709       60.65805
2015    2       2       0.1801603       46.49045
2015    2       3       0.2698764       64.21999
2015    2       4       0.3007006       70.5005
2015    2       5       0.4386057       95.68176
2015    2       6       0.5374449       111.1684
2015    2       7       0.5538225       113.7656
2015    3       0       0.4605458       100.1042
2015    3       1       0.4561923       99.79109
2015    3       2       0.4644055       101.3422
2015    3       3       0.4428497       97.67221
2015    3       4       0.4309682       95.4662
2015    3       5       0.5069482       107.3969
2015    3       6       0.687924        132.4645
2015    3       7       0.9229015       159.9793
2015    4       0       0.835696        150.4688
2015    4       1       0.9992355       167.6355
2015    4       2       0.8509529       151.9403
2015    4       3       0.854375        152.3443
2015    4       4       0.9019386       157.7434
2015    4       5       1.01495         169.3542
2015    4       6       0.8072476       147.9087
2015    4       7       0.7299965       139.0543
2015    5       0       0.7415961       140.5334
2015    5       1       0.6777769       132.0785
2015    5       2       0.6405551       126.7742
2015    5       3       0.6102183       122.6245
2015    5       4       0.534704        111.5775
2015    5       5       0.521024        109.6491
2015    5       6       0.5385991       112.5129
2015    5       7       0.5610613       115.8183
2015    6       0       0.5565746       115.2892
2015    6       1       0.5450099       113.5413
2015    6       2       0.4994003       106.6075
2015    6       3       0.4328297       95.98068
2015    6       4       0.383576        87.57157
2015    6       5       0.3464202       80.87459
2015    6       6       0.3192055       75.69318
2015    6       7       0.3200619       76.01611
2015    7       0       0.3428043       80.31342
2015    7       1       0.3379403       79.33093
2015    7       2       0.3269516       77.17737
2015    7       3       0.3376305       79.0768
2015    7       4       0.3365412       78.83683
2015    7       5       0.3153571       74.84831
2015    7       6       0.3048317       72.73337
2015    7       7       0.3204619       75.63652
2015    8       0       0.3309792       77.8294
2015    8       1       0.3854836       87.72647
2015    8       2       0.4209513       93.51387
2015    8       3       0.4867988       104.4405
2015    8       4       0.5153303       109.604
2015    8       5       0.5316343       112.5071
2015    8       6       0.4857029       105.2131
2015    8       7       0.5176129       110.9819
2015    9       0       0.6348118       128.9643
2015    9       1       0.7553138       144.951
2015    9       2       0.756706        145.138
2015    9       3       0.7235892       140.5277
2015    9       4       0.7722619       146.1061
2015    9       5       0.7669211       145.4245
2015    9       6       0.7398896       141.8882
2015    9       7       0.6999297       136.5149
2015    10      0       0.6714901       132.6391
2015    10      1       0.7162105       138.3865
2015    10      2       0.5290936       112.108
2015    10      3       0.5000224       107.6529
2015    10      4       0.4921098       106.5692
2015    10      5       0.5720629       119.038
2015    10      6       0.6450006       129.0755
2015    10      7       0.704529        135.8897
2015    11      0       0.6056696       123.1368
2015    11      1       0.4807183       104.4199
2015    11      2       0.4721155       103.1955
2015    11      3       0.381778        87.81485
2015    11      4       0.3427857       80.47625
2015    11      5       0.4152919       93.27036
2015    11      6       0.4731477       103.2065
2015    11      7       0.4742647       103.5437
2015    12      0       0.4329256       96.46915
2015    12      1       0.4013097       90.7932
2015    12      2       0.3770824       86.4679
2015    12      3       0.3384635       79.38785
2015    12      4       0.3272639       77.22467
2015    12      5       0.4181904       93.44955
2015    12      6       0.5634482       116.3971
2015    12      7       0.5244187       110.2152
2015    13      0       0.533085        111.1726
2015    13      1       0.6304451       124.8689
2015    13      2       0.6253181       124.2541
2015    13      3       0.6096859       122.1395
2015    13      4       0.6039          121.4212
2015    13      5       0.5566462       114.2636
2015    13      6       0.450347        97.88486
2015    13      7       0.3996593       89.6424
2015    14      0       0.3647713       83.4761
2015    14      1       0.3762192       85.41484
2015    14      2       0.3923277       88.09924
2015    14      3       0.422848        93.17959
2015    14      4       0.5233707       109.3253
2015    14      5       0.4989096       105.5909
2015    14      6       0.4570837       98.81609
2015    14      7       0.402126        89.57765
2015    15      0       0.4472463       97.11209
2015    15      1       0.6009475       120.5533
2015    15      2       0.4375983       95.57931
2015    15      3       0.3905099       87.82538
2015    15      4       0.3411266       79.21256
2015    15      5       0.2796513       67.60234
2015    15      6       0.2239157       56.45708
2015    15      7       0.1880021       48.97008
2015    16      0       0.1957111       50.74434
2015    16      1       0.2699148       66.15402
2015    16      2       0.2444278       60.79385
2015    16      3       0.2591915       63.5382
2015    16      4       0.4254949       94.80499
2015    16      5       0.473826        103.0381
2015    16      6       0.5196216       110.631
2015    16      7       0.6091121       124.3006
2015    17      0       0.7762207       145.9777
2015    17      1       0.9108389       161.3408
2015    17      2       0.9375369       164.1249
2015    17      3       0.8238886       152.4246
2015    17      4       0.9684569       167.0513
2015    17      5       0.9415059       164.2285
2015    17      6       0.8975275       159.6466
2015    17      7       0.8347351       152.9562
2015    18      0       0.972477        168.1213
2015    18      1       1.087135        178.8131
2015    18      2       0.9574785       166.3206
2015    18      3       0.7336338       140.4728
2015    18      4       0.6081345       123.5671
2015    18      5       0.5877087       120.6251
2015    18      6       0.5542081       115.9687
2015    18      7       0.510032        109.427
2015    19      0       0.4700307       103.1613
2015    19      1       0.4633365       102.013
2015    19      2       0.4637231       101.7843
2015    19      3       0.4781574       103.8384
2015    19      4       0.5465881       113.9045
2015    19      5       0.5980303       121.164
2015    19      6       0.6227586       124.6894
2015    19      7       0.6325854       126.2494
2015    20      0       0.6474494       128.2186
2015    20      1       0.6288419       125.5487
2015    20      2       0.6212844       124.1647
2015    20      3       0.5646941       116.4126
2015    20      4       0.5256741       110.7719
2015    20      5       0.4874656       104.8761
2015    20      6       0.4184285       93.39722
2015    20      7       0.3601809       83.08921
2015    21      0       0.3452504       80.42032
2015    21      1       0.3200577       75.67392
2015    21      2       0.2812138       68.02573
2015    21      3       0.2544406       62.6421
2015    21      4       0.2950509       70.73745
2015    21      5       0.3711915       84.88928
2015    21      6       0.3810736       86.57756
2015    21      7       0.3884344       87.80818
2015    22      0       0.4072695       91.16386
2015    22      1       0.4270965       94.56047
2015    22      2       0.4138493       92.09693
2015    22      3       0.4229745       93.43059
2015    22      4       0.4359862       95.52905
2015    22      5       0.466198        100.4405
2015    22      6       0.5129178       107.6017
2015    22      7       0.5471717       112.8229
2015    23      0       0.4551653       98.59221
2015    23      1       0.4481558       97.56642
2015    23      2       0.4216694       93.10091
2015    23      3       0.3879867       87.25767
2015    23      4       0.371398        84.30733
2015    23      5       0.3688596       83.83574
2015    23      6       0.3777505       85.361
2015    23      7       0.3802173       85.79266
2015    24      0       0.3794019       85.72447
2015    24      1       0.4173832       92.34854
2015    24      2       0.4554507       98.77148
2015    24      3       0.3957718       88.78594
2015    24      4       0.3795882       85.86972
2015    24      5       0.4052314       90.76486
2015    24      6       0.4340882       95.981
2015    24      7       0.4364914       96.22894
2015    25      0       0.4176831       93.05086
2015    25      1       0.4881628       104.5812
2015    25      2       0.4624772       100.4284
2015    25      3       0.4633749       100.3137
2015    25      4       0.434838        95.50714
2015    25      5       0.3983576       89.0565
2015    25      6       0.3786849       85.69324
2015    25      7       0.4007385       89.56326
2015    26      0       0.3733368       84.86586
2015    26      1       0.4211814       92.59811
2015    26      2       0.3874398       86.92739
2015    26      3       0.3903607       87.3813
2015    26      4       0.3680092       83.61403
2015    26      5       0.3618219       82.52803
2015    26      6       0.3444417       79.38145
2015    26      7       0.3608763       82.26604
2015    27      0       0.3669023       83.4207
2015    27      1       0.4030132       89.53424
2015    27      2       0.5213784       108.7199
2015    27      3       0.5914545       119.3791
2015    27      4       0.6364269       125.9198
2015    27      5       0.6372742       126.0203
2015    27      6       0.5999879       120.7083
2015    27      7       0.5838626       118.5657
2015    28      0       0.5814285       118.4224
2015    28      1       0.4975849       106.2289
2015    28      2       0.4099812       91.76415
2015    28      3       0.2817169       68.34825
2015    28      4       0.2675258       65.56702
2015    28      5       0.2863868       69.05577
2015    28      6       0.3016284       71.76839
2015    28      7       0.3481354       80.1032
2015    29      0       0.4543118       98.20194
2015    29      1       0.6165238       122.7121
2015    29      2       0.6929673       132.9801
2015    29      3       0.83209         150.4485
2015    29      4       0.7779795       144.1337
2015    29      5       0.6461788       127.3064
2015    29      6       0.5828594       118.4532
2015    29      7       0.5263957       110.0401
2015    30      0       0.5092267       107.068
2015    30      1       0.5641434       114.7901
2015    30      2       0.5848028       117.4868
2015    30      3       0.6033767       120.2819
2015    30      4       0.6489627       126.6663
2015    30      5       0.6323051       124.1737
2015    30      6       0.5872225       117.6356
2015    30      7       0.5243711       108.3408
2015    31      0       0.5682725       114.8667
2015    31      1       0.5340063       109.711
2015    31      2       0.4827519       101.7194
2015    31      3       0.4643348       98.67149
2015    31      4       0.4460358       95.28431
2015    31      5       0.4141311       89.73974
2015    31      6       0.3158598       72.57136
2015    31      7       0.243005        58.76715
2016    1       0       0.532385        112.4268
2016    1       1       0.4413841       98.25532
2016    1       2       0.4078812       92.66744
2016    1       3       0.4065872       92.52257
2016    1       4       0.4070389       92.81107
2016    1       5       0.4010057       91.8321
2016    1       6       0.3791515       88.01729
2016    1       7       0.3567379       84.11476
2016    2       0       0.3480384       82.36508
2016    2       1       0.3428122       81.39657
2016    2       2       0.3248485       78.08865
2016    2       3       0.307931        74.79703
2016    2       4       0.2927503       71.78997
2016    2       5       0.2678205       66.71603
2016    2       6       0.2503141       63.0829
2016    2       7       0.2463683       62.23476
2016    3       0       0.2894602       70.7206
2016    3       1       0.3435597       80.91837
2016    3       2       0.3109246       74.75123
2016    3       3       0.3000685       72.51988
2016    3       4       0.3002865       72.30324
2016    3       5       0.3085208       73.51279
2016    3       6       0.3349133       78.24319
2016    3       7       0.3631752       83.02963
2016    4       0       0.6558178       128.8546
2016    4       1       0.6560997       128.6619
2016    4       2       0.6015008       121.1953
2016    4       3       0.484431        103.6247
2016    4       4       0.6420523       126.8828
2016    4       5       0.6810283       131.8657
2016    4       6       0.49468         104.9774
2016    4       7       0.631942        125.2741
2016    5       0       0.4673952       100.8541
2016    5       1       0.41953         93.0041
2016    5       2       0.357237        82.20171
2016    5       3       0.3386395       78.94792
2016    5       4       0.3222683       75.92058
2016    5       5       0.29562         70.87941
2016    5       6       0.2631186       64.45999
2016    5       7       0.2741664       66.49601
2016    6       0       0.3115423       73.67528
2016    6       1       0.285272        68.73473
2016    6       2       0.2146579       54.64721
2016    6       3       0.1971483       51.08252
2016    6       4       0.1815232       47.80079
2016    6       5       0.2408071       60.65055
2016    6       6       0.1432641       39.50919
2016    6       7       0.1446108       39.91653
2016    7       0       0.1432576       39.58433
2016    7       1       0.1396806       38.64074
2016    7       2       0.145216        39.73554
2016    7       3       0.1688137       44.62318
2016    7       4       0.1942071       49.94683
2016    7       5       0.1771572       46.48624
2016    7       6       0.1712022       45.10488
2016    7       7       0.2429922       59.34817
2016    8       0       0.215397        54.48743
2016    8       1       0.2303941       57.84933
2016    8       2       0.2574105       63.44631
2016    8       3       0.2807994       68.25135
2016    8       4       0.280998        68.54867
2016    8       5       0.2769801       67.79038
2016    8       6       0.2617143       64.88491
2016    8       7       0.2138086       55.44689
2016    9       0       0.1829799       49.00743
2016    9       1       0.1678255       45.77847
2016    9       2       0.1478627       41.35596
2016    9       3       0.1307046       37.40728
2016    9       4       0.1319895       37.73632
2016    9       5       0.1514291       42.30211
2016    9       6       0.1568157       43.52528
2016    9       7       0.1947154       51.87988
2016    10      0       0.2197713       56.92871
2016    10      1       0.2526314       63.45997
2016    10      2       0.2362755       59.62476
2016    10      3       0.3821141       87.71003
2016    10      4       0.58024         120.5584
2016    10      5       0.5290338       112.4634
2016    10      6       0.4724639       103.3601
2016    10      7       0.4739212       102.9729
2016    11      0       0.4980384       105.5477
2016    11      1       0.3664774       84.58009
2016    11      2       0.2732167       67.36839
2016    11      3       0.2461867       62.11288
2016    11      4       0.24324         61.8342
2016    11      5       0.2378935       61.11833
2016    11      6       0.1952274       52.05825
2016    11      7       0.1587474       43.85644
2016    12      0       0.1392283       39.32554
2016    12      1       0.1218797       35.21621
2016    12      2       0.1240657       35.72558
2016    12      3       0.1316493       37.5617
2016    12      4       0.1485584       41.46025
2016    12      5       0.1666151       45.36711
2016    12      6       0.1642425       44.93603
2016    12      7       0.1575478       43.56167
2016    13      0       0.1620572       44.59819
2016    13      1       0.1768897       47.70184
2016    13      2       0.1850191       49.32643
2016    13      3       0.1690618       45.65016
2016    13      4       0.1256293       35.68886
2016    13      5       0.1076212       31.2655
2016    13      6       0.1176277       33.39755
2016    13      7       0.1440246       39.21506
2016    14      0       0.1569797       42.16129
2016    14      1       0.1927578       49.59161
2016    14      2       0.1744149       45.93835
2016    14      3       0.1591325       42.86984
2016    14      4       0.1413832       38.86363
2016    14      5       0.1365614       37.72077
2016    14      6       0.1328574       36.84679
2016    14      7       0.1303075       36.17021
2016    15      0       0.1304074       36.07105
2016    15      1       0.1408996       38.31801
2016    15      2       0.1395561       37.91454
2016    15      3       0.1379007       37.41312
2016    15      4       0.1432125       38.45875
2016    15      5       0.1557908       41.02031
2016    15      6       0.1691345       43.73292
2016    15      7       0.1764039       45.15539
2016    16      0       0.1947314       48.85657
2016    16      1       0.1928228       48.45683
2016    16      2       0.1719967       44.08459
2016    16      3       0.1604876       41.62425
2016    16      4       0.171029        43.7838
2016    16      5       0.1903166       47.76185
2016    16      6       0.1659828       42.67899
2016    16      7       0.1575038       40.82595
2016    17      0       0.2675004       62.90477
2016    17      1       0.2882599       66.85871
2016    17      2       0.2525274       60.88154
2016    17      3       0.2862637       67.83497
2016    17      4       0.2888021       68.80752
2016    17      5       0.2177409       54.70691
2016    17      6       0.2667096       64.18799
2016    17      7       0.4132217       90.78351
2016    18      0       0.4218243       92.90902
2016    18      1       0.3875373       85.93725
2016    18      2       0.3905567       86.07896
2016    18      3       0.3203364       74.08457
2016    18      4       0.3419094       78.01277
2016    18      5       0.3932862       87.1699
2016    18      6       0.3099058       72.40583
2016    18      7       0.2470285       60.51017
2016    19      0       0.2288404       56.87027
2016    19      1       0.1980615       50.60412
2016    19      2       0.1844156       47.7359
2016    19      3       0.1763435       45.99491
2016    19      4       0.1800057       46.74045
2016    19      5       0.3178751       74.51976
2016    19      6       0.3364788       77.45712
2016    19      7       0.2797966       67.12733
2016    20      0       0.1811989       46.97669
2016    20      1       0.197392        50.7433
2016    20      2       0.2124219       54.10431
2016    20      3       0.223122        56.5514
2016    20      4       0.192937        50.29933
2016    20      5       0.1975848       51.10581
2016    20      6       0.288672        69.15469
2016    20      7       0.34058         78.51319
2016    21      0       0.4466598       96.13666
2016    21      1       0.5048863       105.5399
2016    21      2       0.3813082       84.82679
2016    21      3       0.3642325       81.35154
2016    21      4       0.3490816       78.38583
2016    21      5       0.2762364       65.05921
2016    21      6       0.248337        59.6932
2016    21      7       0.2366408       57.35591
2016    22      0       0.3123542       71.80786
2016    22      1       0.303481        70.16741
2016    22      2       0.1981803       49.59927
2016    22      3       0.1275285       34.59867
2016    22      4       0.1232423       33.80487
2016    22      5       0.1234153       33.7736
2016    22      6       0.1152052       31.90388
2016    22      7       0.1143671       31.79719
2016    23      0       0.1195059       32.9192
2016    23      1       0.1325607       35.78504
2016    23      2       0.1554054       40.6371
2016    23      3       0.1554285       40.60573
2016    23      4       0.1327668       35.93916
2016    23      5       0.1173455       32.73079
2016    23      6       0.1113801       31.49844
2016    23      7       0.1288981       35.54441
2016    24      0       0.1431052       38.72218
2016    24      1       0.145401        39.15092
2016    24      2       0.1351476       36.85994
2016    24      3       0.1224523       34.0222
2016    24      4       0.1024339       29.41761
2016    24      5       0.09666749      28.01069
2016    24      6       0.09786137      28.14959
2016    24      7       0.1047202       29.70488
2016    25      0       0.1197701       33.14115
2016    25      1       0.1313485       35.78697
2016    25      2       0.1335196       36.40767
2016    25      3       0.1295993       35.58611
2016    25      4       0.1260325       34.83022
2016    25      5       0.1260491       35.12201
2016    25      6       0.143182        39.33916
2016    25      7       0.1370836       38.15487
2016    26      0       0.1128536       32.56619
2016    26      1       0.09437835      28.15003
2016    26      2       0.09673013      28.83017
2016    26      3       0.09813948      29.28366
2016    26      4       0.1034944       30.58307
2016    26      5       0.105051        30.8803
2016    26      6       0.1031228       30.33627
2016    26      7       0.09706561      28.8971
2016    27      0       0.08906355      27.02409
2016    27      1       0.08701098      26.5054
2016    27      2       0.09392606      28.03568
2016    27      3       0.0917153       27.37278
2016    27      4       0.09590033      28.32341
2016    27      5       0.1142639       32.63286
2016    27      6       0.1292976       36.16546
2016    27      7       0.1302636       36.54288
2016    28      0       0.102204        29.9876
2016    28      1       0.09950777      29.35176
2016    28      2       0.1163152       33.36568
2016    28      3       0.1282438       36.10299
2016    28      4       0.119228        33.91593
2016    28      5       0.1009931       29.56417
2016    28      6       0.1181344       33.627
2016    28      7       0.169752        45.21329
2016    29      0       0.2035354       52.34068
2016    29      1       0.1745376       46.49029
2016    29      2       0.1878344       49.56098
2016    29      3       0.2362802       59.69286
2016    29      4       0.3011711       72.61754
2016    29      5       0.4452212       98.66683
2016    29      6       0.5686201       118.4541
2016    29      7       0.7084532       137.3283
2016    30      0       0.834868        152.3924
2016    30      1       0.9206041       161.3453
2016    30      2       0.8735144       156.3575
2016    30      3       0.725107        139.5356
2016    30      4       0.5908803       121.9464
2016    30      5       0.5745533       119.3087
2016    30      6       0.5881522       120.7871
2016    30      7       0.5366075       113.6743
2016    31      0       0.5489556       115.5845
2016    31      1       0.5554273       116.4007
2016    31      2       0.5299816       112.5209
2016    31      3       0.4787258       104.4142
2016    31      4       0.3925065       89.68334
2016    31      5       0.3652973       84.73286
2016    31      6       0.3744409       86.56493
2016    31      7       0.3850372       88.56454
2017    1       0       0.648688        127.4279
2017    1       1       0.6763823       131.5607
2017    1       2       0.6700333       131.6098
2017    1       3       0.6954766       135.1273
2017    1       4       0.5735877       118.4549
2017    1       5       0.3857007       89.20868
2017    1       6       0.3005033       73.51526
2017    1       7       0.2295864       59.01829
2017    2       0       0.2176937       56.84483
2017    2       1       0.204503        54.1493
2017    2       2       0.2047297       54.16995
2017    2       3       0.2448505       62.38103
2017    2       4       0.4299836       95.14595
2017    2       5       0.6342791       127.9649
2017    2       6       0.899609        160.191
2017    2       7       0.7710171       145.5004
2017    3       0       0.679056        133.9877
2017    3       1       0.6212284       126.3213
2017    3       2       0.5397864       114.8591
2017    3       3       0.6275875       127.5438
2017    3       4       0.7000807       137.2288
2017    3       5       0.664796        132.4093
2017    3       6       0.6465044       129.659
2017    3       7       0.64495         129.1715
2017    4       0       0.6619394       131.6379
2017    4       1       0.5751941       120.4519
2017    4       2       0.6855474       135.505
2017    4       3       0.7886919       148.4611
2017    4       4       0.7070823       139.0391
2017    4       5       0.7890272       149.9321
2017    4       6       0.7267661       142.0375
2017    4       7       0.8404324       153.9607
2017    5       0       0.7155603       138.8685
2017    5       1       0.6961638       135.9911
2017    5       2       0.6715574       132.7274
2017    5       3       0.6887262       134.7581
2017    5       4       0.7723146       144.7983
2017    5       5       0.7887268       146.971
2017    5       6       0.8446749       153.3728
2017    5       7       0.774945        145.4655
2017    6       0       0.6684856       131.903
2017    6       1       0.6956644       135.0118
2017    6       2       0.6175788       124.8826
2017    6       3       0.6456753       128.7727
2017    6       4       0.6723086       132.4223
2017    6       5       0.712675        137.5392
2017    6       6       0.6601829       130.5263
2017    6       7       0.6208125       125.0547
2017    7       0       0.7306131       139.6354
2017    7       1       0.8211003       150.2677
2017    7       2       0.666404        130.424
2017    7       3       0.5671126       116.3359
2017    7       4       0.4993794       105.9797
2017    7       5       0.4578954       99.21917
2017    7       6       0.433832        95.30574
2017    7       7       0.4824199       103.3644
2017    8       0       0.6726493       131.1268
2017    8       1       0.6003703       121.4357
2017    8       2       0.3585419       82.50231
2017    8       3       0.4633646       99.98191
2017    8       4       0.684104        132.1788
2017    8       5       0.645594        127.2392
2017    8       6       0.6326072       125.6675
2017    8       7       0.7010863       134.8283
2017    9       0       1.055751        174.1971
2017    9       1       1.01808         169.951
2017    9       2       0.9209957       159.6509
2017    9       3       0.8615822       153.2164
2017    9       4       0.6451557       126.5163
2017    9       5       0.4392011       95.37887
2017    9       6       0.3440898       78.76576
2017    9       7       0.3462686       79.39344
2017    10      0       0.7834905       143.5795
2017    10      1       0.6368819       125.1247
2017    10      2       0.4324337       93.68775
2017    10      3       0.8296353       148.9809
2017    10      4       0.9144404       159.3394
2017    10      5       1.008935        168.4814
2017    10      6       1.006048        168.1048
2017    10      7       1.032924        170.4608
2017    11      0       0.9654166       163.756
2017    11      1       0.7241385       137.0711
2017    11      2       0.6268069       123.9816
2017    11      3       1.457782        201.4842
2017    11      4       0.9640351       162.639
2017    11      5       0.6997419       132.8765
2017    11      6       0.6412145       125.256
2017    11      7       0.467553        99.88779
2017    12      0       0.3076114       72.24968
2017    12      1       0.2578452       62.78034
2017    12      2       0.2566311       62.63007
2017    12      3       0.2249545       56.42328
2017    12      4       0.1602179       42.84667
2017    12      5       0.1256576       35.17641
2017    12      6       0.1214313       34.28782
2017    12      7       0.1736744       46.09197
2017    13      0       0.3652658       84.70244
2017    13      1       0.4835276       104.9221
2017    13      2       0.8016456       148.0731
2017    13      3       1.148498        182.8956
2017    13      4       1.029849        172.1396
2017    13      5       0.8895823       157.5783
2017    13      6       0.423589        93.67015
2017    13      7       0.4342265       95.28098
2017    14      0       0.3786362       85.63673
2017    14      1       0.3494995       80.16377
2017    14      2       0.3658307       82.85023
2017    14      3       0.5471666       112.2225
2017    14      4       0.6534245       127.1942
2017    14      5       0.6202878       122.7404
2017    14      6       0.4687207       99.87373
2017    14      7       0.4119641       90.40118
2017    15      0       0.3210919       74.38658
2017    15      1       0.2676326       64.25264
2017    15      2       0.2787467       66.26892
2017    15      3       0.2965555       69.56996
2017    15      4       0.2941612       69.11104
2017    15      5       0.3020565       70.57166
2017    15      6       0.3220283       74.12753
2017    15      7       0.3128553       72.46881
2017    16      0       0.3591075       80.64315
2017    16      1       0.3109989       71.88125
2017    16      2       0.262924        62.94005
2017    16      3       0.258931        62.28116
2017    16      4       0.2723026       64.88385
2017    16      5       0.3086299       71.68651
2017    16      6       0.4184737       90.92545
2017    16      7       0.3328299       76.00836
2017    17      0       0.3588642       80.63329
2017    17      1       0.3824751       84.74839
2017    17      2       0.5015354       104.1566
2017    17      3       0.5753254       114.9172
2017    17      4       0.5484003       111.1142
2017    17      5       0.5163175       106.3804
2017    17      6       0.4803162       100.8369
2017    17      7       0.3608612       80.88918
2017    18      0       0.2973199       69.35838
2017    18      1       0.3003909       69.80528
2017    18      2       0.2935641       68.37461
2017    18      3       0.2949989       68.61798
2017    18      4       0.318274        72.94706
2017    18      5       0.353243        79.27674
2017    18      6       0.3606617       80.55664
2017    18      7       0.3917853       85.8353
2017    19      0       0.4747282       99.28628
2017    19      1       0.4760065       99.39751
2017    19      2       0.4063148       88.01262
2017    19      3       0.3165          72.3219
2017    19      4       0.2841603       66.38745
2017    19      5       0.2806798       65.70478
2017    19      6       0.2496387       59.7405
2017    19      7       0.2148358       52.86885
2017    20      0       0.2201608       53.88695
2017    20      1       0.2811993       65.59077
2017    20      2       0.2332933       56.25123
2017    20      3       0.2388241       57.23347
2017    20      4       0.2421985       57.81652
2017    20      5       0.2653535       62.2109
2017    20      6       0.2329002       55.96114
2017    20      7       0.2313456       55.76294
2017    21      0       0.311015        70.83866
2017    21      1       0.2132974       52.34682
2017    21      2       0.1463824       38.60553
2017    21      3       0.1712138       44.05457
2017    21      4       0.1752882       44.99092
2017    21      5       0.1797151       45.9464
2017    21      6       0.1901682       48.13573
2017    21      7       0.2018956       50.50725
2017    22      0       0.2105236       52.28142
2017    22      1       0.2209699       54.44232
2017    22      2       0.2419586       58.60163
2017    22      3       0.26638         63.358
2017    22      4       0.292786        68.44506
2017    22      5       0.3341644       76.25232
2017    22      6       0.3669298       82.14634
2017    22      7       0.3534114       79.59722
2017    23      0       0.2611943       62.65717
2017    23      1       0.2156934       53.59154
2017    23      2       0.1794919       45.78131
2017    23      3       0.1672607       43.01257
2017    23      4       0.1553395       40.58931
2017    23      5       0.1312698       35.53524
2017    23      6       0.1011142       28.74817
2017    23      7       0.07977047      23.69009
2017    24      0       0.08825483      25.53892
2017    24      1       0.1241549       33.74359
2017    24      2       0.1797514       45.98325
2017    24      3       0.1788544       45.91893
2017    24      4       0.3339286       75.45862
2017    24      5       0.2648525       62.87293
2017    24      6       0.1776264       45.41458
2017    24      7       0.1332072       35.6513
2017    25      0       0.3353081       76.00981
2017    25      1       0.3681112       81.80927
2017    25      2       0.4043444       88.47695
2017    25      3       0.4231524       91.89273
2017    25      4       0.4017977       88.13774
2017    25      5       0.504939        104.6533
2017    25      6       0.5482091       112.0706
2017    25      7       0.4650174       100.0113
2017    26      0       0.4048564       89.95943
2017    26      1       0.5110081       106.4439
2017    26      2       0.4611192       99.02966
2017    26      3       0.4955013       104.6648
2017    26      4       0.5581338       114.2005
2017    26      5       0.4799536       102.8269
2017    26      6       0.5276007       110.3382
2017    26      7       0.5304977       110.7492
2017    27      0       0.584883        119.104
2017    27      1       0.6119474       123.4179
2017    27      2       0.4951964       106.3287
2017    27      3       0.4883933       105.0489
2017    27      4       0.490677        105.1317
2017    27      5       0.6272355       124.6394
2017    27      6       0.6774998       131.3516
2017    27      7       0.5505226       113.6311
2017    28      0       0.8234884       149.8182
2017    28      1       0.6500858       127.8765
2017    28      2       0.80313         146.8975
2017    28      3       0.6569531       128.3178
2017    28      4       0.3042715       71.932
2017    28      5       0.2391455       58.99516
2017    28      6       0.2939666       69.50418
2017    28      7       0.3250555       75.78402
2017    29      0       0.3719485       84.33486
2017    29      1       0.4644547       99.90345
2017    29      2       0.4841926       102.8123
2017    29      3       0.4366376       95.39764
2017    29      4       0.4577629       98.65303
2017    29      5       0.4566254       98.91008
2017    29      6       0.454437        98.41125
2017    29      7       0.4079753       90.1011
2017    30      0       0.4490282       97.11221
2017    30      1       0.3318504       77.83568
2017    30      2       0.3167862       75.24227
2017    30      3       0.3276038       77.29704
2017    30      4       0.4367763       96.16613
2017    30      5       0.8786395       156.4273
2017    30      6       1.08462         177.3043
2017    30      7       1.11152         180.1688
2017    31      0       0.9213773       160.8342
2017    31      1       0.6857784       133.0724
2017    31      2       0.5799466       118.0335
2017    31      3       0.4839087       103.4997
2017    31      4       0.3167833       75.19206
2017    31      5       0.357874        82.03055
2017    31      6       0.3530686       80.85025
2017    31      7       0.2792151       66.96008
2018    1       0       0.2099536       54.60169
2018    1       1       0.2204764       56.97771
2018    1       2       0.2421669       61.38148
2018    1       3       0.2331139       59.2825
2018    1       4       0.2518178       62.95854
2018    1       5       0.2263164       57.84288
2018    1       6       0.2003733       53.05566
2018    1       7       0.1099132       32.44093
2018    2       0       0.08177298      25.54684
2018    2       1       0.08789397      27.07823
2018    2       2       0.1501253       42.22057
2018    2       3       0.1761266       48.11849
2018    2       4       0.1821991       49.41588
2018    2       5       0.1771227       48.2015
2018    2       6       0.1874007       50.31454
2018    2       7       0.2092746       54.80992
2018    3       0       0.2256046       58.01982
2018    3       1       0.2220617       57.05378
2018    3       2       0.2166366       55.80691
2018    3       3       0.2189367       56.24916
2018    3       4       0.2401039       60.62795
2018    3       5       0.2605672       64.68163
2018    3       6       0.2387794       59.88818
2018    3       7       0.2577409       63.47069
2018    4       0       0.3341414       78.58439
2018    4       1       0.3645899       84.46571
2018    4       2       0.3754311       86.42053
2018    4       3       0.4010443       91.00223
2018    4       4       0.4389621       97.54012
2018    4       5       0.5090282       109.0028
2018    4       6       0.5951179       121.9182
2018    4       7       0.595689        122.1787
2018    5       0       0.5848204       120.4868
2018    5       1       0.5886086       121.0205
2018    5       2       0.5531472       116.0107
2018    5       3       0.5319591       112.7903
2018    5       4       0.5028693       108.4896
2018    5       5       0.4701028       103.4522
2018    5       6       0.4618962       102.1114
2018    5       7       0.4766109       104.5109
2018    6       0       0.508721        109.5536
2018    6       1       0.5255918       112.0734
2018    6       2       0.5110347       109.6611
2018    6       3       0.5056087       108.6876
2018    6       4       0.4960354       107.0498
2018    6       5       0.4674731       102.3055
2018    6       6       0.4087505       92.25887
2018    6       7       0.2666993       65.67573
2018    7       0       0.1936615       50.58889
2018    7       1       0.1799537       47.76701
2018    7       2       0.2029645       52.68226
2018    7       3       0.21043         54.25097
2018    7       4       0.2247188       57.24224
2018    7       5       0.2525058       63.02566
2018    7       6       0.3068662       73.79214
2018    7       7       0.3363327       79.41601
2018    8       0       0.3653458       84.62535
2018    8       1       0.3769731       86.53603
2018    8       2       0.5206921       110.1524
2018    8       3       0.6404991       127.1112
2018    8       4       0.6490264       127.6197
2018    8       5       0.3362597       78.0155
2018    8       6       0.1542173       41.43136
2018    8       7       0.139004        38.04071
2018    9       0       0.2601891       63.85449
2018    9       1       0.328996        77.24084
2018    9       2       0.3252168       76.82686
2018    9       3       0.3178766       75.52296
2018    9       4       0.2887311       69.87659
2018    9       5       0.1803201       47.56811
2018    9       6       0.1127597       32.32795
2018    9       7       0.1099992       31.69193
2018    10      0       0.1824876       48.22338
2018    10      1       0.2470139       61.86938
2018    10      2       0.2680302       66.24489
2018    10      3       0.3017062       72.65055
2018    10      4       0.4401284       97.27433
2018    10      5       0.6503859       129.6525
2018    10      6       0.7176612       139.3049
2018    10      7       0.7566716       144.6607
2018    11      0       0.9863478       169.1112
2018    11      1       0.6163605       125.3639
2018    11      2       0.6198833       125.7464
2018    11      3       0.6563766       129.798
2018    11      4       1.092248        177.4131
2018    11      5       0.9227721       160.5706
2018    11      6       0.9982076       168.5899
2018    11      7       0.9927073       168.2062
2018    12      0       0.9097576       159.4252
2018    12      1       0.7927982       146.329
2018    12      2       0.6436701       127.3064
2018    12      3       0.5345553       111.6712
2018    12      4       0.4746889       102.4883
2018    12      5       0.3751052       85.91628
2018    12      6       0.2923881       70.83353
2018    12      7       0.3222066       76.5472
2018    13      0       0.5176373       109.8376
2018    13      1       0.510304        108.756
2018    13      2       0.5941514       121.3126
2018    13      3       0.6651825       130.7283
2018    13      4       0.7108177       136.7698
2018    13      5       0.7244663       138.7509
2018    13      6       0.7113151       137.4285
2018    13      7       0.7924265       146.9772
2018    14      0       0.6892222       134.6065
2018    14      1       0.9860123       168.9567
2018    14      2       1.07798         176.2999
2018    14      3       0.7362557       139.2555
2018    14      4       0.6553037       128.7763
2018    14      5       0.5991012       120.9801
2018    14      6       0.3496256       80.64611
2018    14      7       0.304113        72.25894
2018    15      0       0.3090084       73.30906
2018    15      1       0.27469         66.68102
2018    15      2       0.2513813       62.06764
2018    15      3       0.2727763       66.19782
2018    15      4       0.3190946       75.33995
2018    15      5       0.2794644       68.22167
2018    15      6       0.2055185       52.91943
2018    15      7       0.2088318       53.49138
2018    16      0       0.9007711       160.3246
2018    16      1       1.006884        171.0881
2018    16      2       0.9349384       164.9535
2018    16      3       0.8618454       157.1176
2018    16      4       0.8567146       156.493
2018    16      5       0.9824944       169.0795
2018    16      6       0.6681902       132.739
2018    16      7       0.5685559       118.5074
2018    17      0       0.606362        123.7474
2018    17      1       0.5915706       121.9818
2018    17      2       0.6271085       126.5892
2018    17      3       0.5984632       122.1979
2018    17      4       0.5085266       108.4117
2018    17      5       0.4389907       97.19856
2018    17      6       0.5904041       120.8196
2018    17      7       0.5150127       109.1786
2018    18      0       0.4653686       101.4384
2018    18      1       0.4669347       101.4939
2018    18      2       0.506338        107.5432
2018    18      3       0.5806049       118.3797
2018    18      4       0.6370221       126.168
2018    18      5       0.5096771       107.9339
2018    18      6       0.4362884       96.20394
2018    18      7       0.4712242       101.8215
2018    19      0       0.4632842       100.5415
2018    19      1       0.4259777       94.41765
2018    19      2       0.4390103       96.87237
2018    19      3       0.4030784       90.85919
2018    19      4       0.2904958       70.1514
2018    19      5       0.3076174       73.45015
2018    19      6       0.4024559       90.15635
2018    19      7       0.6390341       125.8329
2018    20      0       0.7365006       138.7386
2018    20      1       0.5729327       117.1505
2018    20      2       0.6036761       121.9505
2018    20      3       0.6084965       122.6961
2018    20      4       0.5458414       113.7058
2018    20      5       0.5756598       117.8195
2018    20      6       0.6822623       132.5831
2018    20      7       0.5663743       116.2013
2018    21      0       0.5754943       117.4913
2018    21      1       0.4610463       100.1469
2018    21      2       0.3989681       90.00386
2018    21      3       0.338442        79.21612
2018    21      4       0.3837059       86.84754
2018    21      5       0.6523797       129.1761
2018    21      6       0.6571551       129.5556
2018    21      7       0.4344822       96.84947
2018    22      0       0.3462052       81.22425
2018    22      1       0.3768926       86.47606
2018    22      2       0.405315        91.27624
2018    22      3       0.4193695       93.52068
2018    22      4       0.3936371       89.01782
2018    22      5       0.3606242       82.94787
2018    22      6       0.3302745       77.33291
2018    22      7       0.3113858       74.08304
2018    23      0       0.2693583       66.22644
2018    23      1       0.2369797       59.63739
2018    23      2       0.1624629       43.77187
2018    23      3       0.1583575       42.91974
2018    23      4       0.2117346       54.5612
2018    23      5       0.4203932       93.83154
2018    23      6       0.6790282       132.7782
2018    23      7       0.9551114       166.8058
2018    24      0       0.9359598       164.0967
2018    24      1       0.4738372       103.605
2018    24      2       0.4013641       90.89003
2018    24      3       0.5568199       115.8
2018    24      4       0.4815614       104.4405
2018    24      5       0.4619531       101.1614
2018    24      6       0.4765494       103.3801
2018    24      7       0.4774905       103.5162
2018    25      0       0.454121        99.90843
2018    25      1       0.4224977       94.67533
2018    25      2       0.3626829       84.37383
2018    25      3       0.3065065       73.72537
2018    25      4       0.3505311       81.86937
2018    25      5       0.4003108       90.45877
2018    25      6       0.6298991       125.1732
2018    25      7       0.8075505       148.3208
2018    26      0       0.6963167       135.0822
2018    26      1       0.536033        112.9126
2018    26      2       0.565202        116.8514
2018    26      3       0.5597837       115.8822
2018    26      4       0.5070277       108.0934
2018    26      5       0.5196154       109.6943
2018    26      6       0.5737745       117.1973
2018    26      7       0.5857031       118.6387
2018    27      0       0.5628821       115.3494
2018    27      1       0.5394719       112.0334
2018    27      2       0.5689496       116.3262
2018    27      3       0.5900589       119.5479
2018    27      4       0.5856979       119.3071
2018    27      5       0.4622665       100.089
2018    27      6       0.4241835       93.73679
2018    27      7       0.5219589       109.6114
2018    28      0       0.5180098       109.1012
2018    28      1       0.5052055       107.2441
2018    28      2       0.5237375       109.6964
2018    28      3       0.3992924       89.55055
2018    28      4       0.3888879       87.83593
2018    28      5       0.4319416       94.98023
2018    28      6       0.8315614       149.3855
2018    28      7       0.7170197       134.7915
2018    29      0       0.6422155       125.4532
2018    29      1       0.5536829       113.0538
2018    29      2       0.5333456       109.7391
2018    29      3       0.3945519       87.06483
2018    29      4       0.3088493       72.02434
2018    29      5       0.2449122       59.84982
2018    29      6       0.2221113       55.16354
2018    29      7       0.1801784       46.15934
2018    30      0       0.1945949       49.25232
2018    30      1       0.2261226       55.47249
2018    30      2       0.3740225       82.8848
2018    30      3       0.4976819       103.2442
2018    30      4       0.4393256       93.9263
2018    30      5       0.3213592       73.61318
2018    30      6       0.2439435       58.98277
2018    30      7       0.232296        56.54172
2018    31      0       0.2269192       55.31447
2018    31      1       0.1970157       49.31771
2018    31      2       0.1518406       39.82643
2018    31      3       0.1099741       30.60901
2018    31      4       0.09011686      26.08754
2018    31      5       0.09545816      27.32225
2018    31      6       0.1540093       40.46141
2018    31      7       0.2257017       55.50579
