####################################################################################################
# Month: 04Apr                                                                                     #
# Station: PAM                                                                                     #
# Frequency: 345 GHz                                                                               #
# Columns are: year    day     tau     Tb (K)                                                      #
####################################################################################################
2009    1       0.51599316      106.1946675
2009    2       0.47792269      100.30590125
2009    3       0.4079212       88.531665
2009    4       0.17395439      45.6138
2009    5       0.48414541      101.6847525
2009    6       0.53704786      108.91082125
2009    7       0.45813031      96.89446125
2009    8       0.48264671      100.75287125
2009    9       0.30846736      70.89852375
2009    10      0.3490021       79.33046375
2009    11      0.6223021       120.47476125
2009    12      0.67801086      128.8115
2009    13      0.62041789      121.52525
2009    14      0.64372785      124.82245125
2009    15      0.57098384      113.54392125
2009    16      0.27934146      65.58852
2009    17      0.42780987      92.382255
2009    18      0.34970449      79.61
2009    19      0.50061761      101.5789825
2009    20      0.60476089      118.46321625
2009    21      0.55453687      111.6716
2009    22      0.39402537      86.0209425
2009    23      0.3177993       72.83971875
2009    24      0.26117502      62.96556375
2009    25      0.33633012      75.535495
2009    26      0.47861275      100.76381875
2009    27      0.60040944      118.34301375
2009    28      0.41224854      88.825965
2009    29      0.20891335      53.17554125
2009    30      0.3961406       88.0933525
2010    1       0.30319383      70.0118875
2010    2       0.3991256       86.75458625
2010    3       0.49057858      101.7329775
2010    4       0.2400178       58.63603375
2010    5       0.28595314      67.4882875
2010    6       0.23308245      57.65221875
2010    7       0.5269632       108.0241175
2010    8       0.47831684      100.23629125
2010    9       0.40581062      88.19663375
2010    10      0.47895756      98.458095
2010    11      0.52690152      106.2246675
2010    12      0.33538013      75.58164625
2010    13      0.26357432      63.293365
2010    14      0.41482201      89.3985275
2010    15      0.59404462      117.2496425
2010    16      0.53343949      108.1801775
2010    17      0.70302599      131.8924875
2010    18      0.67669745      125.4068275
2010    19      0.16191278      44.02898
2010    20      0.4456423       91.30402875
2010    21      0.6024577       118.65184875
2010    22      0.59587395      117.36387625
2010    23      0.62450217      120.66132375
2010    24      0.34733335      78.47961125
2010    25      0.49365439      102.6863825
2010    26      0.44452179      94.7773725
2010    27      0.74239559      137.4354625
2010    28      0.50062591      104.25604875
2010    29      0.69717125      131.1983175
2010    30      0.79495551      143.7363375
2011    1       0.45544848      95.65180125
2011    2       0.34092626      76.43
2011    3       0.23103566      56.51383125
2011    4       0.16330218      42.63100625
2011    5       0.09625998      28.66621125
2011    6       0.09681368      29.04917875
2011    7       0.10434451      30.87943875
2011    8       0.31858202      71.96266625
2011    9       0.50638959      104.5638025
2011    10      0.62003541      120.92935
2011    11      0.51494253      105.5759225
2011    12      0.34560289      78.71372375
2011    13      0.28573124      68.63159375
2011    14      0.25914704      63.93791125
2011    15      0.5757322       113.79392375
2011    16      0.67607629      128.2257625
2011    17      0.70204309      131.1152625
2011    18      0.59253381      116.8614125
2011    19      0.42246764      90.378285
2011    20      0.21138348      53.208845
2011    21      0.21385005      54.3909475
2011    22      0.22638639      57.00012375
2011    23      0.20786908      53.92384625
2011    24      0.20864256      54.165955
2011    25      0.32681551      77.1179675
2011    26      0.3707863       84.73456875
2011    27      0.39090139      87.653485
2011    28      0.72351594      135.9061375
2011    29      0.68510961      127.3680975
2011    30      0.22463379      56.9125125
2012    1       0.60296039      119.45755
2012    2       0.32151454      74.0814325
2012    3       0.37791386      84.34457125
2012    4       0.30727103      71.91405125
2012    5       0.34542536      78.26463625
2012    6       0.32194522      74.00304875
2012    7       0.26894745      64.43008375
2012    8       0.41865711      89.302115
2012    9       0.42424071      91.544695
2012    10      0.38439125      84.3439775
2012    11      0.46607196      97.8709575
2012    12      0.40623415      88.11357875
2012    13      0.38028634      83.77913875
2012    14      0.34509059      77.64529
2012    15      0.41164146      88.836045
2012    16      0.33008181      75.2542325
2012    17      0.2069409       53.14931125
2012    18      0.21676658      55.24496875
2012    19      0.27970419      67.7190175
2012    20      0.65209087      125.67685875
2012    21      0.59232902      116.72135125
2012    22      0.52670705      107.77639625
2012    23      0.68283429      129.7406875
2012    24      0.58365175      116.5936325
2012    25      0.5038551       105.09502875
2012    26      0.70212706      132.4627
2012    27      0.78494326      142.1385125
2012    28      0.7097966       132.6999125
2012    29      0.57536415      113.8576125
2012    30      0.49933794      103.00429125
2013    1       0.37488412      82.60182375
2013    2       0.20524152      51.20011875
2013    3       0.35829526      79.30318
2013    4       0.42847951      91.5729225
2013    5       0.2861636       66.86167125
2013    6       0.28207806      66.36130875
2013    7       0.34410294      76.10061625
2013    8       0.31289455      68.6188475
2013    9       0.73663204      135.9154
2013    10      0.46883621      97.69207125
2013    11      0.193574        50.1464775
2013    12      0.36730374      82.9728
2013    13      0.55847459      112.89387625
2013    14      0.52330922      107.72753625
2013    15      0.43766831      93.67335
2013    16      0.45634175      93.0509325
2013    17      0.17613225      45.923605
2013    18      0.34875978      78.97281375
2013    19      0.44807831      95.18257625
2013    20      0.51902836      106.3252475
2013    21      0.28261295      67.57346125
2013    22      0.45488599      97.6773625
2013    23      0.57594909      115.133855
2013    24      0.57874384      114.93813125
2013    25      0.47882607      100.490485
2013    26      0.55059145      110.837345
2013    27      0.48672147      101.49670375
2013    28      0.49620399      102.59481125
2013    29      0.49083891      101.75630125
2013    30      0.39417051      86.658325
2014    1       0.26290464      63.44427625
2014    2       0.4663185       97.46769
2014    3       0.36142769      79.51164625
2014    4       0.54580849      109.31659
2014    5       0.63626753      122.77281625
2014    6       0.59894158      117.678925
2014    7       0.30856241      70.67251625
2014    8       0.11136452      32.24878
2014    9       0.10447806      30.4446225
2014    10      0.3667765       81.47883375
2014    11      0.32588789      74.430255
2014    12      0.31646197      72.53742125
2014    13      0.17678266      46.0892
2014    14      0.1801397       46.7650725
2014    15      0.37596592      83.78229625
2014    16      0.57543921      114.47928375
2014    17      0.46959738      98.56661125
2014    18      0.44627591      94.94172875
2014    19      0.31078444      71.09307875
2014    20      0.2586228       61.48424
2014    21      0.34684954      78.436025
2014    22      0.4620576       97.44566125
2014    23      0.40704244      89.1603325
2014    24      0.3605974       80.68832125
2014    25      0.55318876      110.98845375
2014    26      0.29477595      69.6426
2014    27      0.35319174      79.83296625
2014    28      0.33474992      76.75186125
2014    29      0.58051172      115.6302125
2014    30      0.70939845      133.8813125
2015    1       0.54932964      108.69165875
2015    2       0.2665078       62.6638525
2015    3       0.30797026      71.28903375
2015    4       0.2235933       55.4573825
2015    5       0.23431369      56.8162275
2015    6       0.36042631      80.9445
2015    7       0.39631851      86.86261
2015    8       0.29053811      68.367415
2015    9       0.18767184      48.5879225
2015    10      0.17643684      46.2117875
2015    11      0.38390793      83.89351
2015    12      0.21765024      54.6391175
2015    13      0.30881415      72.76278
2015    14      0.61990775      122.611125
2015    15      0.61267362      120.01740375
2015    16      0.24339904      59.73775875
2015    17      0.3650648       81.31727375
2015    18      0.40296671      87.11901125
2015    19      0.6552158       125.59754
2015    20      0.36053156      80.60268375
2015    21      0.16045421      43.54118875
2015    22      0.21761529      55.66710625
2015    23      0.21272846      55.2158375
2015    24      0.44977395      95.70187625
2015    25      0.41123012      89.9551675
2015    26      0.5361715       108.1852475
2015    27      0.17135335      45.81009375
2015    28      0.18140191      47.3314
2015    29      0.24435911      59.15218625
2015    30      0.59658298      117.18233625
2016    1       0.67280168      126.99885
2016    2       0.87418531      152.748575
2016    3       0.73463965      135.7170375
2016    4       0.26069854      63.37620875
2016    5       0.30424086      71.09251625
2016    6       0.33294582      75.2092075
2016    7       0.19243506      49.36236
2016    8       0.3037033       70.05364375
2016    9       0.39996078      86.56797
2016    10      0.30755002      70.62208875
2016    11      0.45436509      96.2540025
2016    12      0.3034751       69.926765
2016    13      0.16281702      43.80050125
2016    14      0.27486985      63.04784875
2016    15      0.87787494      153.7603125
2016    16      0.55828265      112.60190875
2016    17      0.70009681      132.501
2016    18      0.51947651      107.45885
2016    19      0.56072869      112.98126
2016    20      0.57652091      115.8954625
2016    21      0.631333        123.199975
2016    22      0.64062439      123.7584625
2016    23      0.58403426      115.6673625
2016    24      0.56021011      112.821475
2016    25      0.52547555      107.53375
2016    26      0.46852805      98.61991125
2016    27      0.27191631      64.98496125
2016    28      0.34736106      78.76901375
2016    29      0.2562122       63.05962125
2016    30      0.21245136      54.72003875
2017    1       0.3077927       71.04900125
2017    2       0.3940778       86.45012625
2017    3       0.42487041      89.51403375
2017    4       0.57750561      114.3408875
2017    5       0.4337281       92.24179375
2017    6       0.42536606      90.55944625
2017    7       0.37262738      82.31029
2017    8       0.29517326      68.47328625
2017    9       0.18589086      48.07304375
2017    10      0.26247826      62.69225625
2017    11      0.33947645      77.395535
2017    12      0.43087858      93.00662
2017    13      0.3800086       81.86613625
2017    14      0.2653517       64.1222675
2017    15      0.44419919      96.49485
2017    16      0.33708855      79.34838125
2017    17      0.3520122       80.85172375
2017    18      0.85570252      150.8253125
2017    19      0.46649096      98.95380375
2017    20      0.45988172      95.77056375
2017    21      0.62335026      121.848255
2017    22      0.69035234      130.348825
2017    23      0.5667745       113.13183
2017    24      0.5100018       102.4362975
2017    25      0.2692202       64.9357675
2017    26      0.26974178      64.91691375
2017    27      0.54711072      111.123845
2017    28      0.43373005      93.759095
2017    29      0.21532488      54.29589875
2017    30      0.18736535      48.71415625
2018    1       0.60906358      122.17865
2018    2       0.6398014       125.568475
2018    3       0.68686341      130.30275625
2018    4       0.25725842      63.3962075
2018    5       0.27328978      66.4096575
2018    6       0.30511589      72.24695875
2018    7       0.6432372       124.59008
2018    8       0.73612617      137.2203125
2018    9       0.6706064       127.4822375
2018    10      0.4104891       87.85893625
2018    11      0.18628126      47.9672425
2018    12      0.25941915      62.22378375
2018    13      0.12610027      35.90039
2018    14      0.37975185      83.98069625
2018    15      0.55477355      112.9241025
2018    16      0.83427929      148.718875
2018    17      0.6204584       121.688225
2018    18      0.58787019      115.77207875
2018    19      0.53933171      109.34663875
2018    20      0.56383734      112.32427875
2018    21      0.37114011      83.086225
2018    22      0.2108291       53.63766125
2018    23      0.31228266      73.37570625
2018    24      0.30078568      71.44226875
2018    25      0.62559857      121.7383225
2018    26      0.20379779      52.55646875
2018    27      0.28322881      67.50600375
2018    28      0.14131633      38.76865875
2018    29      0.15677097      42.2880025
2018    30      0.33177389      77.36658
