####################################################################################################
# Month: 04Apr                                                                                     #
# Station: YBG                                                                                     #
# Frequency: 345 GHz                                                                               #
# Columns are: year    day     tau     Tb (K)                                                      #
####################################################################################################
2009    1       0.26382504      64.33351
2009    2       0.36349466      82.86600375
2009    3       0.67136644      130.0806375
2009    4       0.39075149      86.5171325
2009    5       0.20063854      53.02291
2009    6       0.41515348      89.1065375
2009    7       0.40433579      88.98855875
2009    8       0.29121854      70.01504125
2009    9       0.39692809      86.990685
2009    10      0.42323284      92.6440475
2009    11      0.47972979      102.05776875
2009    12      0.26904942      66.047345
2009    13      0.66071999      127.0339325
2009    14      0.44079262      97.071675
2009    15      0.34992219      82.78831125
2009    16      0.40172089      92.1866
2009    17      0.60546287      121.16640125
2009    18      0.39413379      89.29433375
2009    19      0.4210383       93.8816775
2009    20      0.43674376      96.7090875
2009    21      0.47868162      103.28831625
2009    22      0.38211708      88.5991975
2009    23      0.33689344      79.79656125
2009    24      0.20834454      55.48033125
2009    25      0.16879434      46.67644875
2009    26      0.2438038       61.578095
2009    27      0.28130574      68.37831625
2009    28      0.39225351      87.95680625
2009    29      0.5734482       118.23195
2009    30      0.74718155      141.59345
2010    1       0.45032652      96.808335
2010    2       0.30179035      71.7707725
2010    3       0.28685229      69.17374
2010    4       0.36230119      82.47472
2010    5       0.24251891      60.63487
2010    6       0.28382955      68.90672125
2010    7       0.25968899      64.2371475
2010    8       0.27855388      68.3035775
2010    9       0.35760949      82.57717875
2010    10      0.41023934      90.25586
2010    11      0.34906702      80.9498
2010    12      0.44569441      97.80006
2010    13      0.39483601      87.80111
2010    14      0.24911334      61.43394125
2010    15      0.24416122      60.83191375
2010    16      0.35965048      81.696975
2010    17      0.44943635      95.95155375
2010    18      0.68626604      129.17614
2010    19      0.68166571      132.430925
2010    20      0.66088498      129.242375
2010    21      0.42955774      95.31335625
2010    22      0.34766271      81.1689475
2010    23      0.33847946      78.42292375
2010    24      0.49093831      103.50907125
2010    25      0.47848256      101.61309375
2010    26      0.23484768      58.35444375
2010    27      0.19222614      50.10808125
2010    28      0.27857255      66.6084475
2010    29      0.82045872      148.1045875
2010    30      0.82170946      149.917125
2011    1       0.35812985      83.23213875
2011    2       0.25147409      63.08785125
2011    3       0.33044334      77.16173625
2011    4       0.43734659      94.80615375
2011    5       0.2275938       57.31889875
2011    6       0.26609465      64.07624375
2011    7       0.36477191      81.71913875
2011    8       0.47020067      99.29544125
2011    9       0.5161542       107.2283875
2011    10      0.56498518      114.7280125
2011    11      0.49327695      103.5596125
2011    12      0.62783236      121.2386425
2011    13      0.76294489      140.5116125
2011    14      0.53449361      110.7055625
2011    15      0.72649846      136.1401125
2011    16      0.42558349      91.259865
2011    17      0.19171591      50.68825625
2011    18      0.555004        114.46169375
2011    19      0.48666258      103.76828375
2011    20      0.37929615      84.23053375
2011    21      0.32610055      77.18927625
2011    22      0.33102161      77.738385
2011    23      0.53113965      109.10408375
2011    24      0.66353381      128.315
2011    25      0.66199932      128.0631125
2011    26      0.35236552      81.77220125
2011    27      0.39448246      88.55605625
2011    28      0.38599562      87.91285125
2011    29      0.36460747      84.577535
2011    30      0.71743531      135.12695375
2012    1       0.14695932      40.83715375
2012    2       0.2266473       56.41521875
2012    3       0.71707271      134.4120125
2012    4       0.77766575      143.059325
2012    5       0.68896025      132.2828
2012    6       0.67933815      130.435825
2012    7       0.70200102      132.4486375
2012    8       0.39403086      87.9062575
2012    9       0.29199664      69.2757
2012    10      0.42927669      93.83525375
2012    11      0.549387        112.95915625
2012    12      0.53628529      110.83040625
2012    13      0.37660714      85.17594625
2012    14      0.58936439      118.3247275
2012    15      0.56789595      115.7778
2012    16      0.45431675      97.15841875
2012    17      0.56928445      115.44021875
2012    18      0.63538981      124.7336
2012    19      0.35385001      81.16914125
2012    20      0.34244342      79.2795225
2012    21      0.72591921      133.42629
2012    22      0.49476704      105.37912625
2012    23      0.53126944      109.7485625
2012    24      0.6109231       121.242825
2012    25      0.74992789      139.9930875
2012    26      0.55022662      113.60885
2012    27      0.61227638      122.139975
2012    28      0.66141782      128.674075
2012    29      0.56816538      115.71860625
2012    30      0.46967035      99.5682425
2013    1       0.56658252      114.7296125
2013    2       0.3857843       85.86708875
2013    3       0.45693376      97.652465
2013    4       0.65064571      126.6486625
2013    5       0.43606379      93.76361625
2013    6       0.32902432      76.76672375
2013    7       0.31296425      73.51413625
2013    8       0.40980106      90.62869
2013    9       0.42332735      93.52518125
2013    10      0.51920705      107.192145
2013    11      0.49892728      104.2326825
2013    12      0.45262185      97.677805
2013    13      0.33788695      78.88783375
2013    14      0.30823566      72.6741725
2013    15      0.54431654      111.540835
2013    16      0.562142        114.4050675
2013    17      0.85315066      151.5975125
2013    18      0.5027656       104.65349125
2013    19      0.50719914      106.778825
2013    20      0.83717019      147.8500125
2013    21      0.86817868      153.58965
2013    22      0.90867719      157.6494625
2013    23      0.70005256      133.8313625
2013    24      0.74475012      139.5371375
2013    25      0.59335774      119.8901325
2013    26      0.78411259      141.96265
2013    27      0.73150572      133.28269875
2013    28      0.46787425      101.62836375
2013    29      0.59145726      121.3863375
2013    30      0.71589034      138.1025875
2014    1       0.49150241      102.70741375
2014    2       0.51107889      105.78693125
2014    3       0.51729366      107.4853
2014    4       0.38792051      84.019615
2014    5       0.43367782      92.68838
2014    6       0.61861294      119.51918375
2014    7       0.57524791      117.70953875
2014    8       0.33307832      77.37115625
2014    9       0.27654776      67.68788625
2014    10      0.29428521      69.09415
2014    11      0.43724594      94.66062875
2014    12      0.55796332      112.7869125
2014    13      0.53763676      110.022625
2014    14      0.49758166      104.5101675
2014    15      0.3790589       85.26155125
2014    16      0.59363334      115.81996
2014    17      0.59012491      117.7682825
2014    18      0.38894091      88.15245
2014    19      0.53507598      112.08945
2014    20      0.32344971      76.45783625
2014    21      0.33701158      79.17555
2014    22      0.46828615      101.0486675
2014    23      0.44340552      96.68253875
2014    24      0.63102356      123.6293
2014    25      0.36995399      82.569705
2014    26      0.58995921      118.3873425
2014    27      0.75123986      138.8641375
2014    28      0.47141794      100.74846625
2014    29      0.24105434      60.35756375
2014    30      0.42360682      91.46892375
2015    1       0.44476108      96.91985125
2015    2       0.43489888      94.2309125
2015    3       0.53276224      108.7305
2015    4       0.56010489      114.0790975
2015    5       0.52924185      109.3285
2015    6       0.51718229      106.8838975
2015    7       0.49285881      103.65234
2015    8       0.4646215       99.9304775
2015    9       0.52193496      107.93141625
2015    10      0.47576244      100.48448875
2015    11      0.61967684      120.88119125
2015    12      0.69468291      131.379975
2015    13      0.87421874      153.8287875
2015    14      0.54252704      108.25657
2015    15      0.9613141       158.04306875
2015    16      0.85497225      152.487625
2015    17      0.82788939      148.7302375
2015    18      0.62506014      122.20899
2015    19      0.29641399      71.04162375
2015    20      0.51828135      108.32164375
2015    21      0.63945784      126.6589125
2015    22      0.83829066      149.333425
2015    23      0.47264118      101.2125625
2015    24      0.68559352      131.7829875
2015    25      0.46971481      100.81659375
2015    26      0.75544102      140.955225
2015    27      0.58315955      116.6420525
2015    28      0.73297745      134.0621125
2015    29      1.05650715      171.912675
2015    30      0.6936419       132.9929625
2016    1       0.40600108      90.25382375
2016    2       0.38662509      87.69828
2016    3       0.53522955      111.38627625
2016    4       0.7404718       140.2356
2016    5       0.44049521      95.15666625
2016    6       0.46893546      100.93082875
2016    7       0.41984151      92.5264425
2016    8       0.35363236      79.6999575
2016    9       0.31314846      74.06008125
2016    10      0.51943091      106.915195
2016    11      0.68784761      131.1719625
2016    12      0.34839564      80.35188
2016    13      0.52736795      108.231475
2016    14      0.522031        105.82231875
2016    15      0.19149598      50.1499625
2016    16      0.39201281      84.30705875
2016    17      0.61794495      119.0480575
2016    18      0.83508919      150.2484875
2016    19      0.52765459      110.61931625
2016    20      0.67444604      130.23280375
2016    21      0.49610846      104.7521
2016    22      0.72829205      136.220775
2016    23      0.66138796      127.110175
2016    24      0.50797824      105.24069625
2016    25      0.37972489      86.0997225
2016    26      0.39095969      88.5360225
2016    27      0.37337931      84.50557375
2016    28      0.45425458      97.36743
2016    29      0.4709383       100.95719125
2016    30      0.6218516       123.0791375
2017    1       0.54276079      109.1525275
2017    2       0.52506546      108.46411875
2017    3       0.39713528      86.84428875
2017    4       0.37900646      83.95706125
2017    5       0.39242309      88.23680375
2017    6       0.36104692      84.3323875
2017    7       0.3583686       83.8909625
2017    8       0.25710539      64.0692825
2017    9       0.24919956      61.95122875
2017    10      0.28858386      69.106935
2017    11      0.34346088      78.073105
2017    12      0.24726435      60.3021775
2017    13      0.23706939      57.81287375
2017    14      0.32957308      70.28843875
2017    15      0.57037082      112.72167625
2017    16      0.18875551      49.169345
2017    17      0.22947898      58.15675625
2017    18      0.30954462      74.95252
2017    19      0.53859006      112.0704475
2017    20      0.64320208      127.46135
2017    21      0.38007128      86.8143
2017    22      0.73436427      138.2108825
2017    23      1.10722344      177.24495
2017    24      0.83916458      151.7100125
2017    25      0.60996386      121.89644375
2017    26      0.58965441      120.01574125
2017    27      0.49525956      105.45501
2017    28      0.70874295      135.642625
2017    29      0.80524986      147.03005
2017    30      0.66693226      130.388725
2018    1       0.61798961      121.8992
2018    2       0.28107782      68.9680425
2018    3       0.30339175      72.99034375
2018    4       0.78028392      140.6708875
2018    5       0.81308816      145.8908625
2018    6       0.33279364      77.54796375
2018    7       0.69563518      133.21561
2018    8       1.0102665       168.63
2018    9       0.81520882      148.510475
2018    10      1.00770109      168.591625
2018    11      0.83441116      149.9588
2018    12      0.80161532      146.8398375
2018    13      0.47584164      100.624595
2018    14      0.46597296      98.165585
2018    15      0.17683319      47.22486375
2018    16      0.5228709       104.00472
2018    17      0.79242024      143.791925
2018    18      0.61708162      118.80021875
2018    19      0.36189998      84.23513125
2018    20      0.45102309      99.488705
2018    21      0.41645505      93.8831825
2018    22      0.35697579      83.46948375
2018    23      0.40818949      91.95235625
2018    24      0.7700361       141.3443625
2018    25      0.504674        106.35138125
2018    26      0.31675942      74.20648
2018    27      0.32507239      75.90734125
2018    28      0.85832404      151.2716375
2018    29      0.7621514       140.3590125
2018    30      0.65738002      127.082775
