####################################################################################################
# Month: 06Jun                                                                                     #
# Station: LAS                                                                                     #
# Frequency: 230 GHz                                                                               #
# Columns are: year    day     segment         tau     Tb (K)                                      #
####################################################################################################
2009    1       0       0.1313276       37.47426
2009    1       1       0.1179207       34.24806
2009    1       2       0.1101672       32.34029
2009    1       3       0.1086601       31.85353
2009    1       4       0.1156917       33.5307
2009    1       5       0.1416581       39.51352
2009    1       6       0.159419        43.67452
2009    1       7       0.1583489       43.65147
2009    2       0       0.141782        39.89584
2009    2       1       0.1344295       38.12666
2009    2       2       0.1471573       40.88047
2009    2       3       0.1623231       44.1711
2009    2       4       0.1807343       48.35092
2009    2       5       0.184671        49.4664
2009    2       6       0.1618782       44.6206
2009    2       7       0.1469652       41.35634
2009    3       0       0.1516653       42.232
2009    3       1       0.1539393       42.75634
2009    3       2       0.1453698       40.94482
2009    3       3       0.1338832       38.26692
2009    3       4       0.1258335       36.47669
2009    3       5       0.1231677       35.95043
2009    3       6       0.1295285       37.50016
2009    3       7       0.1185031       34.92131
2009    4       0       0.1019665       30.79974
2009    4       1       0.1011146       30.51824
2009    4       2       0.09087621      27.952
2009    4       3       0.08798543      27.15951
2009    4       4       0.09094879      27.84972
2009    4       5       0.1000363       30.09368
2009    4       6       0.1106868       32.68582
2009    4       7       0.1157819       33.87887
2009    5       0       0.1039316       30.92822
2009    5       1       0.09661062      29.20094
2009    5       2       0.08845863      27.30523
2009    5       3       0.08499627      26.44687
2009    5       4       0.07433552      23.81615
2009    5       5       0.07261922      23.30639
2009    5       6       0.07266352      23.28734
2009    5       7       0.07508095      23.97931
2009    6       0       0.0723072       23.27722
2009    6       1       0.07162715      23.18044
2009    6       2       0.06369629      21.12752
2009    6       3       0.06621439      21.6258
2009    6       4       0.08454749      26.09992
2009    6       5       0.09446412      28.58894
2009    6       6       0.09220773      28.02735
2009    6       7       0.08127891      25.42836
2009    7       0       0.08119212      25.42871
2009    7       1       0.08020658      25.22691
2009    7       2       0.08180355      25.61313
2009    7       3       0.09436167      28.60003
2009    7       4       0.09699742      29.03921
2009    7       5       0.09190772      27.83992
2009    7       6       0.09759548      29.3069
2009    7       7       0.09648442      29.00379
2009    8       0       0.1021996       30.3145
2009    8       1       0.1193524       34.4609
2009    8       2       0.1325247       37.56746
2009    8       3       0.1365883       38.63055
2009    8       4       0.1354013       38.44917
2009    8       5       0.1325489       37.79691
2009    8       6       0.1216226       35.3454
2009    8       7       0.1197489       34.95596
2009    9       0       0.1159852       33.77829
2009    9       1       0.1130333       33.12751
2009    9       2       0.1178663       34.16726
2009    9       3       0.1292747       36.71963
2009    9       4       0.1278724       36.42906
2009    9       5       0.1004858       30.27458
2009    9       6       0.09692281      29.40683
2009    9       7       0.1047218       31.07712
2009    10      0       0.1160916       33.56141
2009    10      1       0.1185938       34.17582
2009    10      2       0.110568        32.34084
2009    10      3       0.1041504       30.93833
2009    10      4       0.101846        30.46708
2009    10      5       0.1016874       30.45764
2009    10      6       0.1214695       35.0638
2009    10      7       0.1231107       35.60655
2009    11      0       0.1279501       36.61733
2009    11      1       0.124103        35.69458
2009    11      2       0.09746116      29.56886
2009    11      3       0.08888541      27.4541
2009    11      4       0.07948341      25.088
2009    11      5       0.06840108      22.34864
2009    11      6       0.07086149      23.02501
2009    11      7       0.08158588      25.78556
2009    12      0       0.07503081      24.00724
2009    12      1       0.0707095       22.88783
2009    12      2       0.0703799       22.78227
2009    12      3       0.07122155      22.94515
2009    12      4       0.07274926      23.28971
2009    12      5       0.08024237      25.17584
2009    12      6       0.09370908      28.65094
2009    12      7       0.09865995      29.97848
2009    13      0       0.07922191      25.05997
2009    13      1       0.07030371      22.75069
2009    13      2       0.0629162       20.80707
2009    13      3       0.05536429      18.78819
2009    13      4       0.06006599      20.02578
2009    13      5       0.07135828      22.93243
2009    13      6       0.1100032       32.36359
2009    13      7       0.1434272       40.07772
2009    14      0       0.2034449       52.99466
2009    14      1       0.2537835       62.94752
2009    14      2       0.2842495       68.74712
2009    14      3       0.2791658       67.32823
2009    14      4       0.2405278       60.43807
2009    14      5       0.2410663       60.84069
2009    14      6       0.2809944       69.02935
2009    14      7       0.3699496       85.07751
2009    15      0       0.4152166       92.47212
2009    15      1       0.395484        88.88364
2009    15      2       0.4276104       94.72096
2009    15      3       0.3425111       80.83439
2009    15      4       0.3136851       75.72019
2009    15      5       0.2667636       66.61198
2009    15      6       0.2436824       62.16436
2009    15      7       0.2108094       55.36552
2009    16      0       0.1753839       47.34772
2009    16      1       0.1865634       49.61802
2009    16      2       0.2067375       53.73754
2009    16      3       0.2162581       55.711
2009    16      4       0.1862787       49.37855
2009    16      5       0.154993        42.38199
2009    16      6       0.1595481       43.30873
2009    16      7       0.1738954       46.22257
2009    17      0       0.1638513       43.85923
2009    17      1       0.1617223       43.46785
2009    17      2       0.1792969       47.11137
2009    17      3       0.3330275       76.89911
2009    17      4       0.2459273       61.53375
2009    17      5       0.2333917       58.55716
2009    17      6       0.2715707       65.84617
2009    17      7       0.2677857       65.07743
2009    18      0       0.353037        80.82816
2009    18      1       0.3147804       74.88752
2009    18      2       0.25159         62.66244
2009    18      3       0.2359318       59.4415
2009    18      4       0.3505683       81.12155
2009    18      5       0.3871526       87.75657
2009    18      6       0.2498905       62.50428
2009    18      7       0.2143884       55.02364
2009    19      0       0.205064        53.31381
2009    19      1       0.1777798       47.69146
2009    19      2       0.1557145       42.93793
2009    19      3       0.1543041       42.46368
2009    19      4       0.1629238       44.36723
2009    19      5       0.1846854       48.92363
2009    19      6       0.2373591       59.97674
2009    19      7       0.276253        67.68607
2009    20      0       0.2659783       65.76302
2009    20      1       0.2708569       66.61573
2009    20      2       0.2813384       68.32682
2009    20      3       0.3088264       73.30512
2009    20      4       0.2894613       70.51478
2009    20      5       0.3207512       76.60608
2009    20      6       0.3381638       80.04372
2009    20      7       0.3385519       80.52278
2009    21      0       0.3273719       78.18373
2009    21      1       0.3120288       74.98523
2009    21      2       0.2961169       71.82201
2009    21      3       0.3193615       75.65788
2009    21      4       0.27796         68.11746
2009    21      5       0.2319815       59.18206
2009    21      6       0.247441        62.27573
2009    21      7       0.2899848       70.52356
2009    22      0       0.2736335       67.56108
2009    22      1       0.2483828       62.45591
2009    22      2       0.2367035       60.05119
2009    22      3       0.1987663       52.13209
2009    22      4       0.2054381       53.5546
2009    22      5       0.2237285       57.32685
2009    22      6       0.282277        69.32134
2009    22      7       0.2566706       63.79698
2009    23      0       0.1997251       52.01738
2009    23      1       0.1910795       50.21373
2009    23      2       0.2086158       54.22416
2009    23      3       0.2075607       54.01042
2009    23      4       0.2044551       53.36789
2009    23      5       0.2037233       53.34684
2009    23      6       0.2679956       66.84825
2009    23      7       0.2620391       65.62208
2009    24      0       0.2202383       57.14371
2009    24      1       0.2151554       56.219
2009    24      2       0.2078604       54.78241
2009    24      3       0.1908519       51.04325
2009    24      4       0.1898267       50.71771
2009    24      5       0.1838803       49.33287
2009    24      6       0.2171589       56.67602
2009    24      7       0.2277904       59.03683
2009    25      0       0.2280042       58.87688
2009    25      1       0.2421523       61.94864
2009    25      2       0.2639569       65.78757
2009    25      3       0.4490514       98.44351
2009    25      4       0.50168         107.5666
2009    25      5       0.5766066       118.3295
2009    25      6       0.5501918       114.666
2009    25      7       0.486408        105.1765
2009    26      0       0.3799036       86.231
2009    26      1       0.2673831       66.66757
2009    26      2       0.2556469       64.16788
2009    26      3       0.3551799       83.02065
2009    26      4       0.47466         103.7998
2009    26      5       0.4095886       92.70182
2009    26      6       0.3768947       86.68786
2009    26      7       0.3098786       75.03483
2009    27      0       0.3016639       73.49343
2009    27      1       0.3078678       74.6927
2009    27      2       0.2718854       67.86674
2009    27      3       0.2464484       62.6063
2009    27      4       0.2221709       57.60974
2009    27      5       0.2044917       53.95902
2009    27      6       0.2214165       57.66589
2009    27      7       0.256095        64.84595
2009    28      0       0.2817945       70.1335
2009    28      1       0.3364984       80.90187
2009    28      2       0.4049326       93.7306
2009    28      3       0.7238248       141.6015
2009    28      4       0.8168824       152.3795
2009    28      5       0.7392245       142.9723
2009    28      6       0.7576069       145.1383
2009    28      7       0.7002861       137.3371
2009    29      0       0.5883689       122.0349
2009    29      1       0.3268617       78.4022
2009    29      2       0.1737775       47.03584
2009    29      3       0.1165499       33.62304
2009    29      4       0.1150186       32.74708
2009    29      5       0.1754567       45.75355
2009    29      6       0.141022        38.85278
2009    29      7       0.1561293       42.45611
2009    30      0       0.1635307       44.24553
2009    30      1       0.1716794       46.03748
2009    30      2       0.1674653       45.03073
2009    30      3       0.1699521       45.47961
2009    30      4       0.1486773       40.78201
2009    30      5       0.1377559       38.32245
2009    30      6       0.1630412       44.14953
2009    30      7       0.1985579       52.10883
2010    1       0       0.1072134       31.95584
2010    1       1       0.1070829       31.87055
2010    1       2       0.1138829       33.46826
2010    1       3       0.1211007       35.14249
2010    1       4       0.1311449       37.45296
2010    1       5       0.1290931       36.98743
2010    1       6       0.1387967       39.31037
2010    1       7       0.1333029       37.91892
2010    2       0       0.1238423       35.14522
2010    2       1       0.137454        38.20359
2010    2       2       0.1568422       42.60861
2010    2       3       0.16096         43.87128
2010    2       4       0.1754786       47.39905
2010    2       5       0.1581064       43.42801
2010    2       6       0.1801594       48.39142
2010    2       7       0.1804124       48.48702
2010    3       0       0.1652544       45.09348
2010    3       1       0.1979307       52.31192
2010    3       2       0.2369869       60.60316
2010    3       3       0.2310059       59.35527
2010    3       4       0.1923003       51.12967
2010    3       5       0.1672738       45.65219
2010    3       6       0.1683326       45.87151
2010    3       7       0.1492781       41.64533
2010    4       0       0.09753347      29.47107
2010    4       1       0.08496869      26.43067
2010    4       2       0.08424639      26.21493
2010    4       3       0.08014633      25.14795
2010    4       4       0.07614177      24.08811
2010    4       5       0.0716076       23.1109
2010    4       6       0.07242575      23.42157
2010    4       7       0.07486689      24.09304
2010    5       0       0.06595984      21.85966
2010    5       1       0.05768782      19.72199
2010    5       2       0.0531947       18.52706
2010    5       3       0.0500565       17.69567
2010    5       4       0.04806764      17.17716
2010    5       5       0.05140052      18.04083
2010    5       6       0.05995786      20.28696
2010    5       7       0.06941088      22.78504
2010    6       0       0.06640525      21.98385
2010    6       1       0.07018562      22.93446
2010    6       2       0.07282777      23.5825
2010    6       3       0.08031731      25.42728
2010    6       4       0.09204511      28.32006
2010    6       5       0.1028463       30.96088
2010    6       6       0.1117373       33.12474
2010    6       7       0.1123234       33.3542
2010    7       0       0.09315301      28.61839
2010    7       1       0.09290877      28.54829
2010    7       2       0.09066933      27.9529
2010    7       3       0.09494076      28.97434
2010    7       4       0.1000085       30.2365
2010    7       5       0.09679049      29.44868
2010    7       6       0.09802463      29.83375
2010    7       7       0.08556053      26.8292
2010    8       0       0.06280111      21.02653
2010    8       1       0.05143698      18.02104
2010    8       2       0.05081216      17.88653
2010    8       3       0.06533887      21.55888
2010    8       4       0.07900577      24.9269
2010    8       5       0.08657617      26.95302
2010    8       6       0.1062104       31.86035
2010    8       7       0.1250975       36.52222
2010    9       0       0.1263401       36.75474
2010    9       1       0.1227676       35.80481
2010    9       2       0.1554632       43.31344
2010    9       3       0.1567839       43.57371
2010    9       4       0.1254863       36.05884
2010    9       5       0.1296557       37.02843
2010    9       6       0.1645825       45.02774
2010    9       7       0.1473812       41.34025
2010    10      0       0.1207208       35.271
2010    10      1       0.1054838       31.59247
2010    10      2       0.1268038       36.46871
2010    10      3       0.146488        40.78852
2010    10      4       0.1742887       46.91817
2010    10      5       0.1761841       47.43596
2010    10      6       0.1651871       45.21985
2010    10      7       0.1582398       43.50367
2010    11      0       0.1643675       44.5142
2010    11      1       0.1643388       44.43391
2010    11      2       0.1686733       45.70372
2010    11      3       0.1844513       49.21776
2010    11      4       0.1849487       49.41814
2010    11      5       0.1937018       51.47112
2010    11      6       0.1798335       48.49339
2010    11      7       0.1760865       47.57059
2010    12      0       0.1525153       42.09144
2010    12      1       0.1220975       35.33417
2010    12      2       0.09112518      28.00557
2010    12      3       0.06834167      22.32566
2010    12      4       0.05726408      19.48793
2010    12      5       0.07343467      23.62165
2010    12      6       0.1290053       37.11399
2010    12      7       0.1578895       43.61282
2010    13      0       0.1508223       41.79037
2010    13      1       0.1491719       41.52983
2010    13      2       0.1573882       43.45202
2010    13      3       0.1520412       42.30334
2010    13      4       0.1427904       40.07866
2010    13      5       0.146648        40.96285
2010    13      6       0.1913965       50.62689
2010    13      7       0.1963029       51.46586
2010    14      0       0.2013361       52.4004
2010    14      1       0.2706607       66.76843
2010    14      2       0.38822         88.77001
2010    14      3       0.4505303       99.61771
2010    14      4       0.4029902       91.50497
2010    14      5       0.3874259       88.46174
2010    14      6       0.200004        52.30232
2010    14      7       0.1729449       46.17085
2010    15      0       0.1361017       37.61707
2010    15      1       0.1378106       37.65224
2010    15      2       0.147443        39.90754
2010    15      3       0.1578306       42.29002
2010    15      4       0.1837927       47.89241
2010    15      5       0.2432832       59.98156
2010    15      6       0.3148881       73.85857
2010    15      7       0.3543395       81.17277
2010    16      0       0.379883        85.78246
2010    16      1       0.3610718       82.591
2010    16      2       0.3712641       84.27438
2010    16      3       0.3199635       75.20279
2010    16      4       0.2673374       65.61417
2010    16      5       0.2579527       64.44216
2010    16      6       0.2710903       67.33513
2010    16      7       0.2365248       60.60464
2010    17      0       0.213785        55.76709
2010    17      1       0.2013127       53.07909
2010    17      2       0.2181599       56.58961
2010    17      3       0.2438215       61.86844
2010    17      4       0.2811509       69.37721
2010    17      5       0.3089582       74.84076
2010    17      6       0.30428         73.93836
2010    17      7       0.3002909       73.11857
2010    18      0       0.3163292       76.0509
2010    18      1       0.3266849       77.99795
2010    18      2       0.3821875       87.93092
2010    18      3       0.477869        104.0881
2010    18      4       0.5628308       117.4276
2010    18      5       0.6028193       123.1074
2010    18      6       0.6433862       128.6863
2010    18      7       0.5937629       121.9502
2010    19      0       0.4887519       105.8116
2010    19      1       0.2942324       71.62012
2010    19      2       0.1943418       50.96715
2010    19      3       0.1581852       42.88731
2010    19      4       0.1308361       36.55556
2010    19      5       0.1308812       36.49781
2010    19      6       0.1567083       42.36261
2010    19      7       0.1682147       44.87003
2010    20      0       0.1548066       41.58703
2010    20      1       0.1736961       45.53861
2010    20      2       0.1898976       49.06838
2010    20      3       0.1485659       40.24888
2010    20      4       0.131532        36.60547
2010    20      5       0.1296732       36.48375
2010    20      6       0.1565104       42.82379
2010    20      7       0.1462664       40.53613
2010    21      0       0.11026         32.06049
2010    21      1       0.09968034      29.59552
2010    21      2       0.1058662       31.07263
2010    21      3       0.1362248       37.72038
2010    21      4       0.1418231       38.7477
2010    21      5       0.1507442       40.98417
2010    21      6       0.1848688       48.70138
2010    21      7       0.1874856       49.34588
2010    22      0       0.1798859       47.79691
2010    22      1       0.1594895       43.69522
2010    22      2       0.188637        50.27234
2010    22      3       0.1981069       52.52859
2010    22      4       0.1985441       52.93901
2010    22      5       0.187588        50.70968
2010    22      6       0.1890088       51.17828
2010    22      7       0.1986443       53.18234
2010    23      0       0.1776961       48.48292
2010    23      1       0.1586993       44.17913
2010    23      2       0.1687912       46.39707
2010    23      3       0.2010875       52.43299
2010    23      4       0.3880515       87.5864
2010    23      5       0.563108        116.1169
2010    23      6       0.6628964       131.487
2010    23      7       0.6313508       127.6316
2010    24      0       0.567062        118.2811
2010    24      1       0.4926556       106.8928
2010    24      2       0.461389        101.7729
2010    24      3       0.471696        103.6136
2010    24      4       0.4150961       94.6091
2010    24      5       0.3853393       89.61965
2010    24      6       0.3417099       81.81766
2010    24      7       0.3196891       77.83403
2010    25      0       0.276553        69.54182
2010    25      1       0.2725518       68.81455
2010    25      2       0.2670942       67.75271
2010    25      3       0.2764431       69.78982
2010    25      4       0.2678317       68.07925
2010    25      5       0.260271        66.57592
2010    25      6       0.3020813       75.1908
2010    25      7       0.306943        76.17712
2010    26      0       0.2843227       71.72019
2010    26      1       0.3078839       76.27567
2010    26      2       0.3142163       77.29947
2010    26      3       0.2897784       72.24396
2010    26      4       0.2856334       71.11155
2010    26      5       0.3635557       85.52121
2010    26      6       0.358776        84.25326
2010    26      7       0.2648228       66.22577
2010    27      0       0.1838344       49.23376
2010    27      1       0.1432625       40.20187
2010    27      2       0.1277433       36.51255
2010    27      3       0.1290579       36.72293
2010    27      4       0.1412235       39.57776
2010    27      5       0.1558982       43.04398
2010    27      6       0.1746832       47.35721
2010    27      7       0.1602488       44.27883
2010    28      0       0.1180688       34.60944
2010    28      1       0.1155449       34.13502
2010    28      2       0.1088746       32.50641
2010    28      3       0.09985794      30.25237
2010    28      4       0.09324604      28.67642
2010    28      5       0.1085204       32.48323
2010    28      6       0.1514749       42.5055
2010    28      7       0.1956162       52.43119
2010    29      0       0.2007767       53.37308
2010    29      1       0.2240463       58.16617
2010    29      2       0.2604467       65.55305
2010    29      3       0.3044972       74.11877
2010    29      4       0.2889939       71.28648
2010    29      5       0.2512583       63.82832
2010    29      6       0.2420206       62.025
2010    29      7       0.2215882       57.93278
2010    30      0       0.1768913       48.25184
2010    30      1       0.1500856       42.01723
2010    30      2       0.1300162       37.27931
2010    30      3       0.1196302       34.77729
2010    30      4       0.1046511       31.22146
2010    30      5       0.09704085      29.32503
2010    30      6       0.09170429      28.07677
2010    30      7       0.07592444      24.22978
2011    1       0       0.2934163       72.54607
2011    1       1       0.3292569       79.92881
2011    1       2       0.3633359       87.1825
2011    1       3       0.3555189       86.12829
2011    1       4       0.3344457       81.84116
2011    1       5       0.3264049       80.05542
2011    1       6       0.2983098       74.50313
2011    1       7       0.284236        71.62044
2011    2       0       0.2433626       62.99494
2011    2       1       0.2115734       56.14891
2011    2       2       0.2007246       53.51858
2011    2       3       0.2077901       54.89809
2011    2       4       0.2087819       55.03293
2011    2       5       0.2116905       55.75581
2011    2       6       0.209766        55.38537
2011    2       7       0.1982234       52.83506
2011    3       0       0.1824563       49.3162
2011    3       1       0.1775657       48.05733
2011    3       2       0.1559132       43.15698
2011    3       3       0.1543307       42.78504
2011    3       4       0.1492171       41.39374
2011    3       5       0.112724        33.04754
2011    3       6       0.1053968       31.40813
2011    3       7       0.1055951       31.54892
2011    4       0       0.09393416      28.70349
2011    4       1       0.1045582       31.30669
2011    4       2       0.1455256       40.81775
2011    4       3       0.1655507       45.24736
2011    4       4       0.1585494       43.7359
2011    4       5       0.1601209       44.12779
2011    4       6       0.169896        46.15395
2011    4       7       0.2230171       57.4367
2011    5       0       0.3939811       90.30948
2011    5       1       0.5117858       109.8881
2011    5       2       0.5935745       122.414
2011    5       3       0.5831813       120.0003
2011    5       4       0.6520058       129.3848
2011    5       5       0.7418872       141.6759
2011    5       6       0.6750273       132.5007
2011    5       7       0.6209661       124.9553
2011    6       0       0.4678021       101.6022
2011    6       1       0.3913409       89.23502
2011    6       2       0.6513498       129.0527
2011    6       3       0.5440587       113.3681
2011    6       4       0.4937437       105.2693
2011    6       5       0.5993984       120.3334
2011    6       6       0.5374067       112.5914
2011    6       7       0.3566501       83.49465
2011    7       0       0.1450895       40.42948
2011    7       1       0.1748219       46.78457
2011    7       2       0.2486047       61.86004
2011    7       3       0.240553        60.48991
2011    7       4       0.1907301       49.83631
2011    7       5       0.170438        45.51009
2011    7       6       0.1523285       41.61982
2011    7       7       0.2113599       54.30403
2011    8       0       0.3054752       72.47234
2011    8       1       0.2196159       56.41451
2011    8       2       0.2321413       58.79333
2011    8       3       0.2540567       62.99213
2011    8       4       0.2063437       53.44814
2011    8       5       0.1794075       47.93234
2011    8       6       0.1804054       48.10506
2011    8       7       0.1887033       49.69675
2011    9       0       0.1866089       49.11179
2011    9       1       0.202764        52.60035
2011    9       2       0.2347534       58.89379
2011    9       3       0.2141099       55.26284
2011    9       4       0.2179091       56.3767
2011    9       5       0.2379068       61.03421
2011    9       6       0.2566701       65.29837
2011    9       7       0.2640076       67.04635
2011    10      0       0.2145246       56.70604
2011    10      1       0.1485653       42.05205
2011    10      2       0.1186555       34.98961
2011    10      3       0.09359831      28.92056
2011    10      4       0.09162753      28.2753
2011    10      5       0.1001057       30.43658
2011    10      6       0.1110258       33.264
2011    10      7       0.1156416       34.47776
2011    11      0       0.117194        34.68325
2011    11      1       0.1262669       36.86716
2011    11      2       0.1153334       34.2166
2011    11      3       0.1079063       32.26877
2011    11      4       0.1066162       31.86277
2011    11      5       0.1039278       31.20608
2011    11      6       0.1059225       31.77322
2011    11      7       0.1009417       30.58138
2011    12      0       0.08496265      26.5161
2011    12      1       0.07798878      24.70602
2011    12      2       0.07645577      24.36082
2011    12      3       0.0759029       24.2481
2011    12      4       0.07287011      23.50923
2011    12      5       0.0686275       22.47583
2011    12      6       0.07479267      24.13467
2011    12      7       0.07717056      24.73709
2011    13      0       0.07839627      25.02159
2011    13      1       0.08326685      26.2363
2011    13      2       0.08583331      26.87354
2011    13      3       0.07591509      24.34351
2011    13      4       0.07993452      25.34246
2011    13      5       0.07070726      22.99068
2011    13      6       0.0762413       24.46934
2011    13      7       0.06776979      22.25748
2011    14      0       0.06409161      21.21469
2011    14      1       0.0649986       21.42978
2011    14      2       0.07385621      23.60389
2011    14      3       0.09732147      29.34699
2011    14      4       0.09599526      29.13741
2011    14      5       0.09454275      28.80832
2011    14      6       0.1041579       31.28302
2011    14      7       0.1041769       31.1838
2011    15      0       0.1122724       32.98252
2011    15      1       0.12348         35.76287
2011    15      2       0.1357805       38.77359
2011    15      3       0.1538425       43.05426
2011    15      4       0.1740632       47.67764
2011    15      5       0.1935276       51.985
2011    15      6       0.211851        55.95096
2011    15      7       0.2008712       53.23825
2011    16      0       0.2055912       53.92825
2011    16      1       0.237984        60.49081
2011    16      2       0.4019019       91.02707
2011    16      3       0.421213        94.66481
2011    16      4       0.301075        73.2013
2011    16      5       0.2541251       64.25664
2011    16      6       0.189211        50.57198
2011    16      7       0.1501057       41.86048
2011    17      0       0.1287137       36.91954
2011    17      1       0.1447552       40.61737
2011    17      2       0.1628          44.91744
2011    17      3       0.1816218       49.22615
2011    17      4       0.1994922       53.12146
2011    17      5       0.2294885       59.35455
2011    17      6       0.2203752       57.50198
2011    17      7       0.2171881       56.83244
2011    18      0       0.1938249       51.682
2011    18      1       0.223318        57.77705
2011    18      2       0.2484632       62.95343
2011    18      3       0.2608011       65.33715
2011    18      4       0.255352        64.03934
2011    18      5       0.3491978       82.12352
2011    18      6       0.4224131       95.00796
2011    18      7       0.5192199       110.6195
2011    19      0       0.5401605       113.5047
2011    19      1       0.4992933       107.2441
2011    19      2       0.4641727       101.7844
2011    19      3       0.5249196       111.5048
2011    19      4       0.5271426       111.3263
2011    19      5       0.5980993       121.7134
2011    19      6       0.6278017       125.8516
2011    19      7       0.5868477       120.7029
2011    20      0       0.3852963       88.80397
2011    20      1       0.475902        103.7317
2011    20      2       0.5196683       110.658
2011    20      3       0.430565        96.25516
2011    20      4       0.3440413       80.58533
2011    20      5       0.4626906       100.831
2011    20      6       0.3590538       83.52135
2011    20      7       0.3541063       82.60579
2011    21      0       0.3670119       84.44904
2011    21      1       0.3591336       83.09403
2011    21      2       0.3289255       77.72096
2011    21      3       0.2831817       68.84879
2011    21      4       0.1750154       46.59525
2011    21      5       0.1415281       39.31471
2011    21      6       0.1562196       42.6533
2011    21      7       0.1552697       42.54405
2011    22      0       0.1105714       32.29647
2011    22      1       0.09747521      29.18981
2011    22      2       0.1028471       30.44118
2011    22      3       0.1078132       31.55116
2011    22      4       0.09283558      27.96374
2011    22      5       0.08803426      26.87027
2011    22      6       0.1095182       32.15574
2011    22      7       0.1008745       30.30605
2011    23      0       0.06568378      21.62989
2011    23      1       0.06778028      22.16627
2011    23      2       0.0777069       24.63369
2011    23      3       0.08910797      27.48723
2011    23      4       0.09517959      29.11011
2011    23      5       0.1021397       30.91221
2011    23      6       0.1218367       35.68812
2011    23      7       0.1310434       37.93471
2011    24      0       0.0990779       30.20103
2011    24      1       0.1156411       34.18283
2011    24      2       0.1331033       38.29995
2011    24      3       0.1364222       39.10462
2011    24      4       0.1374081       39.25346
2011    24      5       0.1386851       39.42113
2011    24      6       0.1421403       40.09631
2011    24      7       0.1293928       37.09239
2011    25      0       0.09165387      27.89133
2011    25      1       0.08037195      25.12997
2011    25      2       0.07170081      22.95325
2011    25      3       0.07676685      24.20925
2011    25      4       0.07448795      23.67985
2011    25      5       0.06428631      21.23689
2011    25      6       0.06238645      20.79963
2011    25      7       0.06071759      20.37899
2011    26      0       0.05646625      19.19243
2011    26      1       0.05683745      19.30107
2011    26      2       0.054491        18.6882
2011    26      3       0.05543872      18.90231
2011    26      4       0.06191652      20.58873
2011    26      5       0.07094372      22.96021
2011    26      6       0.08765582      27.19743
2011    26      7       0.1046953       31.42204
2011    27      0       0.1009083       30.48328
2011    27      1       0.1046649       31.39644
2011    27      2       0.1111002       32.90634
2011    27      3       0.1302187       37.40375
2011    27      4       0.1523888       42.57516
2011    27      5       0.1705349       46.74341
2011    27      6       0.1988927       53.06119
2011    27      7       0.2272835       59.12325
2011    28      0       0.1969015       52.43632
2011    28      1       0.214882        56.10373
2011    28      2       0.2347329       60.10678
2011    28      3       0.2501235       63.18894
2011    28      4       0.2371005       60.45387
2011    28      5       0.2202245       56.9815
2011    28      6       0.2422888       61.45069
2011    28      7       0.2249268       57.88553
2011    29      0       0.195002        51.46836
2011    29      1       0.1860275       49.60077
2011    29      2       0.1824296       48.788
2011    29      3       0.1909168       50.4268
2011    29      4       0.188545        49.96456
2011    29      5       0.1985368       52.16021
2011    29      6       0.2075866       54.09713
2011    29      7       0.2232611       57.43477
2011    30      0       0.2147039       55.56581
2011    30      1       0.2104752       54.47928
2011    30      2       0.2064764       53.40572
2011    30      3       0.1954868       51.11829
2011    30      4       0.1941235       50.73419
2011    30      5       0.2218277       56.53967
2011    30      6       0.2802193       67.83799
2011    30      7       0.2820537       68.18938
2012    1       0       0.2705924       68.07101
2012    1       1       0.2179949       57.64705
2012    1       2       0.2234156       58.76719
2012    1       3       0.2972019       73.12004
2012    1       4       0.3314349       80.32244
2012    1       5       0.3179002       78.26007
2012    1       6       0.3317138       81.29682
2012    1       7       0.3556616       86.24756
2012    2       0       0.3633068       87.82521
2012    2       1       0.3113903       78.02153
2012    2       2       0.2510612       65.69648
2012    2       3       0.2186644       58.64895
2012    2       4       0.2203315       58.87757
2012    2       5       0.2319487       61.41268
2012    2       6       0.2200989       58.8507
2012    2       7       0.2043217       55.30361
2012    3       0       0.1595561       44.91654
2012    3       1       0.1562561       43.92277
2012    3       2       0.1606077       45.02724
2012    3       3       0.1423845       40.68074
2012    3       4       0.1218263       35.62131
2012    3       5       0.1458337       41.07584
2012    3       6       0.1856569       49.98459
2012    3       7       0.2201861       57.46449
2012    4       0       0.2063374       54.35166
2012    4       1       0.1899332       50.81242
2012    4       2       0.1837725       49.22423
2012    4       3       0.1608706       44.18379
2012    4       4       0.1138875       33.45769
2012    4       5       0.108162        32.18226
2012    4       6       0.115065        33.92254
2012    4       7       0.09998444      30.30234
2012    5       0       0.06411456      21.27806
2012    5       1       0.0531419       18.35554
2012    5       2       0.05350317      18.44817
2012    5       3       0.05854764      19.77574
2012    5       4       0.05585429      19.15047
2012    5       5       0.04506954      16.27681
2012    5       6       0.06659586      21.63743
2012    5       7       0.0874844       26.77412
2012    6       0       0.09151734      27.57711
2012    6       1       0.1044316       30.61039
2012    6       2       0.1013151       29.64599
2012    6       3       0.09895528      29.07663
2012    6       4       0.08825037      26.82203
2012    6       5       0.07949335      24.92523
2012    6       6       0.07254282      23.36683
2012    6       7       0.06374986      21.27687
2012    7       0       0.05687569      19.48344
2012    7       1       0.06001264      20.2934
2012    7       2       0.06402472      21.33987
2012    7       3       0.07158971      23.24564
2012    7       4       0.0779245       24.80958
2012    7       5       0.08243296      26.06607
2012    7       6       0.09417898      28.96427
2012    7       7       0.1012981       30.65604
2012    8       0       0.09068639      27.9142
2012    8       1       0.08885672      27.32838
2012    8       2       0.09117472      27.95295
2012    8       3       0.1080102       31.88391
2012    8       4       0.1163263       34.07308
2012    8       5       0.1291977       37.06107
2012    8       6       0.141939        39.92738
2012    8       7       0.1613563       44.18604
2012    9       0       0.1534711       42.43344
2012    9       1       0.1643324       44.96657
2012    9       2       0.1822665       49.003
2012    9       3       0.2025228       53.31529
2012    9       4       0.2062226       53.9882
2012    9       5       0.2011146       52.97743
2012    9       6       0.2213497       57.08976
2012    9       7       0.229891        58.524
2012    10      0       0.2089178       54.08967
2012    10      1       0.2023526       52.7562
2012    10      2       0.2158619       55.60835
2012    10      3       0.2555837       63.68361
2012    10      4       0.2918064       70.80811
2012    10      5       0.341594        80.90818
2012    10      6       0.3542297       84.1708
2012    10      7       0.365471        86.7741
2012    11      0       0.3699339       87.66517
2012    11      1       0.3613398       86.2625
2012    11      2       0.3328336       80.77094
2012    11      3       0.308603        75.97845
2012    11      4       0.3080525       75.89669
2012    11      5       0.3384829       81.55018
2012    11      6       0.367141        87.03659
2012    11      7       0.3902282       91.19035
2012    12      0       0.3852499       90.00813
2012    12      1       0.4072748       93.60642
2012    12      2       0.441737        99.02788
2012    12      3       0.4388656       98.21771
2012    12      4       0.3833581       88.50365
2012    12      5       0.3317595       79.07616
2012    12      6       0.3489131       81.70395
2012    12      7       0.2894981       70.54398
2012    13      0       0.2492189       62.60255
2012    13      1       0.2467239       62.05311
2012    13      2       0.2571267       64.11285
2012    13      3       0.2387693       60.74238
2012    13      4       0.2185878       56.76557
2012    13      5       0.2164867       56.30764
2012    13      6       0.2059459       54.20378
2012    13      7       0.1867568       50.0547
2012    14      0       0.165274        45.10211
2012    14      1       0.172225        46.60594
2012    14      2       0.1813488       48.63461
2012    14      3       0.1842141       49.2711
2012    14      4       0.1841649       49.39135
2012    14      5       0.1990232       52.72134
2012    14      6       0.2170604       56.66395
2012    14      7       0.2076505       54.71942
2012    15      0       0.1896733       50.83009
2012    15      1       0.1860986       49.95313
2012    15      2       0.2142781       55.9166
2012    15      3       0.2346256       60.03963
2012    15      4       0.2530481       63.45011
2012    15      5       0.3640567       85.46259
2012    15      6       0.3463541       82.66019
2012    15      7       0.3588224       85.18518
2012    16      0       0.3633929       85.9894
2012    16      1       0.4077045       93.78752
2012    16      2       0.5287336       114.4349
2012    16      3       0.3896752       90.80415
2012    16      4       0.3843498       90.13947
2012    16      5       0.3903927       91.021
2012    16      6       0.3874428       90.19958
2012    16      7       0.3785834       88.34577
2012    17      0       0.3573682       84.24984
2012    17      1       0.3524513       83.02228
2012    17      2       0.3521921       82.88933
2012    17      3       0.3655702       85.49985
2012    17      4       0.3230929       77.52277
2012    17      5       0.3853544       88.5963
2012    17      6       0.4461173       99.01098
2012    17      7       0.3879939       89.23006
2012    18      0       0.2939981       71.96341
2012    18      1       0.2414004       61.41036
2012    18      2       0.2340473       59.95801
2012    18      3       0.2264285       58.30883
2012    18      4       0.2333064       59.81004
2012    18      5       0.3590802       83.98739
2012    18      6       0.4026852       91.78857
2012    18      7       0.3351576       79.83519
2012    19      0       0.2638619       66.10936
2012    19      1       0.254018        63.98356
2012    19      2       0.2804803       68.90046
2012    19      3       0.3271153       77.63034
2012    19      4       0.21283         54.99727
2012    19      5       0.196063        51.40752
2012    19      6       0.2307068       58.79615
2012    19      7       0.230041        58.82833
2012    20      0       0.1561576       42.91338
2012    20      1       0.1318736       37.35893
2012    20      2       0.1336879       37.76991
2012    20      3       0.1605527       43.82642
2012    20      4       0.1654653       44.85449
2012    20      5       0.1733396       46.36172
2012    20      6       0.2006601       52.37899
2012    20      7       0.1866252       49.48984
2012    21      0       0.1680438       45.41333
2012    21      1       0.1666091       45.06694
2012    21      2       0.1320385       37.14916
2012    21      3       0.09274275      27.75705
2012    21      4       0.1131128       32.34209
2012    21      5       0.1845975       48.78494
2012    21      6       0.2229117       57.44903
2012    21      7       0.253753        63.86112
2012    22      0       0.2336437       60.10754
2012    22      1       0.1902786       51.04285
2012    22      2       0.1515163       42.30591
2012    22      3       0.08501996      26.44779
2012    22      4       0.07817201      24.65332
2012    22      5       0.08153805      25.4091
2012    22      6       0.08141326      25.50295
2012    22      7       0.07344316      23.44304
2012    23      0       0.06397397      21.06797
2012    23      1       0.06189567      20.46603
2012    23      2       0.05778111      19.43792
2012    23      3       0.05423015      18.53748
2012    23      4       0.05664043      19.17243
2012    23      5       0.05622833      19.12989
2012    23      6       0.0523812       18.18031
2012    23      7       0.05132007      17.8907
2012    24      0       0.05764191      19.56699
2012    24      1       0.06005999      20.24466
2012    24      2       0.05744684      19.6072
2012    24      3       0.05771044      19.67493
2012    24      4       0.05987464      20.26464
2012    24      5       0.05892276      20.08174
2012    24      6       0.06210065      20.96345
2012    24      7       0.06597221      21.85617
2012    25      0       0.06550568      21.46069
2012    25      1       0.06841356      22.22356
2012    25      2       0.06837063      22.23902
2012    25      3       0.06466762      21.30375
2012    25      4       0.06620758      21.73761
2012    25      5       0.06822804      22.32132
2012    25      6       0.07041098      22.94232
2012    25      7       0.07709067      24.70587
2012    26      0       0.07304932      23.66105
2012    26      1       0.07156845      23.2041
2012    26      2       0.0785634       24.72112
2012    26      3       0.1240867       35.27076
2012    26      4       0.1632873       43.88511
2012    26      5       0.1430556       39.55881
2012    26      6       0.1670265       44.47955
2012    26      7       0.1702692       45.26094
2012    27      0       0.1508494       41.43469
2012    27      1       0.1657991       45.08084
2012    27      2       0.1672711       45.43056
2012    27      3       0.1699583       46.13812
2012    27      4       0.1847401       49.64088
2012    27      5       0.2026813       53.48085
2012    27      6       0.2371251       60.1551
2012    27      7       0.2016703       52.81336
2012    28      0       0.2063708       54.25137
2012    28      1       0.2251082       58.04656
2012    28      2       0.2239791       57.74647
2012    28      3       0.2424193       61.2852
2012    28      4       0.2428577       61.50909
2012    28      5       0.2417527       61.28056
2012    28      6       0.2349512       60.31928
2012    28      7       0.2408452       61.57333
2012    29      0       0.2649337       66.10613
2012    29      1       0.320801        76.9858
2012    29      2       0.4530562       99.96899
2012    29      3       0.4638816       102.0822
2012    29      4       0.5094007       109.7319
2012    29      5       0.4802901       105.8206
2012    29      6       0.3916937       91.23284
2012    29      7       0.3772086       88.78674
2012    30      0       0.3352783       81.04802
2012    30      1       0.2872472       71.71715
2012    30      2       0.2266498       59.46944
2012    30      3       0.2183079       57.86663
2012    30      4       0.1998645       53.60691
2012    30      5       0.2027403       54.37179
2012    30      6       0.2402184       62.62293
2012    30      7       0.2803317       71.01021
2013    1       0       0.2415454       61.26628
2013    1       1       0.2483367       62.31274
2013    1       2       0.2529314       63.10065
2013    1       3       0.2658798       65.86829
2013    1       4       0.3041589       73.1772
2013    1       5       0.3363108       79.70535
2013    1       6       0.2865821       71.10338
2013    1       7       0.213806        56.03801
2013    2       0       0.1617253       44.19816
2013    2       1       0.1732206       46.61741
2013    2       2       0.1901704       50.1243
2013    2       3       0.2062469       53.98566
2013    2       4       0.2150202       56.1373
2013    2       5       0.1765898       47.90405
2013    2       6       0.1689976       46.17957
2013    2       7       0.1635003       45.24185
2013    3       0       0.1494818       42.01673
2013    3       1       0.1306547       37.68267
2013    3       2       0.1155059       34.13162
2013    3       3       0.1065866       32.02141
2013    3       4       0.09573706      29.56975
2013    3       5       0.09404531      29.24076
2013    3       6       0.1086519       32.86086
2013    3       7       0.1185036       35.09838
2013    4       0       0.1133385       33.75193
2013    4       1       0.1131828       33.66202
2013    4       2       0.119721        35.08689
2013    4       3       0.1252681       36.32921
2013    4       4       0.1181347       34.69303
2013    4       5       0.1166152       34.3826
2013    4       6       0.1139046       33.91255
2013    4       7       0.1187258       35.26179
2013    5       0       0.1147599       34.29025
2013    5       1       0.1112674       33.48465
2013    5       2       0.125775        37.01678
2013    5       3       0.1389225       40.15094
2013    5       4       0.1452659       41.45343
2013    5       5       0.1796846       49.05593
2013    5       6       0.1988244       53.50386
2013    5       7       0.2091062       56.00679
2013    6       0       0.1854901       50.88382
2013    6       1       0.1656632       46.46624
2013    6       2       0.1599086       44.90733
2013    6       3       0.1474855       42.0827
2013    6       4       0.135976        39.40707
2013    6       5       0.1281821       37.60414
2013    6       6       0.1191513       35.46502
2013    6       7       0.1065686       32.41869
2013    7       0       0.09446854      29.29126
2013    7       1       0.08373422      26.3934
2013    7       2       0.07357466      23.65013
2013    7       3       0.08077594      25.49046
2013    7       4       0.09769249      29.61372
2013    7       5       0.1338882       38.34575
2013    7       6       0.1320536       38.11295
2013    7       7       0.1412683       40.25786
2013    8       0       0.1340726       38.33111
2013    8       1       0.1267542       35.83202
2013    8       2       0.1351365       37.70442
2013    8       3       0.155923        42.81173
2013    8       4       0.1653927       45.42678
2013    8       5       0.1967905       52.6282
2013    8       6       0.2263542       58.93905
2013    8       7       0.2607617       65.78478
2013    9       0       0.270661        67.73193
2013    9       1       0.2570251       65.21189
2013    9       2       0.2778589       69.58533
2013    9       3       0.3182126       77.55133
2013    9       4       0.3337911       80.71777
2013    9       5       0.3783299       89.0888
2013    9       6       0.4387783       99.91897
2013    9       7       0.4682121       104.6881
2013    10      0       0.4573703       102.833
2013    10      1       0.4544068       102.3875
2013    10      2       0.4586808       103.2623
2013    10      3       0.4959455       109.3844
2013    10      4       0.4703527       105.3479
2013    10      5       0.4330318       99.12944
2013    10      6       0.4093469       95.04458
2013    10      7       0.3610055       86.36661
2013    11      0       0.2970589       74.14658
2013    11      1       0.2358642       61.60899
2013    11      2       0.2104585       56.0885
2013    11      3       0.2188997       57.93013
2013    11      4       0.2527423       65.163
2013    11      5       0.2505397       64.81759
2013    11      6       0.2238882       59.38984
2013    11      7       0.2052793       55.47784
2013    12      0       0.1547452       43.81386
2013    12      1       0.1285806       37.40504
2013    12      2       0.1588754       44.39196
2013    12      3       0.1945789       52.29921
2013    12      4       0.2542516       64.97207
2013    12      5       0.2769751       69.60056
2013    12      6       0.2726936       68.84702
2013    12      7       0.2892042       72.31034
2013    13      0       0.2767881       69.83896
2013    13      1       0.2887177       72.34014
2013    13      2       0.3911764       91.42375
2013    13      3       0.5410444       115.9754
2013    13      4       0.706641        138.9198
2013    13      5       0.6644669       133.6451
2013    13      6       0.5852193       123.301
2013    13      7       0.5603989       119.7537
2013    14      0       0.5620999       119.5349
2013    14      1       0.5023132       110.3866
2013    14      2       0.4912256       108.4904
2013    14      3       0.6321235       128.4242
2013    14      4       0.7100892       139.111
2013    14      5       0.61455         127.3092
2013    14      6       0.5524577       118.5462
2013    14      7       0.5040123       111.1615
2013    15      0       0.4817407       107.4495
2013    15      1       0.4450656       101.2358
2013    15      2       0.4362255       99.5426
2013    15      3       0.3968747       92.55473
2013    15      4       0.3395625       82.02958
2013    15      5       0.2963786       73.82889
2013    15      6       0.2935858       73.28064
2013    15      7       0.2931573       73.20447
2013    16      0       0.2410469       62.55308
2013    16      1       0.222061        58.3902
2013    16      2       0.1877541       50.82119
2013    16      3       0.1557505       43.52551
2013    16      4       0.1277982       36.97011
2013    16      5       0.1332089       38.22803
2013    16      6       0.1630378       45.11524
2013    16      7       0.1549033       43.34147
2013    17      0       0.1465959       41.28786
2013    17      1       0.1571071       43.66342
2013    17      2       0.1561869       43.48675
2013    17      3       0.1607783       44.52482
2013    17      4       0.1781534       48.43112
2013    17      5       0.1921524       51.49136
2013    17      6       0.2262823       58.87224
2013    17      7       0.252112        64.37794
2013    18      0       0.2386725       61.4793
2013    18      1       0.256177        65.01888
2013    18      2       0.3005724       73.74727
2013    18      3       0.3189176       77.11121
2013    18      4       0.3067669       74.80619
2013    18      5       0.3140133       76.26005
2013    18      6       0.3269267       78.55276
2013    18      7       0.3067388       74.84305
2013    19      0       0.269538        67.22436
2013    19      1       0.2643298       66.07311
2013    19      2       0.2642931       65.89953
2013    19      3       0.2948267       71.88625
2013    19      4       0.2968458       72.3052
2013    19      5       0.2963737       72.16059
2013    19      6       0.3436076       81.0701
2013    19      7       0.3426333       80.69676
2013    20      0       0.2708398       67.11298
2013    20      1       0.257488        64.40738
2013    20      2       0.2652369       65.89454
2013    20      3       0.2433482       61.35565
2013    20      4       0.2270852       58.03794
2013    20      5       0.2176247       55.89812
2013    20      6       0.256261        63.63505
2013    20      7       0.2361743       59.54039
2013    21      0       0.1910198       50.16279
2013    21      1       0.169123        45.55011
2013    21      2       0.1279214       36.39979
2013    21      3       0.09547888      28.7041
2013    21      4       0.08757997      26.77275
2013    21      5       0.09102676      27.67563
2013    21      6       0.1085861       31.91216
2013    21      7       0.1585271       43.43317
2013    22      0       0.2056057       53.73881
2013    22      1       0.2252384       57.92757
2013    22      2       0.2437747       61.36926
2013    22      3       0.2596773       64.15105
2013    22      4       0.2667211       65.41316
2013    22      5       0.2851277       68.62783
2013    22      6       0.3139685       73.68946
2013    22      7       0.2941911       70.06576
2013    23      0       0.2989595       70.95712
2013    23      1       0.3327292       77.22557
2013    23      2       0.4315723       94.52849
2013    23      3       0.5185947       109.0872
2013    23      4       0.5623792       116.1336
2013    23      5       0.5161756       109.9315
2013    23      6       0.4275251       96.00283
2013    23      7       0.3990558       91.26812
2013    24      0       0.3165662       76.39934
2013    24      1       0.2786368       69.20516
2013    24      2       0.2314047       59.80483
2013    24      3       0.194851        52.01382
2013    24      4       0.1861136       50.07871
2013    24      5       0.1729658       47.16234
2013    24      6       0.1995279       53.07289
2013    24      7       0.1799157       48.71331
2013    25      0       0.1535497       42.60357
2013    25      1       0.1543481       42.55899
2013    25      2       0.1596138       43.55994
2013    25      3       0.17961         47.8634
2013    25      4       0.1990553       52.08616
2013    25      5       0.2100367       54.67087
2013    25      6       0.2027939       53.43427
2013    25      7       0.1763738       47.97078
2013    26      0       0.1292367       37.14197
2013    26      1       0.1283001       36.80879
2013    26      2       0.1266488       36.3356
2013    26      3       0.1730074       46.09827
2013    26      4       0.2657332       64.73373
2013    26      5       0.2796606       67.55741
2013    26      6       0.3717182       85.07195
2013    26      7       0.3745516       86.26112
2013    27      0       0.3952754       89.4833
2013    27      1       0.5888487       120.1842
2013    27      2       0.6241269       125.3856
2013    27      3       0.5175364       109.729
2013    27      4       0.5130004       108.6275
2013    27      5       0.5465178       114.2595
2013    27      6       0.5440527       113.9943
2013    27      7       0.5132942       109.1946
2013    28      0       0.3987427       90.33994
2013    28      1       0.2753761       67.90338
2013    28      2       0.3083882       74.7621
2013    28      3       0.2720479       67.52868
2013    28      4       0.2591965       65.03924
2013    28      5       0.1637698       44.77101
2013    28      6       0.1277727       36.55969
2013    28      7       0.1127328       33.06471
2013    29      0       0.08258384      25.74995
2013    29      1       0.07939307      24.90394
2013    29      2       0.08617173      26.62774
2013    29      3       0.05705586      19.31184
2013    29      4       0.05789123      19.38712
2013    29      5       0.07439412      23.47675
2013    29      6       0.07861901      24.53061
2013    29      7       0.06423136      21.18232
2013    30      0       0.05040311      17.55705
2013    30      1       0.04228236      15.37256
2013    30      2       0.03948286      14.63358
2013    30      3       0.04480799      16.03827
2013    30      4       0.05011655      17.38809
2013    30      5       0.06478736      21.01526
2013    30      6       0.1184099       33.34633
2013    30      7       0.1228858       34.62405
2014    1       0       0.08696045      26.63338
2014    1       1       0.08236987      25.51833
2014    1       2       0.07832174      24.53224
2014    1       3       0.07375297      23.41781
2014    1       4       0.06707816      21.81416
2014    1       5       0.06117132      20.4623
2014    1       6       0.06044921      20.37119
2014    1       7       0.06338619      20.98472
2014    2       0       0.06968618      22.35251
2014    2       1       0.0911396       27.49491
2014    2       2       0.09833481      29.25702
2014    2       3       0.1013454       30.0629
2014    2       4       0.09635271      28.97863
2014    2       5       0.08502052      26.38068
2014    2       6       0.0893674       27.47705
2014    2       7       0.09741833      29.51647
2014    3       0       0.1031982       31.01212
2014    3       1       0.1289213       37.19947
2014    3       2       0.1468481       41.31883
2014    3       3       0.1642857       45.24911
2014    3       4       0.1726976       47.12884
2014    3       5       0.1694672       46.53455
2014    3       6       0.205597        54.53028
2014    3       7       0.2163651       56.71707
2014    4       0       0.2380701       61.06311
2014    4       1       0.3605315       84.89289
2014    4       2       0.5476037       116.1321
2014    4       3       0.5330476       113.8688
2014    4       4       0.4982781       108.3814
2014    4       5       0.4611042       102.3443
2014    4       6       0.3028369       74.06021
2014    4       7       0.2396782       61.38325
2014    5       0       0.1745043       47.30042
2014    5       1       0.1147133       33.57271
2014    5       2       0.08308185      25.87274
2014    5       3       0.06656569      21.66812
2014    5       4       0.05270108      18.04181
2014    5       5       0.05695774      19.18385
2014    5       6       0.09107758      27.81181
2014    5       7       0.08788212      27.08888
2014    6       0       0.06192114      20.46941
2014    6       1       0.05602814      18.88319
2014    6       2       0.06715346      21.56442
2014    6       3       0.105398        30.29055
2014    6       4       0.1220691       34.12364
2014    6       5       0.09235608      27.68316
2014    6       6       0.1044372       30.71366
2014    6       7       0.1070413       31.34704
2014    7       0       0.1063229       30.7597
2014    7       1       0.09738813      28.61926
2014    7       2       0.1062905       30.85312
2014    7       3       0.1215206       34.31754
2014    7       4       0.1294732       35.9799
2014    7       5       0.1558359       41.46912
2014    7       6       0.2035268       51.23785
2014    7       7       0.1610659       42.83513
2014    8       0       0.1077323       31.00543
2014    8       1       0.09240607      27.35725
2014    8       2       0.1240913       34.49962
2014    8       3       0.2232156       55.11096
2014    8       4       0.2207433       55.03459
2014    8       5       0.2223802       55.67252
2014    8       6       0.2442329       60.61073
2014    8       7       0.2588975       64.04216
2014    9       0       0.2195667       56.58677
2014    9       1       0.1947347       51.38818
2014    9       2       0.1725866       46.73344
2014    9       3       0.1579495       43.6218
2014    9       4       0.1552481       42.9997
2014    9       5       0.1502509       41.89865
2014    9       6       0.1436536       40.407
2014    9       7       0.1363344       38.76511
2014    10      0       0.1358247       38.53996
2014    10      1       0.1379864       39.01584
2014    10      2       0.142773        39.94405
2014    10      3       0.1423355       39.8144
2014    10      4       0.1508353       41.38602
2014    10      5       0.1744688       46.10114
2014    10      6       0.1539955       42.19182
2014    10      7       0.1630573       44.07246
2014    11      0       0.1479688       40.6345
2014    11      1       0.1408431       39.09365
2014    11      2       0.1429561       39.46466
2014    11      3       0.1584628       42.79432
2014    11      4       0.1959545       50.79516
2014    11      5       0.2931762       69.6233
2014    11      6       0.3568948       81.2686
2014    11      7       0.4132536       90.91541
2014    12      0       0.4232113       92.91543
2014    12      1       0.4631627       99.81196
2014    12      2       0.4787992       102.6863
2014    12      3       0.4287249       94.23977
2014    12      4       0.3826393       86.69298
2014    12      5       0.3257381       76.26177
2014    12      6       0.2974057       71.48738
2014    12      7       0.2120369       54.81371
2014    13      0       0.1488902       40.90211
2014    13      1       0.1488254       40.24246
2014    13      2       0.1645285       44.06576
2014    13      3       0.1641353       44.03673
2014    13      4       0.1795809       47.49996
2014    13      5       0.1832358       48.51778
2014    13      6       0.1809937       48.39957
2014    13      7       0.1821678       48.63831
2014    14      0       0.1843534       48.73065
2014    14      1       0.1889746       49.97826
2014    14      2       0.1905627       50.54459
2014    14      3       0.1979287       52.14003
2014    14      4       0.2134185       55.57828
2014    14      5       0.2332341       59.78465
2014    14      6       0.2438736       62.18911
2014    14      7       0.2384746       61.3817
2014    15      0       0.1954037       52.09553
2014    15      1       0.1872632       50.65105
2014    15      2       0.1799148       49.12044
2014    15      3       0.1799404       49.1944
2014    15      4       0.1718507       47.54678
2014    15      5       0.1635703       45.7189
2014    15      6       0.1745518       48.11707
2014    15      7       0.1753362       48.23288
2014    16      0       0.1478457       41.88184
2014    16      1       0.1297971       37.54305
2014    16      2       0.1292155       37.50142
2014    16      3       0.1271092       37.1596
2014    16      4       0.1319492       38.37305
2014    16      5       0.1376476       39.83548
2014    16      6       0.1300878       38.12382
2014    16      7       0.1229712       36.52616
2014    17      0       0.110076        33.27513
2014    17      1       0.1148497       34.48813
2014    17      2       0.1089359       33.03263
2014    17      3       0.1019894       31.43329
2014    17      4       0.08641819      27.48447
2014    17      5       0.08716269      27.60732
2014    17      6       0.09103946      28.45013
2014    17      7       0.08828683      27.87312
2014    18      0       0.0756631       24.62004
2014    18      1       0.07568769      24.55904
2014    18      2       0.07763498      24.9899
2014    18      3       0.08033744      25.65894
2014    18      4       0.08309556      26.39001
2014    18      5       0.08356673      26.53088
2014    18      6       0.08753405      27.49527
2014    18      7       0.08739083      27.43055
2014    19      0       0.07623043      24.54574
2014    19      1       0.07579936      24.41789
2014    19      2       0.07415849      24.01896
2014    19      3       0.08052937      25.5744
2014    19      4       0.09158244      28.28775
2014    19      5       0.09784545      29.91594
2014    19      6       0.1083031       32.62134
2014    19      7       0.1260601       36.93092
2014    20      0       0.1422222       40.61099
2014    20      1       0.165687        45.75478
2014    20      2       0.2001574       53.15839
2014    20      3       0.2075278       54.90121
2014    20      4       0.2091946       55.41896
2014    20      5       0.2195931       57.61447
2014    20      6       0.2505958       63.8954
2014    20      7       0.2619482       66.04704
2014    21      0       0.2386075       61.23396
2014    21      1       0.2360211       60.69133
2014    21      2       0.231274        59.52489
2014    21      3       0.2282389       58.60509
2014    21      4       0.2348495       60.30407
2014    21      5       0.2465414       62.96524
2014    21      6       0.2426759       61.976
2014    21      7       0.2229648       57.64713
2014    22      0       0.2072353       53.95179
2014    22      1       0.2121138       54.98696
2014    22      2       0.2154409       55.69219
2014    22      3       0.2389842       60.4141
2014    22      4       0.2298154       58.41429
2014    22      5       0.2325461       59.10974
2014    22      6       0.2488993       62.27226
2014    22      7       0.237047        59.85241
2014    23      0       0.2100177       54.52563
2014    23      1       0.1924331       50.8957
2014    23      2       0.1790044       48.07925
2014    23      3       0.1620597       44.36632
2014    23      4       0.1539808       42.6433
2014    23      5       0.1458307       40.96665
2014    23      6       0.1373185       39.15117
2014    23      7       0.1306679       37.61041
2014    24      0       0.1358811       38.56457
2014    24      1       0.148186        41.30017
2014    24      2       0.1477992       41.21143
2014    24      3       0.1715641       46.5812
2014    24      4       0.2113162       55.23267
2014    24      5       0.2617612       65.6739
2014    24      6       0.2910537       71.59672
2014    24      7       0.2756206       68.62425
2014    25      0       0.2204354       57.19182
2014    25      1       0.1895898       50.53167
2014    25      2       0.1836099       49.15072
2014    25      3       0.1773326       47.69069
2014    25      4       0.1775328       47.67821
2014    25      5       0.1969831       51.89607
2014    25      6       0.2121298       55.16957
2014    25      7       0.2172738       56.2048
2014    26      0       0.1747497       46.89611
2014    26      1       0.178216        47.50912
2014    26      2       0.2056824       53.23882
2014    26      3       0.2602333       64.29711
2014    26      4       0.2399462       60.09615
2014    26      5       0.221424        56.06189
2014    26      6       0.3021047       71.49799
2014    26      7       0.2601052       63.56528
2014    27      0       0.1751183       46.54177
2014    27      1       0.1755509       46.74919
2014    27      2       0.1626768       44.02718
2014    27      3       0.1391244       38.83279
2014    27      4       0.1118869       32.52523
2014    27      5       0.09884244      29.44773
2014    27      6       0.1027413       30.43808
2014    27      7       0.1033564       30.76932
2014    28      0       0.08260699      25.85037
2014    28      1       0.0715933       23.16
2014    28      2       0.06089878      20.45712
2014    28      3       0.05397398      18.69437
2014    28      4       0.04828934      17.2314
2014    28      5       0.04219062      15.64295
2014    28      6       0.0423582       15.72742
2014    28      7       0.0410086       15.39428
2014    29      0       0.03660007      14.15386
2014    29      1       0.03712383      14.25449
2014    29      2       0.04178266      15.46441
2014    29      3       0.04569439      16.46033
2014    29      4       0.04833831      17.17792
2014    29      5       0.05277875      18.38497
2014    29      6       0.05821339      19.80833
2014    29      7       0.05534859      18.99843
2014    30      0       0.05971824      20.06555
2014    30      1       0.0688003       22.363
2014    30      2       0.07568103      24.03426
2014    30      3       0.07670431      24.33234
2014    30      4       0.08289869      25.80851
2014    30      5       0.08988446      27.40826
2014    30      6       0.1073039       31.57306
2014    30      7       0.1185546       34.22339
2015    1       0       0.1429223       40.25905
2015    1       1       0.1350364       38.4695
2015    1       2       0.1184715       34.58647
2015    1       3       0.1153095       33.90847
2015    1       4       0.1154497       33.78755
2015    1       5       0.1185094       34.5377
2015    1       6       0.1380488       38.95912
2015    1       7       0.1695186       46.01489
2015    2       0       0.1688389       46.25885
2015    2       1       0.1997995       53.01144
2015    2       2       0.2523107       64.05635
2015    2       3       0.3218901       78.14433
2015    2       4       0.3609206       85.8293
2015    2       5       0.3393553       81.92764
2015    2       6       0.3194759       78.04268
2015    2       7       0.3168489       77.39674
2015    3       0       0.335537        80.89535
2015    3       1       0.3359096       80.58908
2015    3       2       0.2793517       69.50067
2015    3       3       0.2416044       61.66973
2015    3       4       0.1945404       51.9701
2015    3       5       0.1645554       45.15291
2015    3       6       0.1617908       44.44312
2015    3       7       0.1644769       45.03527
2015    4       0       0.1726803       46.74593
2015    4       1       0.1609537       44.15078
2015    4       2       0.1569902       43.10493
2015    4       3       0.1575419       42.9641
2015    4       4       0.1517859       41.89331
2015    4       5       0.1397503       39.39252
2015    4       6       0.1408038       39.47085
2015    4       7       0.116823        34.05074
2015    5       0       0.1020609       30.41104
2015    5       1       0.08589806      26.56201
2015    5       2       0.06928093      22.5132
2015    5       3       0.0573131       19.37973
2015    5       4       0.05571558      18.95738
2015    5       5       0.06021079      20.15253
2015    5       6       0.05953941      19.97821
2015    5       7       0.05571588      18.98397
2015    6       0       0.05420072      18.60621
2015    6       1       0.0573474       19.47409
2015    6       2       0.06404625      21.27945
2015    6       3       0.06828424      22.45609
2015    6       4       0.07237248      23.51479
2015    6       5       0.07678502      24.60359
2015    6       6       0.07064892      23.01414
2015    6       7       0.06333125      21.13078
2015    7       0       0.06335029      21.14995
2015    7       1       0.06336003      21.15494
2015    7       2       0.0612166       20.60053
2015    7       3       0.06210392      20.82125
2015    7       4       0.06498683      21.59782
2015    7       5       0.07243111      23.45646
2015    7       6       0.0790397       25.16924
2015    7       7       0.09264486      28.5553
2015    8       0       0.104598        31.35886
2015    8       1       0.1145001       33.71438
2015    8       2       0.1103824       32.79821
2015    8       3       0.1056556       31.7334
2015    8       4       0.1012266       30.68965
2015    8       5       0.1003178       30.46053
2015    8       6       0.1056999       31.76617
2015    8       7       0.1088213       32.53611
2015    9       0       0.1050537       31.6443
2015    9       1       0.1074366       32.21194
2015    9       2       0.1154953       34.09777
2015    9       3       0.1179178       34.62386
2015    9       4       0.1225598       35.67801
2015    9       5       0.1367496       38.96675
2015    9       6       0.1568024       43.56692
2015    9       7       0.1792895       48.44149
2015    10      0       0.1849397       49.61505
2015    10      1       0.2032495       53.54504
2015    10      2       0.2338837       60.07997
2015    10      3       0.243555        62.17869
2015    10      4       0.2340937       60.23533
2015    10      5       0.2427324       62.00625
2015    10      6       0.242457        62.00868
2015    10      7       0.2300129       59.40433
2015    11      0       0.2025541       53.52828
2015    11      1       0.1869246       50.05341
2015    11      2       0.195741        51.9836
2015    11      3       0.1814227       48.96088
2015    11      4       0.1605249       44.43582
2015    11      5       0.1449668       40.9075
2015    11      6       0.1348066       38.61207
2015    11      7       0.1295131       37.45679
2015    12      0       0.1210928       35.42853
2015    12      1       0.1173092       34.42997
2015    12      2       0.1208238       35.21153
2015    12      3       0.1226151       35.59798
2015    12      4       0.1243076       35.8997
2015    12      5       0.1339253       38.02588
2015    12      6       0.1532085       42.43749
2015    12      7       0.1588245       43.66789
2015    13      0       0.1667682       45.26207
2015    13      1       0.1636717       44.45258
2015    13      2       0.1828561       48.90887
2015    13      3       0.1417917       39.52275
2015    13      4       0.1287756       36.59743
2015    13      5       0.1237531       35.45517
2015    13      6       0.1164974       33.83915
2015    13      7       0.1033681       30.78008
2015    14      0       0.09146451      27.90519
2015    14      1       0.08787157      26.99524
2015    14      2       0.08690873      26.77858
2015    14      3       0.07053148      22.67991
2015    14      4       0.0683147       22.19392
2015    14      5       0.05584914      19.07608
2015    14      6       0.05876666      19.85421
2015    14      7       0.0546828       18.82793
2015    15      0       0.05022023      17.7011
2015    15      1       0.05123548      17.97079
2015    15      2       0.04840785      17.22524
2015    15      3       0.04308842      15.83829
2015    15      4       0.04333189      15.92042
2015    15      5       0.04937496      17.52884
2015    15      6       0.05998477      20.2777
2015    15      7       0.06259929      20.95522
2015    16      0       0.05756284      19.58842
2015    16      1       0.06095824      20.36803
2015    16      2       0.06194379      20.53402
2015    16      3       0.0639353       20.99022
2015    16      4       0.06871808      22.15693
2015    16      5       0.07289281      23.25109
2015    16      6       0.06946447      22.36757
2015    16      7       0.06845508      22.09599
2015    17      0       0.06467871      21.10723
2015    17      1       0.07097782      22.72247
2015    17      2       0.07344406      23.29257
2015    17      3       0.07694045      24.08306
2015    17      4       0.08467113      25.97235
2015    17      5       0.09496968      28.56855
2015    17      6       0.0990033       29.69636
2015    17      7       0.08831258      27.28934
2015    18      0       0.07124283      22.99553
2015    18      1       0.0695125       22.30053
2015    18      2       0.08133593      25.00281
2015    18      3       0.08136207      24.97871
2015    18      4       0.07831962      24.4116
2015    18      5       0.06702572      21.97168
2015    18      6       0.06956103      22.57077
2015    18      7       0.08405132      25.96196
2015    19      0       0.1045084       30.57307
2015    19      1       0.1532084       41.33695
2015    19      2       0.1943397       49.97829
2015    19      3       0.2319727       57.75004
2015    19      4       0.1963736       51.09255
2015    19      5       0.1709891       46.04878
2015    19      6       0.1600769       43.8064
2015    19      7       0.1629552       44.5244
2015    20      0       0.1748446       47.08341
2015    20      1       0.164597        44.84846
2015    20      2       0.1462788       40.90104
2015    20      3       0.1460053       40.97339
2015    20      4       0.1700008       46.37619
2015    20      5       0.1633087       45.18216
2015    20      6       0.1649103       45.54688
2015    20      7       0.1722316       47.20942
2015    21      0       0.1715055       46.98001
2015    21      1       0.1695728       46.66517
2015    21      2       0.1842229       49.99825
2015    21      3       0.2130264       56.07178
2015    21      4       0.2573743       64.81947
2015    21      5       0.2777141       68.85914
2015    21      6       0.2542212       64.74778
2015    21      7       0.2003993       53.56204
2015    22      0       0.200118        53.33259
2015    22      1       0.2103121       55.62212
2015    22      2       0.1978472       52.61795
2015    22      3       0.2131882       55.7831
2015    22      4       0.2790536       69.62623
2015    22      5       0.2123495       55.92086
2015    22      6       0.1860133       50.33513
2015    22      7       0.1693701       46.53217
2015    23      0       0.1627184       44.50206
2015    23      1       0.1642405       44.36823
2015    23      2       0.1692731       45.71785
2015    23      3       0.1686273       46.13513
2015    23      4       0.1836029       49.43707
2015    23      5       0.210653        55.29582
2015    23      6       0.2365317       60.67603
2015    23      7       0.1925329       51.52539
2015    24      0       0.2057468       54.2163
2015    24      1       0.1998314       53.11228
2015    24      2       0.1934272       51.81626
2015    24      3       0.2017062       53.60837
2015    24      4       0.1809595       49.0787
2015    24      5       0.1691018       46.52297
2015    24      6       0.1724934       47.40314
2015    24      7       0.1729761       47.51729
2015    25      0       0.1565179       43.61457
2015    25      1       0.1603346       44.2372
2015    25      2       0.1468954       41.27653
2015    25      3       0.132226        37.98443
2015    25      4       0.1158667       34.17098
2015    25      5       0.09667664      29.61367
2015    25      6       0.08200446      26.02131
2015    25      7       0.06334627      21.20154
2015    26      0       0.05252439      18.17597
2015    26      1       0.06315676      20.80749
2015    26      2       0.07071516      22.76329
2015    26      3       0.06703314      21.88465
2015    26      4       0.06449144      21.26532
2015    26      5       0.06145241      20.42985
2015    26      6       0.06882158      22.24034
2015    26      7       0.07641615      23.84001
2015    27      0       0.07345418      22.94498
2015    27      1       0.05955578      19.71099
2015    27      2       0.06507984      21.13377
2015    27      3       0.08294092      25.49889
2015    27      4       0.08052121      25.03539
2015    27      5       0.08282638      25.64798
2015    27      6       0.09500792      28.64856
2015    27      7       0.1005944       29.98686
2015    28      0       0.1054145       30.96783
2015    28      1       0.1703491       44.89829
2015    28      2       0.1818472       47.32814
2015    28      3       0.1560822       42.10554
2015    28      4       0.1509204       41.15817
2015    28      5       0.1514254       41.39397
2015    28      6       0.1408327       39.28762
2015    28      7       0.1334996       37.69417
2015    29      0       0.1329465       37.55328
2015    29      1       0.1313185       37.24905
2015    29      2       0.1391791       38.97966
2015    29      3       0.137866        38.67809
2015    29      4       0.1212582       34.96699
2015    29      5       0.1098378       32.35164
2015    29      6       0.1077702       32.03474
2015    29      7       0.1025287       30.86
2015    30      0       0.09752294      29.56759
2015    30      1       0.09692339      29.35022
2015    30      2       0.09593781      29.01481
2015    30      3       0.09685315      29.09272
2015    30      4       0.1084103       31.59188
2015    30      5       0.1249766       35.32264
2015    30      6       0.1437444       39.56234
2015    30      7       0.1576754       42.75193
2016    1       0       0.5825141       118.0615
2016    1       1       0.632178        125.6031
2016    1       2       0.5454396       113.6203
2016    1       3       0.5114079       108.5453
2016    1       4       0.4002446       90.20076
2016    1       5       0.442883        96.8543
2016    1       6       0.5185297       108.7955
2016    1       7       0.5302866       110.5242
2016    2       0       0.5397275       112.0045
2016    2       1       0.5270436       110.2083
2016    2       2       0.6089928       122.1624
2016    2       3       0.6456339       127.5637
2016    2       4       0.6971607       134.8998
2016    2       5       0.7189606       137.7925
2016    2       6       0.6829097       132.8712
2016    2       7       0.6441442       127.8567
2016    3       0       0.5517599       114.6275
2016    3       1       0.4610323       100.5425
2016    3       2       0.4243319       94.54559
2016    3       3       0.4446062       97.62774
2016    3       4       0.420138        93.64624
2016    3       5       0.4063851       91.72359
2016    3       6       0.4472276       98.3606
2016    3       7       0.5337083       112.1717
2016    4       0       0.6800552       133.1882
2016    4       1       0.6691884       131.2689
2016    4       2       0.6750513       132.0911
2016    4       3       0.6196076       125.1695
2016    4       4       0.5018078       107.9099
2016    4       5       0.4350871       96.68333
2016    4       6       0.4387266       97.169
2016    4       7       0.4937585       106.0633
2016    5       0       0.4788614       104.1301
2016    5       1       0.470077        102.6138
2016    5       2       0.4585461       100.6347
2016    5       3       0.4371613       97.05745
2016    5       4       0.4472205       98.27999
2016    5       5       0.4326634       95.70926
2016    5       6       0.4039951       90.87845
2016    5       7       0.3249315       77.041
2016    6       0       0.2046634       53.32135
2016    6       1       0.1988933       51.96752
2016    6       2       0.1994942       52.05769
2016    6       3       0.1640816       44.46853
2016    6       4       0.09929258      29.56751
2016    6       5       0.07270162      23.10294
2016    6       6       0.09083553      27.63033
2016    6       7       0.1087577       32.06899
2016    7       0       0.1033711       30.78946
2016    7       1       0.1125796       32.97101
2016    7       2       0.1054181       31.24946
2016    7       3       0.09639621      29.03912
2016    7       4       0.09933052      29.77336
2016    7       5       0.1045263       31.10398
2016    7       6       0.1247839       35.99131
2016    7       7       0.1324274       37.84011
2016    8       0       0.1149439       33.752
2016    8       1       0.1063474       31.74093
2016    8       2       0.1104892       32.73546
2016    8       3       0.1089437       32.35011
2016    8       4       0.08226564      25.79628
2016    8       5       0.07719427      24.45426
2016    8       6       0.0964839       29.07917
2016    8       7       0.1078266       31.6612
2016    9       0       0.09640241      28.86413
2016    9       1       0.09800359      29.15942
2016    9       2       0.09694882      28.90305
2016    9       3       0.1013988       29.90137
2016    9       4       0.1131158       32.53687
2016    9       5       0.1080369       31.32169
2016    9       6       0.1216424       34.5807
2016    9       7       0.1238327       35.09423
2016    10      0       0.124186        35.05038
2016    10      1       0.1349458       37.37478
2016    10      2       0.108729        31.62784
2016    10      3       0.09032796      27.34145
2016    10      4       0.09763312      29.09423
2016    10      5       0.1113105       32.36676
2016    10      6       0.1396029       38.91077
2016    10      7       0.1661689       44.92298
2016    11      0       0.1858123       49.22406
2016    11      1       0.1792639       47.83788
2016    11      2       0.1730493       46.75018
2016    11      3       0.2037267       53.45896
2016    11      4       0.2442661       61.86378
2016    11      5       0.2768032       68.67659
2016    11      6       0.3441602       81.29465
2016    11      7       0.4041769       91.53553
2016    12      0       0.4233753       95.00944
2016    12      1       0.3663109       86.06669
2016    12      2       0.4018209       92.33317
2016    12      3       0.5952124       122.2358
2016    12      4       0.6622715       132.2765
2016    12      5       0.7475411       143.1981
2016    12      6       0.6600116       131.6908
2016    12      7       0.7631885       144.5295
2016    13      0       0.7893365       147.7631
2016    13      1       0.7423926       142.6449
2016    13      2       0.5949741       122.8292
2016    13      3       0.581866        120.4893
2016    13      4       0.5722843       119.3907
2016    13      5       0.5621495       117.8315
2016    13      6       0.5287048       112.8506
2016    13      7       0.4913356       106.673
2016    14      0       0.4601655       101.6559
2016    14      1       0.5406632       114.4403
2016    14      2       0.6528895       131.498
2016    14      3       0.7280995       142.0691
2016    14      4       0.6397379       130.4394
2016    14      5       0.5782508       121.2275
2016    14      6       0.4268901       97.30695
2016    14      7       0.3585297       85.01155
2016    15      0       0.3257338       78.52538
2016    15      1       0.3052406       74.54881
2016    15      2       0.2772602       69.33215
2016    15      3       0.2528984       64.53335
2016    15      4       0.2496375       63.82823
2016    15      5       0.2284416       59.32243
2016    15      6       0.2437575       62.6203
2016    15      7       0.217576        57.25822
2016    16      0       0.1753306       47.86117
2016    16      1       0.1531055       42.65779
2016    16      2       0.1473156       41.27397
2016    16      3       0.1513541       42.34479
2016    16      4       0.1701302       46.57899
2016    16      5       0.1814147       48.9212
2016    16      6       0.2147266       55.8551
2016    16      7       0.2449637       61.92185
2016    17      0       0.2533104       63.21729
2016    17      1       0.2442826       61.5938
2016    17      2       0.2639989       65.24824
2016    17      3       0.2614823       64.67572
2016    17      4       0.2530549       62.77826
2016    17      5       0.2201585       56.52794
2016    17      6       0.2208073       57.2343
2016    17      7       0.2296212       59.24959
2016    18      0       0.195925        52.09692
2016    18      1       0.1808729       48.82558
2016    18      2       0.1590118       43.88479
2016    18      3       0.1452119       40.71311
2016    18      4       0.131319        37.58526
2016    18      5       0.1322489       37.79245
2016    18      6       0.1423377       40.18363
2016    18      7       0.1405466       39.8356
2016    19      0       0.1330233       37.95816
2016    19      1       0.1356129       38.42508
2016    19      2       0.1328496       37.70879
2016    19      3       0.1424717       39.86046
2016    19      4       0.1613793       44.10532
2016    19      5       0.1887316       50.18123
2016    19      6       0.211134        55.03212
2016    19      7       0.2110522       55.05137
2016    20      0       0.1936647       51.29217
2016    20      1       0.1881214       50.06525
2016    20      2       0.1771267       47.6772
2016    20      3       0.1557556       42.96078
2016    20      4       0.1516092       41.75906
2016    20      5       0.1601309       43.45397
2016    20      6       0.1526181       42.03868
2016    20      7       0.1392289       39.21041
2016    21      0       0.1117979       32.83823
2016    21      1       0.100987        30.27366
2016    21      2       0.09834955      29.55501
2016    21      3       0.1007705       30.04618
2016    21      4       0.1032915       30.69016
2016    21      5       0.1065997       31.46037
2016    21      6       0.1073963       31.75986
2016    21      7       0.1023408       30.6575
2016    22      0       0.1164618       33.64114
2016    22      1       0.1595364       43.03723
2016    22      2       0.1715632       45.84348
2016    22      3       0.1696986       45.71333
2016    22      4       0.1847705       49.16536
2016    22      5       0.1757172       47.46436
2016    22      6       0.1802873       48.40087
2016    22      7       0.1813673       48.60579
2016    23      0       0.1717821       46.48205
2016    23      1       0.1789795       47.90054
2016    23      2       0.1825281       48.948
2016    23      3       0.1932212       51.31769
2016    23      4       0.1883978       50.27912
2016    23      5       0.2001817       52.72486
2016    23      6       0.2123176       55.11994
2016    23      7       0.218796        56.24131
2016    24      0       0.2318925       58.8878
2016    24      1       0.2478273       62.22315
2016    24      2       0.2654413       65.73855
2016    24      3       0.2818583       68.84871
2016    24      4       0.2726753       66.83084
2016    24      5       0.279003        67.54986
2016    24      6       0.3209071       75.70631
2016    24      7       0.3387116       79.37804
2016    25      0       0.3784438       86.44913
2016    25      1       0.4467048       97.87765
2016    25      2       0.4368103       96.13698
2016    25      3       0.3947402       89.07161
2016    25      4       0.2937216       70.77774
2016    25      5       0.2687108       65.85592
2016    25      6       0.4079911       91.78034
2016    25      7       0.4108417       92.36464
2016    26      0       0.3244084       76.72856
2016    26      1       0.2911519       70.18933
2016    26      2       0.3350651       77.9364
2016    26      3       0.4168473       92.10186
2016    26      4       0.367083        83.84589
2016    26      5       0.3022794       72.3778
2016    26      6       0.271319        66.93198
2016    26      7       0.2984072       72.16395
2016    27      0       0.27377         67.32439
2016    27      1       0.250104        62.6467
2016    27      2       0.2174299       56.10025
2016    27      3       0.2012212       52.67514
2016    27      4       0.1991768       52.42388
2016    27      5       0.183354        49.22756
2016    27      6       0.1789061       48.31478
2016    27      7       0.1725713       46.96868
2016    28      0       0.1597234       44.04541
2016    28      1       0.1404626       39.62955
2016    28      2       0.1116359       32.77947
2016    28      3       0.08024885      25.16011
2016    28      4       0.07120247      22.86435
2016    28      5       0.08416803      26.16258
2016    28      6       0.09697447      29.44365
2016    28      7       0.09367253      28.74073
2016    29      0       0.1029215       31.00949
2016    29      1       0.1156888       34.07299
2016    29      2       0.1181492       34.67614
2016    29      3       0.1333664       38.24987
2016    29      4       0.1737199       47.51755
2016    29      5       0.2136107       56.34031
2016    29      6       0.251511        64.14383
2016    29      7       0.2526505       64.67957
2016    30      0       0.2293525       59.52157
2016    30      1       0.2482771       63.5414
2016    30      2       0.2785679       69.83715
2016    30      3       0.3095111       75.90565
2016    30      4       0.292015        72.34958
2016    30      5       0.2622764       66.44066
2016    30      6       0.2843072       70.80703
2016    30      7       0.3249419       78.78383
2017    1       0       0.1239454       35.97561
2017    1       1       0.1250418       36.30027
2017    1       2       0.1211795       35.30915
2017    1       3       0.109724        32.47171
2017    1       4       0.1021464       30.59622
2017    1       5       0.1037796       31.0504
2017    1       6       0.1161628       33.97619
2017    1       7       0.1150252       33.63249
2017    2       0       0.1159377       33.77461
2017    2       1       0.1135618       33.30768
2017    2       2       0.1102625       32.49081
2017    2       3       0.1132286       33.16281
2017    2       4       0.1263674       36.06946
2017    2       5       0.1271548       36.45031
2017    2       6       0.13558         38.55845
2017    2       7       0.1381459       39.07519
2017    3       0       0.1444406       40.49638
2017    3       1       0.1725198       46.99424
2017    3       2       0.1989254       52.80883
2017    3       3       0.2386454       60.92032
2017    3       4       0.274133        67.88781
2017    3       5       0.2840109       69.76475
2017    3       6       0.2552108       64.16508
2017    3       7       0.2067032       54.20772
2017    4       0       0.1619753       44.4786
2017    4       1       0.1352708       38.29953
2017    4       2       0.1172793       34.13939
2017    4       3       0.1041176       31.02564
2017    4       4       0.106132        31.51409
2017    4       5       0.1257017       35.98679
2017    4       6       0.1525883       42.09302
2017    4       7       0.1398259       39.12484
2017    5       0       0.1226032       35.02375
2017    5       1       0.1245503       35.32696
2017    5       2       0.128336        36.12447
2017    5       3       0.1196377       34.01473
2017    5       4       0.1022771       29.89554
2017    5       5       0.103273        30.33734
2017    5       6       0.1307981       37.02087
2017    5       7       0.1477979       40.98469
2017    6       0       0.1400152       39.22162
2017    6       1       0.1362798       38.38485
2017    6       2       0.1389173       39.05134
2017    6       3       0.1338428       37.8867
2017    6       4       0.1319765       37.50318
2017    6       5       0.1520731       42.2697
2017    6       6       0.1678027       45.91805
2017    6       7       0.1979224       52.63647
2017    7       0       0.1931868       51.63217
2017    7       1       0.2000439       53.14235
2017    7       2       0.2566729       64.77832
2017    7       3       0.2654779       66.28668
2017    7       4       0.4152978       94.3568
2017    7       5       0.4552594       100.9556
2017    7       6       0.3950922       90.27747
2017    7       7       0.5124241       109.6957
2017    8       0       0.3657597       84.78291
2017    8       1       0.2655595       65.84693
2017    8       2       0.2340329       59.11421
2017    8       3       0.2078524       53.5409
2017    8       4       0.1790153       47.56569
2017    8       5       0.1681874       45.05511
2017    8       6       0.1977222       51.39941
2017    8       7       0.258475        64.36628
2017    9       0       0.2472314       62.69373
2017    9       1       0.2133267       55.92844
2017    9       2       0.2202305       57.45525
2017    9       3       0.2180502       57.25625
2017    9       4       0.2294128       59.96386
2017    9       5       0.2014992       54.18977
2017    9       6       0.1769207       48.81572
2017    9       7       0.1650937       46.20289
2017    10      0       0.1402476       40.48915
2017    10      1       0.1156161       34.5741
2017    10      2       0.1168306       34.85214
2017    10      3       0.1280813       37.59563
2017    10      4       0.1414595       40.75656
2017    10      5       0.1473849       42.17991
2017    10      6       0.1621827       45.52492
2017    10      7       0.1618385       45.33862
2017    11      0       0.1656584       46.08205
2017    11      1       0.1754361       48.17123
2017    11      2       0.1924712       51.89008
2017    11      3       0.2064776       54.96635
2017    11      4       0.2154706       56.98711
2017    11      5       0.212754        56.43958
2017    11      6       0.1986006       53.40974
2017    11      7       0.1883453       51.16141
2017    12      0       0.1790432       49.02802
2017    12      1       0.1539408       43.23138
2017    12      2       0.1561891       43.71243
2017    12      3       0.1952117       52.47802
2017    12      4       0.2183236       57.60274
2017    12      5       0.1904695       51.62711
2017    12      6       0.1872047       50.86517
2017    12      7       0.1930868       52.09439
2017    13      0       0.1758638       48.13426
2017    13      1       0.1576352       43.9852
2017    13      2       0.1264179       36.53665
2017    13      3       0.1096563       32.49678
2017    13      4       0.1210329       35.24136
2017    13      5       0.1057262       31.47169
2017    13      6       0.1045966       31.23342
2017    13      7       0.1061938       31.55852
2017    14      0       0.1028865       30.798
2017    14      1       0.1152003       33.78116
2017    14      2       0.1248          36.04363
2017    14      3       0.1161749       34.16762
2017    14      4       0.1127829       33.25332
2017    14      5       0.1115081       32.94435
2017    14      6       0.119394        34.74104
2017    14      7       0.1173063       34.04744
2017    15      0       0.1014143       30.29238
2017    15      1       0.08704898      26.67964
2017    15      2       0.08726677      26.72007
2017    15      3       0.08546638      26.48264
2017    15      4       0.1199521       34.69806
2017    15      5       0.1601805       43.91655
2017    15      6       0.1930804       51.11538
2017    15      7       0.2224928       57.44697
2017    16      0       0.2222209       57.4503
2017    16      1       0.1975024       52.22192
2017    16      2       0.177292        47.78729
2017    16      3       0.1716335       46.72778
2017    16      4       0.1872854       50.24828
2017    16      5       0.1935388       51.67575
2017    16      6       0.2562029       64.94483
2017    16      7       0.4187067       96.00142
2017    17      0       0.4817645       106.2143
2017    17      1       0.3764921       87.72723
2017    17      2       0.3030567       73.81753
2017    17      3       0.3139614       75.90754
2017    17      4       0.1510626       41.96806
2017    17      5       0.1218461       35.26614
2017    17      6       0.07953584      25.03453
2017    17      7       0.05528235      18.88526
2017    18      0       0.04921932      17.10662
2017    18      1       0.05126365      17.53923
2017    18      2       0.05777238      19.09116
2017    18      3       0.06984397      21.876
2017    18      4       0.09276344      27.16756
2017    18      5       0.05315811      18.17325
2017    18      6       0.05842289      19.67182
2017    18      7       0.04777465      16.9699
2017    19      0       0.03505857      13.62595
2017    19      1       0.03454297      13.49644
2017    19      2       0.03632241      13.9656
2017    19      3       0.04456515      16.05283
2017    19      4       0.06055228      19.96641
2017    19      5       0.0828972       25.33391
2017    19      6       0.09907082      29.07042
2017    19      7       0.1248225       34.60313
2017    20      0       0.1197114       33.73855
2017    20      1       0.1251627       35.13107
2017    20      2       0.1593882       42.23953
2017    20      3       0.08945554      26.87226
2017    20      4       0.09261875      27.63942
2017    20      5       0.1077371       31.10347
2017    20      6       0.1166869       33.47184
2017    20      7       0.1266807       35.79277
2017    21      0       0.1255999       35.74906
2017    21      1       0.1291794       36.60459
2017    21      2       0.130952        36.92296
2017    21      3       0.1444376       40.0389
2017    21      4       0.1438596       39.99646
2017    21      5       0.1295915       36.66393
2017    21      6       0.1229748       35.15414
2017    21      7       0.1376001       38.66581
2017    22      0       0.1689688       45.70111
2017    22      1       0.1707694       46.18929
2017    22      2       0.1568954       42.93488
2017    22      3       0.1691332       45.75295
2017    22      4       0.1852161       49.53482
2017    22      5       0.1939274       51.24333
2017    22      6       0.2392962       60.48001
2017    22      7       0.3642006       83.57423
2017    23      0       0.4037882       90.77884
2017    23      1       0.331936        78.5868
2017    23      2       0.3322137       78.77777
2017    23      3       0.3216589       77.2849
2017    23      4       0.3397606       80.67626
2017    23      5       0.3257724       77.94995
2017    23      6       0.2851635       69.90492
2017    23      7       0.2789193       69.00547
2017    24      0       0.260526        65.66113
2017    24      1       0.2658281       66.59401
2017    24      2       0.295028        71.57289
2017    24      3       0.248766        63.11678
2017    24      4       0.2311525       59.61762
2017    24      5       0.2293544       59.16775
2017    24      6       0.1788058       48.4279
2017    24      7       0.1563825       43.28708
2017    25      0       0.1514404       42.05788
2017    25      1       0.1643362       44.88314
2017    25      2       0.1814917       48.72165
2017    25      3       0.1900503       50.6296
2017    25      4       0.219268        56.80207
2017    25      5       0.2257868       58.12964
2017    25      6       0.2075744       54.13174
2017    25      7       0.2065581       53.6985
2017    26      0       0.2431622       61.31565
2017    26      1       0.2605387       64.97171
2017    26      2       0.3395848       80.39492
2017    26      3       0.4325148       96.85094
2017    26      4       0.4743198       103.4342
2017    26      5       0.7195979       138.2258
2017    26      6       0.6726291       131.7113
2017    26      7       0.6992005       134.1328
2017    27      0       0.6702524       129.8155
2017    27      1       0.6088098       122.0161
2017    27      2       0.4626328       100.7021
2017    27      3       0.3406936       80.01434
2017    27      4       0.2365849       59.93105
2017    27      5       0.2465546       62.35487
2017    27      6       0.2426969       61.96567
2017    27      7       0.1976373       52.54127
2017    28      0       0.1036512       30.99053
2017    28      1       0.09958297      30.07065
2017    28      2       0.1032717       30.98812
2017    28      3       0.09421155      28.71663
2017    28      4       0.08428785      26.22938
2017    28      5       0.09299896      28.34319
2017    28      6       0.0962877       29.18459
2017    28      7       0.080498        25.31303
2017    29      0       0.0656987       21.62863
2017    29      1       0.05994976      20.19599
2017    29      2       0.05218961      18.21356
2017    29      3       0.04881628      17.32977
2017    29      4       0.05750247      19.49294
2017    29      5       0.05959028      20.02922
2017    29      6       0.07814865      24.87806
2017    29      7       0.07916383      25.03997
2017    30      0       0.08035635      25.20452
2017    30      1       0.0824605       25.83779
2017    30      2       0.07578526      24.2754
2017    30      3       0.07413671      23.94657
2017    30      4       0.06885706      22.55319
2017    30      5       0.07166295      23.08552
2017    30      6       0.07076517      23.08745
2017    30      7       0.05874233      20.10619
2018    1       0       0.2397955       61.67188
2018    1       1       0.2419041       61.58446
2018    1       2       0.2065808       54.24023
2018    1       3       0.1664409       45.33399
2018    1       4       0.1171525       34.17293
2018    1       5       0.09905933      29.95595
2018    1       6       0.1050943       31.49689
2018    1       7       0.09362761      28.69962
2018    2       0       0.07201555      23.26154
2018    2       1       0.07647184      24.32344
2018    2       2       0.0701978       22.69008
2018    2       3       0.07422007      23.69981
2018    2       4       0.07675606      24.31194
2018    2       5       0.07886041      24.89244
2018    2       6       0.08937317      27.32971
2018    2       7       0.08628916      26.31036
2018    3       0       0.08775594      26.54829
2018    3       1       0.09395226      28.10902
2018    3       2       0.1033726       30.28469
2018    3       3       0.1095982       31.74753
2018    3       4       0.1178295       33.65728
2018    3       5       0.1309199       36.87588
2018    3       6       0.1376565       38.48313
2018    3       7       0.1360284       37.95042
2018    4       0       0.119172        34.01866
2018    4       1       0.0853575       26.22973
2018    4       2       0.0561658       19.14294
2018    4       3       0.05820615      19.69143
2018    4       4       0.08174564      25.38592
2018    4       5       0.08220015      25.75281
2018    4       6       0.09440372      28.59723
2018    4       7       0.1096502       31.945
2018    5       0       0.1077772       31.63221
2018    5       1       0.1240449       35.62379
2018    5       2       0.1356127       38.49227
2018    5       3       0.1393815       39.31829
2018    5       4       0.1393475       39.32518
2018    5       5       0.1529163       42.41471
2018    5       6       0.196178        51.96099
2018    5       7       0.2441125       61.85135
2018    6       0       0.2813604       69.38388
2018    6       1       0.403644        92.59752
2018    6       2       0.4233406       95.75082
2018    6       3       0.4220754       95.64031
2018    6       4       0.4066932       93.80718
2018    6       5       0.4705459       103.834
2018    6       6       0.4810404       105.0144
2018    6       7       0.3643094       85.74769
2018    7       0       0.2309913       60.14605
2018    7       1       0.2343936       61.09096
2018    7       2       0.221786        58.21544
2018    7       3       0.239398        61.6232
2018    7       4       0.2188382       57.25912
2018    7       5       0.2213623       58.17511
2018    7       6       0.1819093       49.41587
2018    7       7       0.1446751       40.97526
2018    8       0       0.1424951       40.64238
2018    8       1       0.1342291       38.57564
2018    8       2       0.1430228       40.34652
2018    8       3       0.1661099       45.39474
2018    8       4       0.1798008       48.29742
2018    8       5       0.1997046       53.03909
2018    8       6       0.2164374       56.46277
2018    8       7       0.2161428       56.00413
2018    9       0       0.222982        57.56852
2018    9       1       0.217676        56.64523
2018    9       2       0.2126182       55.90364
2018    9       3       0.2244881       58.07696
2018    9       4       0.2185517       56.9792
2018    9       5       0.2301516       59.49623
2018    9       6       0.2673769       67.20787
2018    9       7       0.2815011       69.76675
2018    10      0       0.276121        68.13567
2018    10      1       0.2781173       68.02925
2018    10      2       0.3206548       75.61186
2018    10      3       0.3161126       75.65005
2018    10      4       0.3580663       83.85814
2018    10      5       0.49823         107.7046
2018    10      6       0.553422        115.6259
2018    10      7       0.4632591       101.511
2018    11      0       0.3529382       82.17731
2018    11      1       0.3786317       86.7214
2018    11      2       0.3153454       74.69619
2018    11      3       0.3080195       72.45849
2018    11      4       0.4075996       90.03798
2018    11      5       0.4767768       101.5614
2018    11      6       0.3798982       85.68483
2018    11      7       0.2619003       63.85179
2018    12      0       0.1604673       43.03904
2018    12      1       0.08960613      26.92133
2018    12      2       0.06581898      21.16238
2018    12      3       0.06283351      20.37358
2018    12      4       0.06992112      21.99107
2018    12      5       0.08772843      26.29604
2018    12      6       0.1055928       30.56784
2018    12      7       0.1240222       34.71315
2018    13      0       0.1441144       39.26356
2018    13      1       0.1579104       42.55759
2018    13      2       0.1696416       45.22835
2018    13      3       0.1789548       47.35548
2018    13      4       0.1935629       50.60623
2018    13      5       0.2042302       52.97675
2018    13      6       0.2147178       55.31581
2018    13      7       0.208506        54.00761
2018    14      0       0.191078        50.44416
2018    14      1       0.1651825       44.92776
2018    14      2       0.1351479       38.11134
2018    14      3       0.1304984       36.87442
2018    14      4       0.1603911       43.52066
2018    14      5       0.1757413       47.16072
2018    14      6       0.1793856       48.23111
2018    14      7       0.1778669       47.70813
2018    15      0       0.1686128       45.6539
2018    15      1       0.1786949       47.64025
2018    15      2       0.1662694       44.87864
2018    15      3       0.1692275       45.66765
2018    15      4       0.2227803       57.58082
2018    15      5       0.2542125       64.19869
2018    15      6       0.2685675       67.31914
2018    15      7       0.2811436       69.39081
2018    16      0       0.2788014       68.87867
2018    16      1       0.2574791       64.7844
2018    16      2       0.2411485       61.47346
2018    16      3       0.2469805       62.74086
2018    16      4       0.249861        63.51639
2018    16      5       0.2650732       66.7701
2018    16      6       0.2643799       66.77701
2018    16      7       0.2326582       60.52293
2018    17      0       0.2045839       54.72924
2018    17      1       0.1995531       53.82626
2018    17      2       0.175721        48.63349
2018    17      3       0.1568284       44.22653
2018    17      4       0.1458274       41.72389
2018    17      5       0.1294634       37.93236
2018    17      6       0.124307        36.65456
2018    17      7       0.1275999       37.37307
2018    18      0       0.1280705       37.56498
2018    18      1       0.1166333       34.9579
2018    18      2       0.1063533       32.39054
2018    18      3       0.1011961       31.07401
2018    18      4       0.09782986      30.24024
2018    18      5       0.1014808       31.15864
2018    18      6       0.1108363       33.48694
2018    18      7       0.1101582       33.3527
2018    19      0       0.09868212      30.56076
2018    19      1       0.08772289      27.81431
2018    19      2       0.07832457      25.403
2018    19      3       0.08126765      26.15652
2018    19      4       0.08773741      27.78316
2018    19      5       0.09201966      28.84773
2018    19      6       0.09160969      28.66078
2018    19      7       0.09678539      29.88828
2018    20      0       0.1129459       33.80835
2018    20      1       0.131934        38.50802
2018    20      2       0.1589695       44.7494
2018    20      3       0.1720014       47.55284
2018    20      4       0.1826773       49.98619
2018    20      5       0.1871717       51.13483
2018    20      6       0.1787655       49.10662
2018    20      7       0.1500382       42.35794
2018    21      0       0.1216248       35.5922
2018    21      1       0.09730295      29.67827
2018    21      2       0.07958532      25.34641
2018    21      3       0.06985842      22.94951
2018    21      4       0.07730787      24.90455
2018    21      5       0.1016622       31.04728
2018    21      6       0.1135188       34.04992
2018    21      7       0.119643        35.66562
2018    22      0       0.1146877       34.48333
2018    22      1       0.1164761       34.89312
2018    22      2       0.1209767       35.91997
2018    22      3       0.1231784       36.41744
2018    22      4       0.1259133       36.91046
2018    22      5       0.1326591       38.42319
2018    22      6       0.136209        39.16743
2018    22      7       0.1260698       36.65708
2018    23      0       0.1237996       35.88017
2018    23      1       0.1307866       37.54414
2018    23      2       0.1383543       39.4193
2018    23      3       0.1409521       40.04298
2018    23      4       0.1515165       42.36018
2018    23      5       0.1592291       43.84369
2018    23      6       0.1762019       47.49603
2018    23      7       0.1748473       46.9141
2018    24      0       0.1676025       45.27295
2018    24      1       0.1594139       43.50802
2018    24      2       0.1695239       45.70234
2018    24      3       0.2328747       59.11694
2018    24      4       0.2962705       71.98855
2018    24      5       0.2065874       54.09625
2018    24      6       0.1627338       44.617
2018    24      7       0.1338547       38.14196
2018    25      0       0.1012406       30.36951
2018    25      1       0.1095225       32.33307
2018    25      2       0.1070001       31.80047
2018    25      3       0.1109578       32.83145
2018    25      4       0.1253912       36.13886
2018    25      5       0.1379965       39.03973
2018    25      6       0.1607173       44.18179
2018    25      7       0.158245        43.37717
2018    26      0       0.1680773       45.31192
2018    26      1       0.1787724       47.70795
2018    26      2       0.1912551       50.34239
2018    26      3       0.197086        51.76986
2018    26      4       0.2043592       53.2772
2018    26      5       0.2516613       63.10257
2018    26      6       0.2288888       58.73042
2018    26      7       0.2008157       53.07661
2018    27      0       0.1874308       50.35784
2018    27      1       0.1802038       48.84961
2018    27      2       0.1944368       51.88779
2018    27      3       0.198419        52.83036
2018    27      4       0.198444        52.90402
2018    27      5       0.1930788       51.86046
2018    27      6       0.1668828       46.16217
2018    27      7       0.1341318       38.63213
2018    28      0       0.09340049      28.82343
2018    28      1       0.08302288      26.14564
2018    28      2       0.1146474       33.74247
2018    28      3       0.1373187       39.04648
2018    28      4       0.1534632       42.75577
2018    28      5       0.1653726       45.46318
2018    28      6       0.1732038       47.23924
2018    28      7       0.1571612       43.5954
2018    29      0       0.1495402       41.79802
2018    29      1       0.1447842       40.6515
2018    29      2       0.1222034       35.39525
2018    29      3       0.09765068      29.58968
2018    29      4       0.07753906      24.69001
2018    29      5       0.07134004      23.10052
2018    29      6       0.06529906      21.65123
2018    29      7       0.06888509      22.62848
2018    30      0       0.0663343       21.90632
2018    30      1       0.106995        31.75613
2018    30      2       0.1233211       35.63349
2018    30      3       0.1227501       35.56829
2018    30      4       0.1236766       35.72244
2018    30      5       0.1163238       33.98271
2018    30      6       0.1164204       33.83129
2018    30      7       0.1154748       33.73874
