####################################################################################################
# Month: 02Feb                                                                                     #
# Station: PIKE                                                                                    #
# Frequency: 345 GHz                                                                               #
# Columns are: year    day     tau     Tb (K)                                                      #
####################################################################################################
2009    1       0.21465349      52.6358175
2009    2       0.22681695      55.41265875
2009    3       0.28233596      67.2480475
2009    4       0.13068857      36.7182575
2009    5       0.10142971      30.0275875
2009    6       0.15587001      41.9261175
2009    7       0.21724106      54.37171125
2009    8       0.45859928      96.83851875
2009    9       0.21267498      51.12172125
2009    10      0.14401342      38.65228125
2009    11      0.16084877      41.47807375
2009    12      0.10921157      31.393365
2009    13      0.19982866      49.36552375
2009    14      0.22239806      54.22046875
2009    15      0.11114856      31.73432375
2009    16      0.19794596      50.0831
2009    17      0.14366346      39.0314325
2009    18      0.14837214      39.62189625
2009    19      0.14349305      38.74602
2009    20      0.12058205      34.19374375
2009    21      0.14077412      38.33538375
2009    22      0.23178507      54.47221
2009    23      0.58485348      116.81130125
2009    24      0.25403956      59.8662825
2009    25      0.11088016      32.07351
2009    26      0.16002247      42.3998075
2009    27      0.11782286      33.71201375
2009    28      0.06874717      22.502685
2010    1       0.11171352      32.299605
2010    2       0.10525202      30.63291
2010    3       0.28775273      66.82074875
2010    4       0.41724154      87.208285
2010    5       0.25545034      60.1438025
2010    6       0.34566032      77.92214375
2010    7       0.29361042      67.6892125
2010    8       0.28281271      65.76851
2010    9       0.11643517      33.1334775
2010    10      0.12773439      35.44676625
2010    11      0.17254066      44.67258875
2010    12      0.26057474      61.59432375
2010    13      0.19703532      49.38625375
2010    14      0.174985        44.61496625
2010    15      0.0968458       28.35098
2010    16      0.16772802      43.3510325
2010    17      0.2280097       54.7281375
2010    18      0.28962048      66.7683625
2010    19      0.267891        62.35825875
2010    20      0.3975045       86.1801625
2010    21      0.28440444      65.6258425
2010    22      0.23360198      56.2119375
2010    23      0.12646831      34.9947075
2010    24      0.14121228      37.41034625
2010    25      0.45966132      95.98823625
2010    26      0.17941807      45.2794825
2010    27      0.29175024      66.33877875
2010    28      0.38419692      84.12722625
2011    1       0.19081987      47.30071125
2011    2       0.10544094      30.11931875
2011    3       0.16072039      41.17573375
2011    4       0.25455426      59.537375
2011    5       0.37044935      81.74599
2011    6       0.2211047       53.67384875
2011    7       0.22715704      55.0951975
2011    8       0.29734628      68.1464525
2011    9       0.1086893       30.89777375
2011    10      0.10572199      30.39654875
2011    11      0.15452027      41.27561375
2011    12      0.22159199      54.80773625
2011    13      0.16193586      43.63077375
2011    14      0.1787032       46.43196125
2011    15      0.16179417      42.4038625
2011    16      0.24055025      59.3987675
2011    17      0.12700891      35.93028125
2011    18      0.22193897      52.52931125
2011    19      0.32447396      74.39241875
2011    20      0.25317147      59.1746125
2011    21      0.11436313      32.66215375
2011    22      0.19100431      48.7400275
2011    23      0.08287315      26.17858875
2011    24      0.19537338      49.4874025
2011    25      0.26994779      64.2981525
2011    26      0.24632093      60.00007875
2011    27      0.2023606       50.42191875
2011    28      0.14062432      38.01060125
2012    1       0.13290328      36.2610675
2012    2       0.29617249      67.90494
2012    3       0.26043596      61.4910525
2012    4       0.14853207      39.5364675
2012    5       0.1039567       30.18544625
2012    6       0.25083794      59.75741875
2012    7       0.17864939      45.292075
2012    8       0.24832832      57.43387625
2012    9       0.43881704      93.1646225
2012    10      0.22986892      55.3795725
2012    11      0.26493075      62.64861625
2012    12      0.33357635      74.8517225
2012    13      0.24499846      59.28616875
2012    14      0.20146258      50.7363175
2012    15      0.2191091       54.29934625
2012    16      0.16958905      44.286325
2012    17      0.12972282      35.81906375
2012    18      0.15711278      41.2117025
2012    19      0.22088724      54.565995
2012    20      0.16278408      42.308605
2012    21      0.18813702      47.97793875
2012    22      0.26051999      63.2637975
2012    23      0.23575719      57.69181625
2012    24      0.12093356      33.8557275
2012    25      0.14307587      39.46784625
2012    26      0.11444348      32.77265
2012    27      0.16158249      42.6607375
2012    28      0.24464452      59.8673025
2012    29      0.13673831      37.47818125
2013    1       0.16419865      43.20559375
2013    2       0.10872449      31.6565375
2013    3       0.23298362      55.90580875
2013    4       0.2870443       66.4471475
2013    5       0.23655373      58.42111625
2013    6       0.28418386      67.0237275
2013    7       0.20563801      49.30422375
2013    8       0.08240458      25.48969125
2013    9       0.16906842      44.0559475
2013    10      0.16341645      42.27940875
2013    11      0.18301634      46.35170625
2013    12      0.11399779      32.10552625
2013    13      0.18311572      47.08018875
2013    14      0.1968209       49.21266125
2013    15      0.14831521      39.39830375
2013    16      0.15178895      40.91519875
2013    17      0.08940517      26.95866625
2013    18      0.13146823      35.76756625
2013    19      0.12000704      33.53586375
2013    20      0.27809239      64.9969125
2013    21      0.31963906      72.49449375
2013    22      0.24429821      58.559115
2013    23      0.23588815      56.24105625
2013    24      0.2004379       50.24639
2013    25      0.10941968      31.13250125
2013    26      0.19619434      48.81381625
2013    27      0.13626598      36.89782375
2013    28      0.13455464      36.38695375
2014    1       0.28421716      65.89094375
2014    2       0.08907301      26.93020625
2014    3       0.16590139      43.37701375
2014    4       0.23132891      55.93227875
2014    5       0.14995869      39.636765
2014    6       0.16755469      43.65863
2014    7       0.17092655      44.59530625
2014    8       0.22237492      55.02546125
2014    9       0.31273356      72.70471875
2014    10      0.3871123       84.42125125
2014    11      0.16032175      41.42217375
2014    12      0.30034482      67.20182375
2014    13      0.27215258      64.4155175
2014    14      0.32166968      74.24481
2014    15      0.36424749      82.73747375
2014    16      0.41012702      89.553335
2014    17      0.10490004      30.6839225
2014    18      0.10660948      31.02728
2014    19      0.3797758       83.1347175
2014    20      0.18760852      45.6244475
2014    21      0.13714114      37.43182125
2014    22      0.15415933      41.03178
2014    23      0.15680561      41.7736825
2014    24      0.1924341       48.6679
2014    25      0.34415859      78.317245
2014    26      0.18841292      47.88771375
2014    27      0.28792555      65.634995
2014    28      0.27144614      63.76933
2015    1       0.14749701      38.72948375
2015    2       0.30260665      69.9361875
2015    3       0.208924        52.4985575
2015    4       0.33312482      75.98286
2015    5       0.4157329       90.6774475
2015    6       0.19806839      50.31542375
2015    7       0.3157478       74.37441625
2015    8       0.19098748      49.80749625
2015    9       0.1597844       43.12934
2015    10      0.16016267      41.98484875
2015    11      0.36786704      79.6808225
2015    12      0.27296018      62.52621375
2015    13      0.35046584      79.1306625
2015    14      0.21379064      53.62311875
2015    15      0.38917705      85.68716625
2015    16      0.2840817       65.7466575
2015    17      0.13524264      36.710325
2015    18      0.2515321       61.39564
2015    19      0.17862474      47.23607875
2015    20      0.20999456      52.42817875
2015    21      0.23146491      56.14153125
2015    22      0.34858821      76.94567875
2015    23      0.44946849      94.68858125
2015    24      0.16634674      43.7848925
2015    25      0.2577144       61.32761125
2015    26      0.24160705      57.61551
2015    27      0.24526921      58.69290625
2015    28      0.22449422      54.7262325
2016    1       0.38097679      83.6889275
2016    2       0.23330861      56.15643875
2016    3       0.12223052      33.66351
2016    4       0.13617159      36.837835
2016    5       0.24592916      57.8797575
2016    6       0.16335065      43.39689875
2016    7       0.21902511      54.46048125
2016    8       0.22244519      55.8923575
2016    9       0.22503872      56.50071625
2016    10      0.17393061      45.93814
2016    11      0.22612774      55.78551625
2016    12      0.398262        88.2807275
2016    13      0.2254146       55.50440375
2016    14      0.17838332      46.19236
2016    15      0.26659029      64.06932875
2016    16      0.22686486      56.9464925
2016    17      0.24659135      60.36165375
2016    18      0.23691955      58.6449
2016    19      0.12919136      36.812985
2016    20      0.17340496      45.67169375
2016    21      0.18695775      48.003505
2016    22      0.26543906      62.67237
2016    23      0.3207167       71.9357825
2016    24      0.10759031      31.0506325
2016    25      0.27810039      66.3833075
2016    26      0.15910926      42.77670375
2016    27      0.17431411      46.4206075
2016    28      0.16270502      43.0711875
2016    29      0.21423909      53.68977875
2017    1       0.43564876      94.8253875
2017    2       0.27173969      64.47610125
2017    3       0.23649298      58.0329225
2017    4       0.11077137      32.31108375
2017    5       0.29302139      68.457685
2017    6       0.30283779      70.4880425
2017    7       0.26637228      63.954535
2017    8       0.26222393      63.292285
2017    9       0.35172082      80.5953825
2017    10      0.42138901      93.9849675
2017    11      0.45599099      99.07023875
2017    12      0.61497844      120.057375
2017    13      0.54537506      110.74274625
2017    14      0.2921307       67.12908125
2017    15      0.1103711       32.24043375
2017    16      0.15203028      41.81162875
2017    17      0.17152064      45.0592675
2017    18      0.57709516      114.9256775
2017    19      0.39952381      87.22551625
2017    20      0.2161108       52.50211875
2017    21      0.21778212      54.615245
2017    22      0.15130972      40.41462
2017    23      0.27228112      64.80348
2017    24      0.12267455      34.13375125
2017    25      0.13236806      35.76474875
2017    26      0.10228408      29.83214625
2017    27      0.13371323      36.5160625
2017    28      0.3480799       78.00566125
2018    1       0.35026301      80.0300775
2018    2       0.48888602      102.7331475
2018    3       0.24960345      60.5305425
2018    4       0.24390558      59.94753375
2018    5       0.2658247       63.52811
2018    6       0.35880648      79.33001
2018    7       0.22436658      54.93090375
2018    8       0.30931635      72.4878125
2018    9       0.32369216      74.33534
2018    10      0.38812789      84.0490375
2018    11      0.16624226      41.8128375
2018    12      0.22417655      53.5775525
2018    13      0.17970081      45.5146
2018    14      0.20791246      51.28942625
2018    15      0.27398566      64.5986025
2018    16      0.1011585       29.7357
2018    17      0.12987921      36.2914175
2018    18      0.12767547      36.15025625
2018    19      0.16899626      44.150595
2018    20      0.15740873      41.0827775
2018    21      0.0750463       23.83810875
2018    22      0.25509775      60.7395
2018    23      0.12633715      35.2651375
2018    24      0.15837491      41.02754125
2018    25      0.10225192      29.601575
2018    26      0.12272013      34.40118875
2018    27      0.09692403      29.0410525
2018    28      0.19592106      49.67991875
