####################################################################################################
# Month: 09Sep                                                                                     #
# Station: SUF                                                                                     #
# Frequency: 230 GHz                                                                               #
# Columns are: year    day     tau     Tb (K)                                                      #
####################################################################################################
2009    1       0.39329612      91.505665
2009    2       0.51135456      111.0680125
2009    3       0.31162534      76.32279875
2009    4       0.18993608      50.6159075
2009    5       0.1865611       50.04347375
2009    6       0.17021136      46.36421
2009    7       0.14570585      40.75145375
2009    8       0.22337669      57.32061875
2009    9       0.18737329      49.26955
2009    10      0.08773054      27.01309
2009    11      0.16019226      43.6663
2009    12      0.29619134      71.8245875
2009    13      0.4962743       109.28734375
2009    14      0.3861852       90.5532375
2009    15      0.60200179      124.8739625
2009    16      0.75453609      145.324575
2009    17      0.52284638      113.98502375
2009    18      0.66101129      134.4330625
2009    19      0.69230302      139.5691375
2009    20      0.73957122      143.8955625
2009    21      0.83203839      154.064075
2009    22      0.59858905      124.87045375
2009    23      0.46946455      105.06573375
2009    24      0.52314461      114.0221375
2009    25      0.70884806      139.552225
2009    26      0.66783475      132.52169
2009    27      0.41365237      95.2245375
2009    28      0.29834806      73.788485
2009    29      0.30461952      74.99070875
2009    30      0.42608568      96.36582625
2010    1       0.53190811      116.13435
2010    2       0.4696332       106.40722125
2010    3       0.56504989      121.98275
2010    4       0.5156919       114.24883625
2010    5       0.53040224      113.68892
2010    6       0.55768358      118.750475
2010    7       0.4959292       110.1657125
2010    8       0.3823055       90.65078
2010    9       0.32643346      79.95161375
2010    10      0.39295469      91.9789875
2010    11      0.48181438      104.8487025
2010    12      0.25285015      62.47056125
2010    13      0.0939012       28.3312675
2010    14      0.11143223      32.7509
2010    15      0.49461265      102.392
2010    16      0.57353315      113.0513
2010    17      0.14457479      39.9380375
2010    18      0.14997881      41.1805475
2010    19      0.17175909      46.1529525
2010    20      0.19355881      51.3910375
2010    21      0.34575041      81.666925
2010    22      0.36003068      84.55449125
2010    23      0.3380862       80.83083625
2010    24      0.27205756      68.3192475
2010    25      0.336708        79.55891875
2010    26      0.25773798      65.201
2010    27      0.24534015      62.38227875
2010    28      0.29319886      72.28479125
2010    29      0.28309659      70.4785025
2010    30      0.29008484      71.92250625
2011    1       0.12823074      37.58937375
2011    2       0.15880858      44.51956625
2011    3       0.2666242       68.58971875
2011    4       0.16951075      47.952995
2011    5       0.13331736      39.63440125
2011    6       0.20492206      55.68246
2011    7       0.2721168       69.44369
2011    8       0.38126713      90.88842375
2011    9       0.28509046      73.136125
2011    10      0.31858412      79.1443725
2011    11      0.13397919      39.14257125
2011    12      0.14929859      42.73806
2011    13      0.33205514      78.47239875
2011    14      0.39095339      91.206315
2011    15      0.57124184      118.91681375
2011    16      0.17909041      47.30731375
2011    17      0.13760789      38.984395
2011    18      0.25204256      64.178595
2011    19      0.29278046      72.03413875
2011    20      0.41224698      92.99088875
2011    21      0.1630286       44.01485625
2011    22      0.19073578      50.337775
2011    23      0.31370618      74.78165875
2011    24      0.1772719       48.3087525
2011    25      0.23034692      59.7007425
2011    26      0.20122845      53.12669625
2011    27      0.42189799      94.9066125
2011    28      0.64357802      130.31215
2011    29      0.61516528      126.16055
2011    30      0.38220082      89.25376375
2012    1       0.39369269      93.23758875
2012    2       0.28752792      72.20707875
2012    3       0.34529924      84.24749875
2012    4       0.3118525       77.25541625
2012    5       0.30747845      75.92166
2012    6       0.34978439      83.2858125
2012    7       0.37475352      88.25501625
2012    8       0.24407869      63.881765
2012    9       0.19482815      53.39016
2012    10      0.15368089      43.860565
2012    11      0.29011235      73.30394625
2012    12      0.35427138      85.26374125
2012    13      0.38576442      90.480625
2012    14      0.21444725      55.94501625
2012    15      0.16386792      45.43217
2012    16      0.32410092      77.62660125
2012    17      0.38441249      89.5468425
2012    18      0.28086782      70.015855
2012    19      0.29206754      72.23368125
2012    20      0.32522646      78.77456625
2012    21      0.20388124      54.05625375
2012    22      0.08343448      25.98112625
2012    23      0.12423511      35.65634
2012    24      0.21429531      55.87236375
2012    25      0.24328381      61.55419625
2012    26      0.231807        59.68765875
2012    27      0.19486746      52.233715
2012    28      0.25987587      65.32057875
2012    29      0.3093376       74.06359375
2012    30      0.10252452      30.12119625
2013    1       0.31713156      78.7750125
2013    2       0.28785279      72.66838625
2013    3       0.18082356      49.5978425
2013    4       0.19380499      52.337145
2013    5       0.3467075       82.92744
2013    6       0.16296177      46.0721975
2013    7       0.17101732      47.72523875
2013    8       0.17168525      48.0150725
2013    9       0.18246682      50.40061625
2013    10      0.20145466      54.6938775
2013    11      0.47080142      105.43812125
2013    12      0.43647448      99.00977
2013    13      0.41250366      95.4796575
2013    14      0.53262832      113.4834875
2013    15      0.37592538      87.85799875
2013    16      0.17210551      47.11111875
2013    17      0.1467808       40.90843625
2013    18      0.20971992      55.19662125
2013    19      0.23723484      61.91528
2013    20      0.36889039      87.97753375
2013    21      0.28344226      71.48491625
2013    22      0.26058086      66.8204375
2013    23      0.28140621      71.025325
2013    24      0.29590379      74.25383125
2013    25      0.29294305      74.13212875
2013    26      0.52527714      113.53881
2013    27      0.56840344      119.1900825
2013    28      0.30059399      75.6273675
2013    29      0.32012889      79.03440375
2013    30      0.32039895      78.37353125
2014    1       0.16725495      46.6403225
2014    2       0.29279264      73.6389425
2014    3       0.40714749      94.70155
2014    4       0.28270845      71.61838875
2014    5       0.19917775      53.93475625
2014    6       0.30930292      74.58501375
2014    7       0.34080611      82.35454875
2014    8       0.26813426      68.48922375
2014    9       0.18748761      50.93085625
2014    10      0.28568339      71.9812225
2014    11      0.34981964      83.76975
2014    12      0.34611869      83.17423625
2014    13      0.25099299      63.8214575
2014    14      0.28884364      70.748175
2014    15      0.44238432      99.897425
2014    16      0.46733101      105.55554125
2014    17      0.43183354      99.1684325
2014    18      0.62024729      127.7112025
2014    19      0.30071214      72.93446
2014    20      0.26699468      65.809905
2014    21      0.32617531      79.038945
2014    22      0.52600505      113.17207375
2014    23      0.56385951      119.763875
2014    24      0.61509429      126.856
2014    25      0.3678146       87.89567125
2014    26      0.36040424      85.78288625
2014    27      0.52932612      110.69433875
2014    28      0.29358619      72.37336125
2014    29      0.3725624       87.78219625
2014    30      0.50516749      110.33638375
2015    1       0.30815632      74.85701875
2015    2       0.74025724      140.1824875
2015    3       0.34704134      82.40173
2015    4       0.38590458      90.0685575
2015    5       0.3782514       89.491025
2015    6       0.2388116       60.987955
2015    7       0.18394688      49.19669375
2015    8       0.26453332      67.0914825
2015    9       0.19733369      53.43143875
2015    10      0.19012678      51.85576375
2015    11      0.17750908      48.80720875
2015    12      0.20963049      55.01137875
2015    13      0.39837372      89.81470625
2015    14      0.09410852      28.67595
2015    15      0.12565233      36.12097625
2015    16      0.21857299      56.55889875
2015    17      0.30297295      73.84852375
2015    18      0.62840534      126.5268375
2015    19      0.54628373      112.64415875
2015    20      0.22044679      56.8945725
2015    21      0.23407775      60.68344625
2015    22      0.17141354      47.3254075
2015    23      0.15948366      44.31797625
2015    24      0.21278742      56.2489425
2015    25      0.18179946      48.88016375
2015    26      0.19011238      50.78592125
2015    27      0.22493775      57.9586575
2015    28      0.33261966      79.003135
2015    29      0.34232144      80.5808375
2015    30      0.30114809      72.75529625
2016    1       0.58019128      121.34535
2016    2       0.38955899      91.52674375
2016    3       0.51415669      111.63874375
2016    4       0.44040949      100.51970875
2016    5       0.28894324      72.58569625
2016    6       0.36911081      86.9626525
2016    7       0.37756981      89.3818225
2016    8       0.52220989      110.379695
2016    9       0.56932848      120.2690125
2016    10      0.43250496      99.265535
2016    11      0.37481992      88.04950875
2016    12      0.26027419      66.05304125
2016    13      0.31065157      74.92097875
2016    14      0.22807236      59.77762875
2016    15      0.30458175      75.2265375
2016    16      0.46742482      104.563105
2016    17      0.45604214      103.138345
2016    18      0.39588264      92.8346975
2016    19      0.48776542      106.54324375
2016    20      0.35990268      86.11340375
2016    21      0.30656316      76.5482125
2016    22      0.28323531      72.3221225
2016    23      0.28898934      72.7061
2016    24      0.34556818      83.1529125
2016    25      0.43183658      96.59265875
2016    26      0.56703297      120.3911375
2016    27      0.4011161       93.78785125
2016    28      0.41133209      95.2285175
2016    29      0.44502041      98.46572875
2016    30      0.5667939       119.1233375
2017    1       0.1473238       42.40415625
2017    2       0.22525662      59.4553575
2017    3       0.38854535      91.9199275
2017    4       0.32871706      80.516975
2017    5       0.25146449      64.9428025
2017    6       0.40051898      94.04646
2017    7       0.24878608      65.20938
2017    8       0.34817636      84.8616175
2017    9       0.39506121      93.06905
2017    10      0.37779354      89.3869075
2017    11      0.26373966      67.00444
2017    12      0.2351093       61.05759
2017    13      0.18684744      50.3535675
2017    14      0.16903589      46.375485
2017    15      0.26852465      67.68759
2017    16      0.39250675      90.95504
2017    17      0.41661118      94.73873375
2017    18      0.36042201      85.00922875
2017    19      0.26434241      67.01036
2017    20      0.30219435      74.65208125
2017    21      0.3197731       78.07964125
2017    22      0.29128044      72.61772625
2017    23      0.2015154       53.73693625
2017    24      0.15955893      44.089825
2017    25      0.16161028      44.2750025
2017    26      0.43924134      95.60274125
2017    27      0.34340625      80.89094875
2017    28      0.5829138       121.046675
2017    29      0.52798347      109.24747375
2017    30      0.08098147      25.00499875
2018    1       0.14266161      40.4203875
2018    2       0.1057371       31.63623375
2018    3       0.0981399       29.91066
2018    4       0.13239119      38.37473
2018    5       0.13484226      38.77091125
2018    6       0.21004849      55.60459625
2018    7       0.18786169      50.85161625
2018    8       0.31854606      78.3030725
2018    9       0.40703082      94.40125625
2018    10      0.45219466      102.2263675
2018    11      0.23250571      60.87600625
2018    12      0.39778531      91.6524175
2018    13      0.33746022      80.06056625
2018    14      0.23650165      59.91964125
2018    15      0.22100858      57.74000375
2018    16      0.15692546      43.87418875
2018    17      0.19239436      50.8925675
2018    18      0.4216062       95.8386225
2018    19      0.37331294      87.33006625
2018    20      0.57315864      118.84591125
2018    21      0.35189695      83.54708
2018    22      0.34115202      81.77801375
2018    23      0.28466761      70.2013
2018    24      0.11523136      33.56481375
2018    25      0.22180229      56.43220625
2018    26      0.43036299      95.90345
2018    27      0.35864904      82.64832625
2018    28      0.17557014      47.7747575
2018    29      0.16716389      46.08420125
2018    30      0.15735856      43.8490775
