####################################################################################################
# Month: 03Mar                                                                                     #
# Station: MOR                                                                                     #
# Frequency: 230 GHz                                                                               #
# Columns are: year    day     segment         tau     Tb (K)                                      #
####################################################################################################
2009    1       0       0.1043656       30.70115
2009    1       1       0.1036547       30.02538
2009    1       2       0.1073845       30.83719
2009    1       3       0.1117574       32.00793
2009    1       4       0.1474464       40.34356
2009    1       5       0.1934993       50.47945
2009    1       6       0.218708        55.65028
2009    1       7       0.1986304       51.53133
2009    2       0       0.1977321       51.35535
2009    2       1       0.1818813       48.08901
2009    2       2       0.1195252       33.95456
2009    2       3       0.09668591      28.5465
2009    2       4       0.1569072       42.13963
2009    2       5       0.2308571       57.8259
2009    2       6       0.2483164       61.51096
2009    2       7       0.3300438       77.45128
2009    3       0       0.3601938       82.95522
2009    3       1       0.1667196       44.33508
2009    3       2       0.05234243      17.69998
2009    3       3       0.1608528       43.15201
2009    3       4       0.4153604       91.55558
2009    3       5       0.3067049       71.79972
2009    3       6       0.3579842       80.54059
2009    3       7       0.3043503       71.70977
2009    4       0       0.3805769       85.64042
2009    4       1       0.3719565       84.26813
2009    4       2       0.2238508       56.52224
2009    4       3       0.1391004       38.1882
2009    4       4       0.2142118       54.92605
2009    4       5       0.2488448       62.52597
2009    4       6       0.1482518       40.91412
2009    4       7       0.07141602      22.82417
2009    5       0       0.08513724      26.33935
2009    5       1       0.1081393       31.86601
2009    5       2       0.1465218       40.87944
2009    5       3       0.1102501       32.42958
2009    5       4       0.07141317      22.7525
2009    5       5       0.08880257      27.13905
2009    5       6       0.09739114      29.50993
2009    5       7       0.08395686      26.03376
2009    6       0       0.1058825       31.18405
2009    6       1       0.112808        32.77048
2009    6       2       0.1105501       32.20609
2009    6       3       0.1157779       33.45703
2009    6       4       0.1383627       38.83651
2009    6       5       0.1532052       42.3403
2009    6       6       0.1352629       38.27812
2009    6       7       0.1278549       36.64266
2009    7       0       0.1313354       37.54446
2009    7       1       0.1387126       39.34395
2009    7       2       0.1359142       38.76606
2009    7       3       0.1328662       38.0932
2009    7       4       0.1524508       42.66741
2009    7       5       0.2233518       58.15237
2009    7       6       0.2261495       58.66375
2009    7       7       0.1788687       48.12489
2009    8       0       0.2437844       60.76963
2009    8       1       0.4226239       93.35747
2009    8       2       0.5270256       110.45
2009    8       3       0.5975245       121.9511
2009    8       4       0.6136824       125.4061
2009    8       5       0.7791661       147.4788
2009    8       6       0.7632071       144.7477
2009    8       7       0.3871951       89.02603
2009    9       0       0.3119047       74.91815
2009    9       1       0.3111569       74.84558
2009    9       2       0.4060969       91.86365
2009    9       3       0.4083309       92.01825
2009    9       4       0.7074336       135.2306
2009    9       5       0.6444036       126.9022
2009    9       6       0.3351873       78.20185
2009    9       7       0.4710818       101.4018
2009    10      0       0.6443035       127.7654
2009    10      1       0.5535028       114.2329
2009    10      2       0.3983631       88.93563
2009    10      3       0.4619318       99.80341
2009    10      4       0.4248959       94.30553
2009    10      5       0.6059068       122.8844
2009    10      6       0.6396418       127.2972
2009    10      7       0.4555619       99.33036
2009    11      0       0.3612941       83.32728
2009    11      1       0.3321139       78.17722
2009    11      2       0.3239894       76.67236
2009    11      3       0.2961494       71.66992
2009    11      4       0.313072        75.13036
2009    11      5       0.528094        111.1769
2009    11      6       0.4894704       105.9399
2009    11      7       0.3348666       79.60659
2009    12      0       0.2371109       60.52894
2009    12      1       0.2215933       57.18172
2009    12      2       0.2156669       55.93801
2009    12      3       0.1983914       52.27754
2009    12      4       0.222585        57.44304
2009    12      5       0.3356307       79.71928
2009    12      6       0.3973304       90.77986
2009    12      7       0.2961258       72.22284
2009    13      0       0.2266077       58.23041
2009    13      1       0.2206811       56.91565
2009    13      2       0.2292949       58.68142
2009    13      3       0.2586312       64.6584
2009    13      4       0.3353881       79.33527
2009    13      5       0.5127987       109.2006
2009    13      6       0.4603758       100.9535
2009    13      7       0.3645754       84.78546
2009    14      0       0.2867408       70.2931
2009    14      1       0.2604986       64.96826
2009    14      2       0.263771        65.58896
2009    14      3       0.2406716       61.06022
2009    14      4       0.2774552       68.33818
2009    14      5       0.4120577       92.77014
2009    14      6       0.4501123       99.81787
2009    14      7       0.3146407       75.95462
2009    15      0       0.2022561       53.28005
2009    15      1       0.1373101       38.78948
2009    15      2       0.07511445      23.84775
2009    15      3       0.08181038      25.33881
2009    15      4       0.1784966       47.81752
2009    15      5       0.3595383       84.06014
2009    15      6       0.427119        96.11473
2009    15      7       0.2910854       71.08237
2009    16      0       0.2141842       55.24495
2009    16      1       0.1805458       47.90274
2009    16      2       0.1477232       40.62468
2009    16      3       0.1347476       37.79658
2009    16      4       0.184103        49.02924
2009    16      5       0.3014002       73.06034
2009    16      6       0.3465705       81.65997
2009    16      7       0.2849876       69.97409
2009    17      0       0.2278497       58.44931
2009    17      1       0.225664        58.02091
2009    17      2       0.2546902       63.82397
2009    17      3       0.2812116       68.89595
2009    17      4       0.3369879       79.64515
2009    17      5       0.3913954       89.58399
2009    17      6       0.4415133       98.13168
2009    17      7       0.2978937       72.63293
2009    18      0       0.2804689       69.09971
2009    18      1       0.3557842       83.18153
2009    18      2       0.4232091       95.05811
2009    18      3       0.3696492       85.71167
2009    18      4       0.3445168       81.19756
2009    18      5       0.3331574       79.19507
2009    18      6       0.3360918       79.63042
2009    18      7       0.2982141       72.27607
2009    19      0       0.2652239       65.60677
2009    19      1       0.2642754       65.19699
2009    19      2       0.290312        70.23927
2009    19      3       0.317366        75.40217
2009    19      4       0.4097481       91.73558
2009    19      5       0.5895904       119.5988
2009    19      6       0.4664015       101.8312
2009    19      7       0.3112073       75.02299
2009    20      0       0.2578843       64.62239
2009    20      1       0.2436767       61.62543
2009    20      2       0.2313504       58.999
2009    20      3       0.2296353       58.45281
2009    20      4       0.3827983       87.51411
2009    20      5       0.5493872       113.8776
2009    20      6       0.6140282       124.0029
2009    20      7       0.5126027       108.9065
2009    21      0       0.5062898       107.3008
2009    21      1       0.515209        108.9283
2009    21      2       0.4291334       94.97415
2009    21      3       0.3535091       81.70591
2009    21      4       0.423427        94.11814
2009    21      5       0.4213331       94.09839
2009    21      6       0.32471         77.48042
2009    21      7       0.2263815       58.23061
2009    22      0       0.1882768       49.96505
2009    22      1       0.1589722       43.45249
2009    22      2       0.1157317       33.62618
2009    22      3       0.1059901       31.32763
2009    22      4       0.1924363       51.16358
2009    22      5       0.3440786       81.49372
2009    22      6       0.373834        87.07673
2009    22      7       0.3154846       76.219
2009    23      0       0.248259        62.7813
2009    23      1       0.2081262       54.28373
2009    23      2       0.2313033       59.15223
2009    23      3       0.239233        60.74554
2009    23      4       0.2733836       67.60528
2009    23      5       0.3459479       81.4063
2009    23      6       0.3513791       82.5044
2009    23      7       0.2999923       72.74919
2009    24      0       0.2632482       65.45664
2009    24      1       0.2569925       64.20233
2009    24      2       0.214925        55.48592
2009    24      3       0.205591        53.613
2009    24      4       0.2088864       54.24633
2009    24      5       0.2485232       62.48436
2009    24      6       0.2887876       70.56841
2009    24      7       0.2798265       68.77998
2009    25      0       0.2875518       70.24399
2009    25      1       0.2836483       69.68782
2009    25      2       0.1892602       50.33116
2009    25      3       0.1043542       30.98723
2009    25      4       0.1470984       41.10461
2009    25      5       0.187031        50.06072
2009    25      6       0.2163655       56.27066
2009    25      7       0.1819979       48.69916
2009    26      0       0.1029804       30.37758
2009    26      1       0.1087711       31.82307
2009    26      2       0.1453748       40.43581
2009    26      3       0.2240714       57.80326
2009    26      4       0.2554337       64.27978
2009    26      5       0.3368231       79.73685
2009    26      6       0.3412737       80.60741
2009    26      7       0.3807371       87.48778
2009    27      0       0.3285224       78.13641
2009    27      1       0.3359455       79.48022
2009    27      2       0.2710284       66.90949
2009    27      3       0.3187079       76.47745
2009    27      4       0.5992398       123.3667
2009    27      5       0.6105181       124.134
2009    27      6       0.6739955       132.9669
2009    27      7       0.4792426       104.3402
2009    28      0       0.2189687       56.05081
2009    28      1       0.1832845       48.49945
2009    28      2       0.2956368       71.21944
2009    28      3       0.5601435       115.5278
2009    28      4       0.4759608       102.4475
2009    28      5       0.5312265       110.6104
2009    28      6       0.6178106       123.406
2009    28      7       0.364862        84.13687
2009    29      0       0.2181314       55.66299
2009    29      1       0.3108035       73.96925
2009    29      2       0.2442028       61.249
2009    29      3       0.1325716       37.30597
2009    29      4       0.1043181       30.6828
2009    29      5       0.09608515      28.77239
2009    29      6       0.06953364      22.10379
2009    29      7       0.07703543      23.43092
2009    30      0       0.109892        31.50102
2009    30      1       0.1392766       38.25102
2009    30      2       0.139094        38.31033
2009    30      3       0.1236092       35.06061
2009    30      4       0.1128528       32.63208
2009    30      5       0.1171318       33.64888
2009    30      6       0.1104247       32.03384
2009    30      7       0.109681        31.82481
2009    31      0       0.1346706       37.60782
2009    31      1       0.1602841       43.35435
2009    31      2       0.1068672       31.28265
2009    31      3       0.04334218      15.65247
2009    31      4       0.04825286      16.93181
2009    31      5       0.06540327      21.28156
2009    31      6       0.05164564      17.83509
2009    31      7       0.0341196       13.17236
2010    1       0       0.0457203       16.18629
2010    1       1       0.04374353      15.69441
2010    1       2       0.04484499      15.89529
2010    1       3       0.04703325      16.49062
2010    1       4       0.06204203      20.48098
2010    1       5       0.08652944      26.72209
2010    1       6       0.1808931       47.9483
2010    1       7       0.4862828       104.0245
2010    2       0       0.6031665       122.5058
2010    2       1       0.6900096       135.4093
2010    2       2       0.6611627       131.2311
2010    2       3       0.5360543       114.1203
2010    2       4       0.230028        58.81446
2010    2       5       0.174855        47.33773
2010    2       6       0.4422479       98.56432
2010    2       7       0.2013013       52.60416
2010    3       0       0.1673468       45.78795
2010    3       1       0.1278377       36.05086
2010    3       2       0.1339268       37.03512
2010    3       3       0.1768013       46.44048
2010    3       4       0.1442521       39.79435
2010    3       5       0.144605        40.11094
2010    3       6       0.1098491       32.44057
2010    3       7       0.09631783      29.23502
2010    4       0       0.09158354      28.1332
2010    4       1       0.08430258      26.25065
2010    4       2       0.0789259       24.80661
2010    4       3       0.0736828       23.37164
2010    4       4       0.09736265      29.49383
2010    4       5       0.1157091       34.0926
2010    4       6       0.1162633       34.00899
2010    4       7       0.1236006       35.64702
2010    5       0       0.1262761       36.06759
2010    5       1       0.1742573       46.92776
2010    5       2       0.2199535       56.40187
2010    5       3       0.2083444       53.74931
2010    5       4       0.2194458       55.36011
2010    5       5       0.2687182       64.9692
2010    5       6       0.1740534       45.83982
2010    5       7       0.2214065       55.69456
2010    6       0       0.275946        67.35304
2010    6       1       0.2731698       67.2672
2010    6       2       0.1814833       48.08194
2010    6       3       0.2519633       63.06483
2010    6       4       0.5435423       113.9495
2010    6       5       0.5304185       112.2621
2010    6       6       0.2850156       69.60713
2010    6       7       0.1699975       45.9979
2010    7       0       0.07316847      23.02474
2010    7       1       0.0899064       26.78018
2010    7       2       0.1201663       33.82201
2010    7       3       0.206752        53.22433
2010    7       4       0.226525        57.56002
2010    7       5       0.2228914       57.09069
2010    7       6       0.302953        73.83594
2010    7       7       0.2973122       72.91478
2010    8       0       0.2603897       65.26856
2010    8       1       0.2818974       69.61758
2010    8       2       0.331944        79.36832
2010    8       3       0.4502156       100.0482
2010    8       4       0.462267        102.9878
2010    8       5       0.6026744       125.366
2010    8       6       0.4664429       103.9025
2010    8       7       0.3818744       89.33898
2010    9       0       0.5826271       122.317
2010    9       1       0.3474402       83.03903
2010    9       2       0.2348108       60.61238
2010    9       3       0.1434688       39.72052
2010    9       4       0.1447352       39.96346
2010    9       5       0.1424264       39.82708
2010    9       6       0.1794933       48.0934
2010    9       7       0.1601437       43.74716
2010    10      0       0.1485594       41.41304
2010    10      1       0.1592581       43.80594
2010    10      2       0.2064019       53.96405
2010    10      3       0.2109441       54.94578
2010    10      4       0.2313151       59.38842
2010    10      5       0.278709        69.14304
2010    10      6       0.2616381       65.33977
2010    10      7       0.2459546       62.34442
2010    11      0       0.2027274       53.08115
2010    11      1       0.2129744       54.98962
2010    11      2       0.3625318       85.38234
2010    11      3       0.3202735       77.61316
2010    11      4       0.6497306       132.098
2010    11      5       0.433381        98.30214
2010    11      6       0.2762893       68.52788
2010    11      7       0.1308795       36.54797
2010    12      0       0.1754767       46.28714
2010    12      1       0.2211447       56.20047
2010    12      2       0.184873        49.0702
2010    12      3       0.1838495       49.28458
2010    12      4       0.191179        51.00102
2010    12      5       0.1924979       51.22269
2010    12      6       0.1756069       47.5139
2010    12      7       0.1627416       44.60197
2010    13      0       0.2062843       54.08805
2010    13      1       0.2127538       55.4106
2010    13      2       0.1771343       47.67876
2010    13      3       0.1553554       42.6863
2010    13      4       0.174374        46.73443
2010    13      5       0.191643        50.57998
2010    13      6       0.2015671       52.48894
2010    13      7       0.2070867       53.67734
2010    14      0       0.1971606       51.57999
2010    14      1       0.1936657       50.90187
2010    14      2       0.1784395       47.86388
2010    14      3       0.1741084       47.10492
2010    14      4       0.2052002       54.01153
2010    14      5       0.2464756       62.75244
2010    14      6       0.2330207       60.12376
2010    14      7       0.1813931       48.91436
2010    15      0       0.1974004       52.22269
2010    15      1       0.2351656       60.06243
2010    15      2       0.2290537       58.57783
2010    15      3       0.2337416       59.02678
2010    15      4       0.2714112       66.7315
2010    15      5       0.3059238       73.71828
2010    15      6       0.2799217       68.93632
2010    15      7       0.2143761       55.63243
2010    16      0       0.1975248       52.06728
2010    16      1       0.198837        52.24369
2010    16      2       0.2438818       61.38278
2010    16      3       0.368178        84.43302
2010    16      4       0.4074993       90.87532
2010    16      5       0.38237         86.83992
2010    16      6       0.2903758       70.49469
2010    16      7       0.1972327       51.78967
2010    17      0       0.1852328       49.52863
2010    17      1       0.1933698       51.51452
2010    17      2       0.188401        50.60725
2010    17      3       0.2020816       53.48104
2010    17      4       0.2179038       56.6388
2010    17      5       0.2099122       54.8269
2010    17      6       0.2208624       57.25249
2010    17      7       0.2650345       65.70227
2010    18      0       0.3907457       88.91524
2010    18      1       0.5212942       110.833
2010    18      2       0.5543646       116.0696
2010    18      3       0.7038892       136.4552
2010    18      4       0.606222        124.1557
2010    18      5       0.513028        110.7573
2010    18      6       0.5361356       114.2198
2010    18      7       0.5459013       116.0593
2010    19      0       0.5962356       123.6607
2010    19      1       0.5870872       122.1327
2010    19      2       0.5506276       116.9017
2010    19      3       0.4899968       107.8505
2010    19      4       0.5770198       121.0521
2010    19      5       0.6355922       129.4482
2010    19      6       0.5997129       124.5061
2010    19      7       0.5883506       123.3616
2010    20      0       0.6566582       132.9111
2010    20      1       0.8248173       153.7547
2010    20      2       0.7521146       144.3235
2010    20      3       0.6510015       130.3084
2010    20      4       0.4682536       102.5427
2010    20      5       0.4543181       99.86776
2010    20      6       0.4103947       92.68893
2010    20      7       0.3329551       78.3792
2010    21      0       0.3788694       85.82557
2010    21      1       0.4318633       94.53245
2010    21      2       0.31281         74.12788
2010    21      3       0.2967785       71.00327
2010    21      4       0.2060825       53.27682
2010    21      5       0.1623581       44.23282
2010    21      6       0.09811658      29.51191
2010    21      7       0.04649165      16.43466
2010    22      0       0.03902237      14.3452
2010    22      1       0.05089568      17.10834
2010    22      2       0.0574899       18.68895
2010    22      3       0.06471073      20.51044
2010    22      4       0.1211081       34.00544
2010    22      5       0.2456999       61.21906
2010    22      6       0.282024        68.68406
2010    22      7       0.1992485       51.19467
2010    23      0       0.1785856       47.41406
2010    23      1       0.2039039       52.948
2010    23      2       0.2205285       56.12449
2010    23      3       0.2209176       56.14865
2010    23      4       0.2261831       57.72643
2010    23      5       0.2639789       65.99799
2010    23      6       0.2434659       61.95058
2010    23      7       0.1990896       52.28095
2010    24      0       0.1681673       45.20974
2010    24      1       0.2066587       53.8241
2010    24      2       0.2107773       54.97758
2010    24      3       0.2232226       57.63406
2010    24      4       0.2472976       62.33792
2010    24      5       0.3258399       77.7961
2010    24      6       0.2909913       71.01638
2010    24      7       0.1837999       48.88998
2010    25      0       0.08943867      27.20185
2010    25      1       0.06656571      21.54529
2010    25      2       0.06507425      21.16472
2010    25      3       0.08218682      25.52999
2010    25      4       0.112686        32.94489
2010    25      5       0.140545        39.36294
2010    25      6       0.1399612       39.0797
2010    25      7       0.09222969      27.78665
2010    26      0       0.07073323      22.50467
2010    26      1       0.076452        23.88338
2010    26      2       0.08357097      25.62792
2010    26      3       0.1009213       29.82645
2010    26      4       0.1667501       45.05283
2010    26      5       0.270906        67.2469
2010    26      6       0.2864814       70.41646
2010    26      7       0.184828        49.27099
2010    27      0       0.1374566       38.48287
2010    27      1       0.1522502       41.7052
2010    27      2       0.2004807       52.52544
2010    27      3       0.212968        55.2346
2010    27      4       0.1956327       51.69793
2010    27      5       0.2113783       55.43239
2010    27      6       0.1894243       50.76565
2010    27      7       0.1431424       40.29746
2010    28      0       0.1242552       35.64857
2010    28      1       0.1313479       37.06837
2010    28      2       0.1588834       43.24997
2010    28      3       0.1545018       42.52663
2010    28      4       0.1718926       46.6754
2010    28      5       0.199202        52.64339
2010    28      6       0.1926412       51.16705
2010    28      7       0.1870375       50.04916
2010    29      0       0.187467        50.16809
2010    29      1       0.1937575       51.59501
2010    29      2       0.1953961       52.02134
2010    29      3       0.1887257       50.372
2010    29      4       0.1604903       44.38514
2010    29      5       0.1528432       42.71513
2010    29      6       0.1151856       33.81574
2010    29      7       0.07237169      23.05671
2010    30      0       0.06858802      21.8755
2010    30      1       0.09238913      27.698
2010    30      2       0.1090258       31.68893
2010    30      3       0.1424805       39.28016
2010    30      4       0.1466839       40.30306
2010    30      5       0.1486801       40.97283
2010    30      6       0.138067        38.51812
2010    30      7       0.1255335       35.70158
2010    31      0       0.128962        36.75484
2010    31      1       0.141612        39.66869
2010    31      2       0.1736317       47.12796
2010    31      3       0.2006388       52.89535
2010    31      4       0.2233766       57.27959
2010    31      5       0.2411028       61.51327
2010    31      6       0.2165765       56.78214
2010    31      7       0.1527131       42.44401
2011    1       0       0.08459655      25.3184
2011    1       1       0.1205353       33.80484
2011    1       2       0.1342962       37.28217
2011    1       3       0.1385973       38.34677
2011    1       4       0.1252968       35.40567
2011    1       5       0.1257859       35.5171
2011    1       6       0.1222595       34.70095
2011    1       7       0.09531064      28.54391
2011    2       0       0.06684516      21.51588
2011    2       1       0.06322534      20.45747
2011    2       2       0.05787434      19.04137
2011    2       3       0.05054637      17.2492
2011    2       4       0.04149792      15.01655
2011    2       5       0.04853719      16.82466
2011    2       6       0.03736595      13.96245
2011    2       7       0.0354989       13.42634
2011    3       0       0.03825576      13.99197
2011    3       1       0.03996083      14.36618
2011    3       2       0.04253998      15.02901
2011    3       3       0.04653241      16.04187
2011    3       4       0.06760745      21.3625
2011    3       5       0.09542354      28.13515
2011    3       6       0.1052607       30.4695
2011    3       7       0.07445509      23.1348
2011    4       0       0.05724495      18.86728
2011    4       1       0.04706202      16.27986
2011    4       2       0.05075435      17.04629
2011    4       3       0.06525692      20.45055
2011    4       4       0.0822975       24.686
2011    4       5       0.1096081       31.08425
2011    4       6       0.1354793       36.87155
2011    4       7       0.136108        36.89694
2011    5       0       0.1334191       36.25208
2011    5       1       0.135058        36.58349
2011    5       2       0.1404546       37.78417
2011    5       3       0.1455495       39.0471
2011    5       4       0.2171315       54.20696
2011    5       5       0.2342002       58.20464
2011    5       6       0.1909073       49.66362
2011    5       7       0.1436566       39.44923
2011    6       0       0.1122577       32.18284
2011    6       1       0.1154312       32.60309
2011    6       2       0.1253315       34.78555
2011    6       3       0.1379075       37.62264
2011    6       4       0.1837975       47.95194
2011    6       5       0.2567077       63.14189
2011    6       6       0.2222862       55.72102
2011    6       7       0.2012929       50.99965
2011    7       0       0.1809595       47.13777
2011    7       1       0.1659274       44.23003
2011    7       2       0.1197453       33.97189
2011    7       3       0.1057067       30.78
2011    7       4       0.1505366       41.2112
2011    7       5       0.22354         56.92075
2011    7       6       0.2091011       54.04161
2011    7       7       0.1510866       41.42246
2011    8       0       0.1040848       30.5307
2011    8       1       0.08367987      25.60565
2011    8       2       0.1055028       30.83074
2011    8       3       0.1501384       41.16805
2011    8       4       0.1718689       46.00585
2011    8       5       0.1402682       39.05931
2011    8       6       0.1082206       31.50623
2011    8       7       0.1091907       31.55095
2011    9       0       0.1308711       36.2361
2011    9       1       0.1281988       35.81064
2011    9       2       0.1411237       38.22488
2011    9       3       0.1232261       34.36449
2011    9       4       0.2030813       51.63077
2011    9       5       0.2741662       65.61345
2011    9       6       0.2583768       62.45903
2011    9       7       0.2752615       65.67979
2011    10      0       0.3992406       88.53913
2011    10      1       0.4830919       102.4929
2011    10      2       0.4202669       92.46201
2011    10      3       0.3942184       88.21085
2011    10      4       0.4999559       105.197
2011    10      5       0.5835471       117.587
2011    10      6       0.5162105       108.5208
2011    10      7       0.5528492       114.0691
2011    11      0       0.4978788       105.6433
2011    11      1       0.4628973       100.1796
2011    11      2       0.4326182       95.21552
2011    11      3       0.4084116       90.60385
2011    11      4       0.6636405       128.6107
2011    11      5       0.7863337       144.5964
2011    11      6       0.6573608       128.5803
2011    11      7       0.51699         108.1281
2011    12      0       0.3252243       76.24341
2011    12      1       0.2552688       62.91305
2011    12      2       0.3545091       81.86971
2011    12      3       0.4552727       99.72229
2011    12      4       0.5258944       111.1418
2011    12      5       0.3674345       85.2853
2011    12      6       0.1619082       44.08143
2011    12      7       0.08462412      26.01317
2011    13      0       0.06233349      20.47158
2011    13      1       0.05417211      18.47238
2011    13      2       0.05146133      17.71158
2011    13      3       0.1112661       31.87321
2011    13      4       0.3161636       74.74436
2011    13      5       0.3267874       77.19326
2011    13      6       0.3895616       88.31592
2011    13      7       0.4174686       92.80442
2011    14      0       0.4693374       100.6635
2011    14      1       0.4895539       103.6376
2011    14      2       0.3258489       75.67096
2011    14      3       0.3641199       82.65088
2011    14      4       0.4921285       103.5842
2011    14      5       0.4387194       94.78606
2011    14      6       0.4966957       103.9508
2011    14      7       0.4539816       96.61519
2011    15      0       0.3652361       82.13856
2011    15      1       0.3564422       80.98903
2011    15      2       0.375           83.87776
2011    15      3       0.4575191       97.44506
2011    15      4       0.4809161       101.6309
2011    15      5       0.4490087       95.97125
2011    15      6       0.399113        88.22655
2011    15      7       0.1740755       45.7643
2011    16      0       0.2586893       63.09286
2011    16      1       0.2602851       64.2551
2011    16      2       0.2170752       55.79251
2011    16      3       0.2668945       66.17758
2011    16      4       0.1883656       49.67769
2011    16      5       0.2358492       59.52098
2011    16      6       0.06348215      20.78931
2011    16      7       0.05133211      17.77489
2011    17      0       0.0397754       14.72899
2011    17      1       0.04060749      14.86884
2011    17      2       0.0414592       15.09261
2011    17      3       0.04184092      15.17346
2011    17      4       0.06033954      19.93676
2011    17      5       0.103988        30.58226
2011    17      6       0.115757        33.4471
2011    17      7       0.07869117      24.65311
2011    18      0       0.05033643      17.53041
2011    18      1       0.04089319      15.07292
2011    18      2       0.0371944       14.0898
2011    18      3       0.03246374      12.79709
2011    18      4       0.06544101      21.34383
2011    18      5       0.1199858       34.50543
2011    18      6       0.1562778       42.79253
2011    18      7       0.1305513       37.06452
2011    19      0       0.1095618       32.13932
2011    19      1       0.09033694      27.50495
2011    19      2       0.07802925      24.48875
2011    19      3       0.07236344      23.07545
2011    19      4       0.09408445      28.37222
2011    19      5       0.1641155       44.38646
2011    19      6       0.2050514       53.10708
2011    19      7       0.1920895       50.28652
2011    20      0       0.1529208       41.61902
2011    20      1       0.1080639       31.15721
2011    20      2       0.08279635      24.99233
2011    20      3       0.07805814      23.79367
2011    20      4       0.1239432       34.77022
2011    20      5       0.1962296       50.68626
2011    20      6       0.2510479       61.80595
2011    20      7       0.2371931       59.149
2011    21      0       0.2000247       51.62631
2011    21      1       0.1714673       45.50927
2011    21      2       0.1553188       42.13077
2011    21      3       0.1344991       37.49912
2011    21      4       0.1576931       42.66846
2011    21      5       0.2183957       55.66213
2011    21      6       0.2672763       65.3987
2011    21      7       0.2625269       64.40116
2011    22      0       0.2603259       63.97047
2011    22      1       0.2619876       64.85537
2011    22      2       0.1956648       51.19652
2011    22      3       0.2187676       55.8319
2011    22      4       0.3236469       76.15788
2011    22      5       0.4566564       99.08816
2011    22      6       0.5534261       114.0255
2011    22      7       0.3599432       83.2407
2011    23      0       0.2899869       70.38844
2011    23      1       0.2816607       69.0057
2011    23      2       0.2777067       68.60993
2011    23      3       0.2034327       53.37946
2011    23      4       0.2013648       52.61203
2011    23      5       0.2632515       65.16716
2011    23      6       0.3461141       81.05223
2011    23      7       0.2934749       71.48016
2011    24      0       0.2299265       59.0118
2011    24      1       0.1933665       51.28298
2011    24      2       0.145125        40.62902
2011    24      3       0.1186599       34.46167
2011    24      4       0.1917191       50.86083
2011    24      5       0.3377789       80.02646
2011    24      6       0.4102652       93.15731
2011    24      7       0.3062716       74.4297
2011    25      0       0.2313135       59.38596
2011    25      1       0.1958132       51.81095
2011    25      2       0.1610659       44.102
2011    25      3       0.1327767       37.68746
2011    25      4       0.196196        51.95865
2011    25      5       0.3101809       75.11744
2011    25      6       0.3599337       84.5928
2011    25      7       0.3081493       75.0984
2011    26      0       0.2834357       70.22688
2011    26      1       0.2471116       62.81463
2011    26      2       0.1880798       50.27021
2011    26      3       0.1441821       40.40448
2011    26      4       0.2210368       57.1867
2011    26      5       0.3461903       81.72323
2011    26      6       0.3471991       82.00337
2011    26      7       0.2888284       71.07278
2011    27      0       0.2316816       59.56451
2011    27      1       0.1868663       49.80689
2011    27      2       0.1343186       37.77347
2011    27      3       0.1112651       32.3901
2011    27      4       0.1668192       45.44827
2011    27      5       0.2144024       55.91208
2011    27      6       0.1936606       51.56235
2011    27      7       0.131075        37.36213
2011    28      0       0.1005922       29.84887
2011    28      1       0.09765936      29.123
2011    28      2       0.09893418      29.37197
2011    28      3       0.105785        30.96998
2011    28      4       0.1721315       46.40451
2011    28      5       0.2279242       58.54788
2011    28      6       0.1985319       52.58859
2011    28      7       0.1289916       36.96996
2011    29      0       0.1116263       32.7779
2011    29      1       0.1018845       30.36233
2011    29      2       0.08335316      25.73507
2011    29      3       0.07850927      24.53346
2011    29      4       0.1009163       30.07428
2011    29      5       0.1220562       35.4384
2011    29      6       0.1169152       34.42042
2011    29      7       0.08412935      26.27218
2011    30      0       0.06789695      22.18464
2011    30      1       0.05485719      18.7064
2011    30      2       0.04697801      16.59536
2011    30      3       0.0484975       17.04997
2011    30      4       0.08502919      26.38532
2011    30      5       0.1489764       41.43207
2011    30      6       0.1571412       43.22424
2011    30      7       0.1456668       40.51708
2011    31      0       0.1329293       37.55354
2011    31      1       0.1226345       35.17444
2011    31      2       0.1297194       36.8595
2011    31      3       0.1331356       37.64969
2011    31      4       0.1789595       48.23263
2011    31      5       0.2376775       61.01656
2011    31      6       0.270691        67.78215
2011    31      7       0.2405697       61.67959
2012    1       0       0.1273684       35.92359
2012    1       1       0.1057572       30.95171
2012    1       2       0.08461063      25.84647
2012    1       3       0.06664069      21.39871
2012    1       4       0.08215458      25.27992
2012    1       5       0.09046798      27.37214
2012    1       6       0.0866821       26.45837
2012    1       7       0.05647105      18.86672
2012    2       0       0.05696324      18.8424
2012    2       1       0.06667443      21.06388
2012    2       2       0.08598026      25.6878
2012    2       3       0.0895165       26.7744
2012    2       4       0.07823468      24.20722
2012    2       5       0.08624204      26.12653
2012    2       6       0.07226863      22.73859
2012    2       7       0.05762396      19.11089
2012    3       0       0.05533827      18.52298
2012    3       1       0.05755284      19.01577
2012    3       2       0.06137251      19.90495
2012    3       3       0.05735438      19.04905
2012    3       4       0.07553164      23.71635
2012    3       5       0.1093402       31.69454
2012    3       6       0.1158734       33.26671
2012    3       7       0.100815        29.72373
2012    4       0       0.08888027      26.69264
2012    4       1       0.08623864      25.93742
2012    4       2       0.09424401      27.86307
2012    4       3       0.1015232       29.65975
2012    4       4       0.1085844       31.48058
2012    4       5       0.1171273       33.60787
2012    4       6       0.1151915       33.24783
2012    4       7       0.1039551       30.64636
2012    5       0       0.1039573       30.6105
2012    5       1       0.1118142       32.39648
2012    5       2       0.1223009       34.87517
2012    5       3       0.1264868       35.95181
2012    5       4       0.1326289       37.37542
2012    5       5       0.1507895       41.51743
2012    5       6       0.1425402       39.67982
2012    5       7       0.08789833      26.74166
2012    6       0       0.06565178      21.14144
2012    6       1       0.05295106      17.98478
2012    6       2       0.04628753      16.18613
2012    6       3       0.05408511      18.106
2012    6       4       0.07516882      23.43251
2012    6       5       0.09654517      28.74872
2012    6       6       0.08397491      25.86162
2012    6       7       0.08613333      26.51235
2012    7       0       0.108058        31.4817
2012    7       1       0.1195309       34.17217
2012    7       2       0.1228456       35.00961
2012    7       3       0.1090262       31.86141
2012    7       4       0.1276041       36.20829
2012    7       5       0.05917498      19.71611
2012    7       6       0.03810048      14.05342
2012    7       7       0.05413558      18.06456
2012    8       0       0.0879532       26.42548
2012    8       1       0.1013122       29.81692
2012    8       2       0.05851237      19.57527
2012    8       3       0.0380279       14.24467
2012    8       4       0.05157778      17.67748
2012    8       5       0.08719712      26.34709
2012    8       6       0.09466997      28.05103
2012    8       7       0.1617043       43.98526
2012    9       0       0.1765078       47.56468
2012    9       1       0.1761717       47.60936
2012    9       2       0.1340826       38.25199
2012    9       3       0.09779257      29.60943
2012    9       4       0.08352117      26.04108
2012    9       5       0.09287102      28.22926
2012    9       6       0.07240429      23.15501
2012    9       7       0.06228132      20.56623
2012    10      0       0.06502868      21.25632
2012    10      1       0.07292457      23.2458
2012    10      2       0.07265938      23.14582
2012    10      3       0.07266182      23.1469
2012    10      4       0.08328178      25.78332
2012    10      5       0.09861122      29.48539
2012    10      6       0.08692158      26.62206
2012    10      7       0.09252519      27.85707
2012    11      0       0.1147489       33.04436
2012    11      1       0.1297064       36.53112
2012    11      2       0.1440751       39.80735
2012    11      3       0.1659934       44.69209
2012    11      4       0.1624472       43.91517
2012    11      5       0.1593901       43.21589
2012    11      6       0.1379397       38.18973
2012    11      7       0.1302267       36.3684
2012    12      0       0.1271893       35.64306
2012    12      1       0.1137952       32.47543
2012    12      2       0.1054546       30.50232
2012    12      3       0.1066996       30.82082
2012    12      4       0.1315079       36.65226
2012    12      5       0.1651795       44.18043
2012    12      6       0.1842123       48.25927
2012    12      7       0.1763607       46.69333
2012    13      0       0.1590587       42.79961
2012    13      1       0.1649723       43.79039
2012    13      2       0.1568059       42.04739
2012    13      3       0.1581098       42.55887
2012    13      4       0.1782565       47.12181
2012    13      5       0.1974205       51.33535
2012    13      6       0.2202682       55.8801
2012    13      7       0.2085374       53.40572
2012    14      0       0.1691758       45.04829
2012    14      1       0.1436802       39.38622
2012    14      2       0.1299032       36.29098
2012    14      3       0.1177293       33.54606
2012    14      4       0.1312515       36.76476
2012    14      5       0.1588301       42.99424
2012    14      6       0.1524989       41.63192
2012    14      7       0.1326951       37.1943
2012    15      0       0.1267613       35.83426
2012    15      1       0.1277207       36.07861
2012    15      2       0.1278865       36.15122
2012    15      3       0.12184         34.77216
2012    15      4       0.1421808       39.38406
2012    15      5       0.1745335       46.59211
2012    15      6       0.1613989       43.75321
2012    15      7       0.1309988       36.83475
2012    16      0       0.1246647       35.35472
2012    16      1       0.1292299       36.40215
2012    16      2       0.1505013       41.19297
2012    16      3       0.1948875       50.72804
2012    16      4       0.2431973       60.4856
2012    16      5       0.2949554       70.70761
2012    16      6       0.3315837       77.51323
2012    16      7       0.2988509       71.46694
2012    17      0       0.3037931       72.27525
2012    17      1       0.3769595       85.1904
2012    17      2       0.4531018       97.99743
2012    17      3       0.3982525       89.20436
2012    17      4       0.3549399       81.85059
2012    17      5       0.448289        97.55122
2012    17      6       0.4772927       102.512
2012    17      7       0.3277554       77.19632
2012    18      0       0.3144253       74.44842
2012    18      1       0.3215955       75.75452
2012    18      2       0.3310201       77.24616
2012    18      3       0.3719396       84.51657
2012    18      4       0.4462582       96.68873
2012    18      5       0.4571729       98.33968
2012    18      6       0.3815135       85.90621
2012    18      7       0.3597461       81.97094
2012    19      0       0.2876769       69.09484
2012    19      1       0.290021        69.45619
2012    19      2       0.3188089       74.77844
2012    19      3       0.3358061       77.94613
2012    19      4       0.3800827       85.4514
2012    19      5       0.4433592       95.93606
2012    19      6       0.3547943       81.10896
2012    19      7       0.259209        63.54321
2012    20      0       0.2387537       59.42256
2012    20      1       0.2847713       68.04885
2012    20      2       0.2917719       69.41142
2012    20      3       0.2980199       71.05397
2012    20      4       0.4563539       98.88555
2012    20      5       0.5508292       113.8565
2012    20      6       0.4013166       90.12846
2012    20      7       0.2602262       64.33677
2012    21      0       0.2160097       55.08678
2012    21      1       0.1913238       49.92529
2012    21      2       0.1673853       44.88418
2012    21      3       0.1777092       47.20799
2012    21      4       0.2098662       54.23556
2012    21      5       0.2408015       60.63118
2012    21      6       0.2280203       58.16857
2012    21      7       0.1738748       46.85198
2012    22      0       0.1348401       38.11511
2012    22      1       0.1041909       30.9431
2012    22      2       0.07002811      22.53343
2012    22      3       0.06804911      21.9685
2012    22      4       0.1790649       48.17466
2012    22      5       0.274015        68.36346
2012    22      6       0.297574        73.0716
2012    22      7       0.2476242       62.86698
2012    23      0       0.2851698       70.68152
2012    23      1       0.3817351       88.79584
2012    23      2       0.4632279       102.7438
2012    23      3       0.4308793       97.21802
2012    23      4       0.4050546       92.17873
2012    23      5       0.7021809       137.2185
2012    23      6       0.4003683       91.72535
2012    23      7       0.2805454       69.51937
2012    24      0       0.3665958       85.70228
2012    24      1       0.4242489       94.98718
2012    24      2       0.3818408       87.86831
2012    24      3       0.4007339       91.45326
2012    24      4       0.4336636       96.90352
2012    24      5       0.6645885       131.9239
2012    24      6       0.7814068       147.0983
2012    24      7       0.6360173       128.7681
2012    25      0       0.6441888       129.7127
2012    25      1       0.4739554       103.2585
2012    25      2       0.3972448       90.69615
2012    25      3       0.3952801       90.3749
2012    25      4       0.5810796       118.9172
2012    25      5       0.7153267       137.3335
2012    25      6       0.5752101       119.0915
2012    25      7       0.430738        96.8042
2012    26      0       0.3397614       80.80903
2012    26      1       0.2885446       71.03408
2012    26      2       0.2928469       71.86929
2012    26      3       0.2976396       72.74947
2012    26      4       0.3258882       77.98324
2012    26      5       0.4154461       93.7174
2012    26      6       0.4614486       101.8209
2012    26      7       0.3140715       76.11073
2012    27      0       0.1602624       44.11402
2012    27      1       0.1721738       46.66995
2012    27      2       0.2272972       58.59044
2012    27      3       0.2997695       73.14997
2012    27      4       0.3879644       89.29673
2012    27      5       0.5111556       109.6991
2012    27      6       0.5027944       108.0414
2012    27      7       0.43778         97.65408
2012    28      0       0.459944        100.4113
2012    28      1       0.3765004       86.84074
2012    28      2       0.3562359       83.41589
2012    28      3       0.4912329       106.1255
2012    28      4       0.6304736       126.5494
2012    28      5       0.5828048       120.087
2012    28      6       0.7551615       143.8424
2012    28      7       0.4610358       101.9553
2012    29      0       0.3512396       82.52696
2012    29      1       0.2068744       53.9022
2012    29      2       0.1646884       44.59075
2012    29      3       0.1636316       44.3974
2012    29      4       0.1893565       50.06061
2012    29      5       0.2240603       57.78134
2012    29      6       0.2165904       56.36623
2012    29      7       0.1265629       36.16823
2012    30      0       0.117145        33.83104
2012    30      1       0.1198153       34.31924
2012    30      2       0.130662        36.80578
2012    30      3       0.150992        41.43885
2012    30      4       0.1649205       44.69749
2012    30      5       0.1762153       47.30084
2012    30      6       0.1650951       44.98817
2012    30      7       0.1010374       30.10755
2012    31      0       0.09069159      27.42683
2012    31      1       0.08278091      25.46761
2012    31      2       0.07754315      24.28475
2012    31      3       0.0885481       27.04495
2012    31      4       0.1259006       35.95666
2012    31      5       0.1898662       50.16527
2012    31      6       0.1983592       51.75652
2012    31      7       0.1372202       37.82017
2013    1       0       0.1126067       32.0402
2013    1       1       0.1622561       43.46761
2013    1       2       0.250905        62.39164
2013    1       3       0.2925424       70.4494
2013    1       4       0.3253464       76.49486
2013    1       5       0.2951218       70.99011
2013    1       6       0.2979973       71.68954
2013    1       7       0.3188317       75.76953
2013    2       0       0.3123069       74.46935
2013    2       1       0.416998        92.36396
2013    2       2       0.3301042       77.12971
2013    2       3       0.3368918       78.11437
2013    2       4       0.3906844       87.54723
2013    2       5       0.5340632       111.084
2013    2       6       0.4847448       104.6849
2013    2       7       0.3818248       87.93324
2013    3       0       0.2718742       67.05903
2013    3       1       0.1397711       39.00147
2013    3       2       0.05959672      19.65738
2013    3       3       0.07150688      22.23296
2013    3       4       0.2035694       52.07073
2013    3       5       0.5716561       116.5591
2013    3       6       0.6065333       123.3666
2013    3       7       0.6189658       125.8167
2013    4       0       0.6310457       127.8108
2013    4       1       0.5670318       118.9896
2013    4       2       0.7214304       139.2647
2013    4       3       0.6346972       126.4907
2013    4       4       0.6386586       125.885
2013    4       5       0.6104185       121.9552
2013    4       6       0.6000378       120.88
2013    4       7       0.5150539       108.8871
2013    5       0       0.4829287       103.4043
2013    5       1       0.3733595       84.59587
2013    5       2       0.5939999       120.0884
2013    5       3       0.6711518       130.4516
2013    5       4       0.6037216       121.9739
2013    5       5       0.6000391       122.1473
2013    5       6       0.425179        94.99484
2013    5       7       0.3493068       82.02014
2013    6       0       0.2276595       58.46678
2013    6       1       0.1575564       43.45392
2013    6       2       0.199117        52.78095
2013    6       3       0.2160206       56.69699
2013    6       4       0.2837692       70.8125
2013    6       5       0.4153827       95.5802
2013    6       6       0.3683193       87.0434
2013    6       7       0.2485787       63.37593
2013    7       0       0.4058536       93.22821
2013    7       1       0.344675        81.47491
2013    7       2       0.1646547       44.99346
2013    7       3       0.1072315       31.5838
2013    7       4       0.1540752       42.04146
2013    7       5       0.1530688       41.70918
2013    7       6       0.1045619       30.64394
2013    7       7       0.09603561      28.55686
2013    8       0       0.1036986       30.37977
2013    8       1       0.1166349       33.55168
2013    8       2       0.1193106       34.62369
2013    8       3       0.1315945       37.63092
2013    8       4       0.1555033       43.35936
2013    8       5       0.2284467       59.45674
2013    8       6       0.2364134       60.88287
2013    8       7       0.1827814       49.08437
2013    9       0       0.1832994       48.80228
2013    9       1       0.1927229       50.63553
2013    9       2       0.2148458       55.40942
2013    9       3       0.2102571       54.32109
2013    9       4       0.1604715       43.22437
2013    9       5       0.09720967      29.41473
2013    9       6       0.1173228       33.86747
2013    9       7       0.1158685       33.61738
2013    10      0       0.09444671      28.68279
2013    10      1       0.0847575       26.26321
2013    10      2       0.09948568      29.46059
2013    10      3       0.1665213       44.15697
2013    10      4       0.2258029       57.14094
2013    10      5       0.1912403       50.40864
2013    10      6       0.109996        32.29332
2013    10      7       0.08471946      26.19183
2013    11      0       0.06112522      20.25874
2013    11      1       0.05618573      18.84473
2013    11      2       0.05417987      18.34776
2013    11      3       0.05381782      18.33425
2013    11      4       0.06643165      21.39474
2013    11      5       0.1028328       30.39111
2013    11      6       0.1135349       32.90077
2013    11      7       0.1578076       42.82613
2013    12      0       0.21738         55.94125
2013    12      1       0.2321303       59.32538
2013    12      2       0.3604147       84.11153
2013    12      3       0.4087617       93.30966
2013    12      4       0.4315896       97.43456
2013    12      5       0.5383971       114.3594
2013    12      6       0.4984281       108.6442
2013    12      7       0.3931351       90.8468
2013    13      0       0.3391445       80.92727
2013    13      1       0.3738676       87.14069
2013    13      2       0.3721326       86.65825
2013    13      3       0.4905033       107.7917
2013    13      4       0.6016486       125.1865
2013    13      5       0.6895          137.0551
2013    13      6       0.4739581       104.5446
2013    13      7       0.4209325       95.58933
2013    14      0       0.4136772       94.584
2013    14      1       0.3933073       90.9224
2013    14      2       0.3860301       89.80887
2013    14      3       0.3892485       90.43568
2013    14      4       0.4167974       94.69036
2013    14      5       0.4503771       99.98153
2013    14      6       0.4093444       93.26844
2013    14      7       0.3866933       89.49084
2013    15      0       0.3986936       91.78892
2013    15      1       0.3868742       89.78783
2013    15      2       0.3629367       85.40917
2013    15      3       0.3634714       85.28752
2013    15      4       0.3941094       90.82884
2013    15      5       0.4850096       106.4578
2013    15      6       0.4026975       92.48817
2013    15      7       0.2625102       65.63435
2013    16      0       0.2634811       65.54198
2013    16      1       0.3757092       86.61555
2013    16      2       0.3468977       81.31832
2013    16      3       0.3149022       75.15644
2013    16      4       0.3465752       80.87939
2013    16      5       0.4060981       90.89823
2013    16      6       0.2795197       68.67511
2013    16      7       0.2716876       66.70174
2013    17      0       0.311401        74.43594
2013    17      1       0.3482982       81.45469
2013    17      2       0.3542741       82.51816
2013    17      3       0.2804775       69.02245
2013    17      4       0.2432419       61.47273
2013    17      5       0.4593709       100.299
2013    17      6       0.4908132       106.1062
2013    17      7       0.1985728       52.63133
2013    18      0       0.1305318       37.58924
2013    18      1       0.1084232       32.09951
2013    18      2       0.1048743       31.16642
2013    18      3       0.173986        46.59226
2013    18      4       0.1743749       46.62526
2013    18      5       0.2130297       54.92745
2013    18      6       0.1844222       48.44869
2013    18      7       0.1646776       44.27666
2013    19      0       0.1608255       43.49531
2013    19      1       0.1721279       46.07552
2013    19      2       0.07025964      22.37579
2013    19      3       0.05705862      18.99354
2013    19      4       0.1310782       37.33928
2013    19      5       0.1554686       43.15417
2013    19      6       0.1218306       35.37478
2013    19      7       0.1120043       33.00164
2013    20      0       0.08298931      25.89408
2013    20      1       0.06020802      20.13465
2013    20      2       0.05472092      18.73171
2013    20      3       0.04370867      15.78806
2013    20      4       0.06752057      21.8086
2013    20      5       0.1231953       35.07063
2013    20      6       0.1477429       40.76045
2013    20      7       0.1297645       36.78454
2013    21      0       0.1075492       31.74177
2013    21      1       0.09471403      28.69171
2013    21      2       0.08401208      26.02197
2013    21      3       0.06991345      22.55846
2013    21      4       0.07439376      23.57904
2013    21      5       0.1205752       34.68927
2013    21      6       0.1343121       37.67317
2013    21      7       0.1058154       30.84855
2013    22      0       0.0957768       28.47849
2013    22      1       0.07930221      24.50371
2013    22      2       0.07255498      22.63427
2013    22      3       0.06357791      20.59146
2013    22      4       0.08132096      25.06677
2013    22      5       0.1010586       29.89143
2013    22      6       0.1201018       34.31134
2013    22      7       0.05778245      19.26977
2013    23      0       0.0487394       16.80873
2013    23      1       0.06032546      19.61051
2013    23      2       0.06134022      19.9815
2013    23      3       0.08584973      26.00255
2013    23      4       0.3651078       84.20904
2013    23      5       0.279769        68.27128
2013    23      6       0.1821044       48.63621
2013    23      7       0.06596652      21.62053
2013    24      0       0.05154098      17.8659
2013    24      1       0.03169179      12.58085
2013    24      2       0.04234381      15.27968
2013    24      3       0.0618731       20.18043
2013    24      4       0.1032621       30.07974
2013    24      5       0.1377046       38.22436
2013    24      6       0.1822531       48.07484
2013    24      7       0.2301847       58.40001
2013    25      0       0.232384        59.27392
2013    25      1       0.2586846       64.80401
2013    25      2       0.3094715       74.40978
2013    25      3       0.3184249       76.41786
2013    25      4       0.3330634       79.18433
2013    25      5       0.330822        79.08102
2013    25      6       0.2719868       68.02797
2013    25      7       0.1878876       50.45433
2013    26      0       0.1200089       34.86746
2013    26      1       0.07519258      23.96384
2013    26      2       0.06177263      20.6232
2013    26      3       0.0944703       28.38761
2013    26      4       0.1487961       40.98099
2013    26      5       0.1772555       47.20714
2013    26      6       0.2056625       52.93367
2013    26      7       0.2164707       55.14569
2013    27      0       0.2966911       71.84539
2013    27      1       0.3175635       76.10493
2013    27      2       0.3055778       73.19694
2013    27      3       0.326274        76.94363
2013    27      4       0.3624773       84.27252
2013    27      5       0.251953        64.21182
2013    27      6       0.1221939       35.40361
2013    27      7       0.07560578      23.82348
2013    28      0       0.0570468       19.24861
2013    28      1       0.04613883      16.4365
2013    28      2       0.04601908      16.40422
2013    28      3       0.05198074      17.81583
2013    28      4       0.07258888      22.97654
2013    28      5       0.1013517       30.15835
2013    28      6       0.1510866       41.79281
2013    28      7       0.1511945       41.9435
2013    29      0       0.2042492       53.09982
2013    29      1       0.3103405       75.01354
2013    29      2       0.2676392       66.57061
2013    29      3       0.2439099       62.06715
2013    29      4       0.3452248       81.58812
2013    29      5       0.4800855       104.266
2013    29      6       0.3599528       84.39361
2013    29      7       0.3023201       73.11044
2013    30      0       0.2728237       66.83112
2013    30      1       0.2632941       65.20819
2013    30      2       0.2023329       52.75459
2013    30      3       0.1578046       43.41678
2013    30      4       0.1914689       50.82305
2013    30      5       0.2259685       58.16238
2013    30      6       0.1931451       51.21033
2013    30      7       0.1634777       44.39769
2013    31      0       0.1422918       39.4562
2013    31      1       0.09548243      28.4711
2013    31      2       0.08590601      26.01246
2013    31      3       0.07857192      24.38393
2013    31      4       0.0953153       28.4573
2013    31      5       0.1141431       33.0398
2013    31      6       0.1136403       32.93371
2013    31      7       0.1228557       35.17584
2014    1       0       0.05300253      17.74648
2014    1       1       0.08136821      24.47388
2014    1       2       0.1286912       35.58522
2014    1       3       0.2201581       55.79009
2014    1       4       0.3161425       75.81109
2014    1       5       0.3657722       85.43438
2014    1       6       0.3244048       78.13327
2014    1       7       0.228992        58.97159
2014    2       0       0.1430719       39.7852
2014    2       1       0.2664591       66.93973
2014    2       2       0.2318148       60.14182
2014    2       3       0.1457391       41.07825
2014    2       4       0.1421766       40.0672
2014    2       5       0.1831639       49.2528
2014    2       6       0.2092088       54.79662
2014    2       7       0.1933483       51.48633
2014    3       0       0.1106074       32.71705
2014    3       1       0.06142131      20.45626
2014    3       2       0.04465273      16.10938
2014    3       3       0.03300207      12.95518
2014    3       4       0.03756096      14.19589
2014    3       5       0.08266863      25.73969
2014    3       6       0.1490968       41.2968
2014    3       7       0.1691858       45.97398
2014    4       0       0.1574548       43.25932
2014    4       1       0.1503892       41.63341
2014    4       2       0.1620766       44.19502
2014    4       3       0.1641585       44.78993
2014    4       4       0.1705651       46.21681
2014    4       5       0.1870688       49.80579
2014    4       6       0.1840558       49.17424
2014    4       7       0.1735554       46.92146
2014    5       0       0.1858194       49.5746
2014    5       1       0.187572        49.89204
2014    5       2       0.1683124       45.4964
2014    5       3       0.1560207       42.62719
2014    5       4       0.1801187       48.00302
2014    5       5       0.1979548       51.92395
2014    5       6       0.1820807       48.67818
2014    5       7       0.124876        35.8233
2014    6       0       0.08664573      26.68143
2014    6       1       0.07755258      24.47581
2014    6       2       0.08327081      25.8239
2014    6       3       0.1126771       32.99118
2014    6       4       0.1684849       45.93931
2014    6       5       0.2588707       65.00921
2014    6       6       0.3335188       79.31758
2014    6       7       0.2899112       71.14673
2014    7       0       0.2505883       63.35789
2014    7       1       0.2376697       60.62348
2014    7       2       0.2358834       60.10896
2014    7       3       0.2397253       60.85137
2014    7       4       0.2514943       63.07214
2014    7       5       0.3390222       79.46836
2014    7       6       0.3843762       87.81239
2014    7       7       0.2925601       71.35039
2014    8       0       0.2566425       64.03513
2014    8       1       0.2273852       57.94152
2014    8       2       0.2182349       55.50955
2014    8       3       0.3062118       72.87951
2014    8       4       0.3927952       88.40538
2014    8       5       0.4658267       100.7068
2014    8       6       0.380743        87.06993
2014    8       7       0.3503842       81.51792
2014    9       0       0.4511534       98.07854
2014    9       1       0.4635844       100.2422
2014    9       2       0.3676056       84.18831
2014    9       3       0.2840198       69.01199
2014    9       4       0.2499573       62.26232
2014    9       5       0.299388        71.60894
2014    9       6       0.263223        64.26736
2014    9       7       0.2447804       60.31682
2014    10      0       0.1946921       50.40248
2014    10      1       0.1689837       45.10354
2014    10      2       0.1630961       44.03459
2014    10      3       0.1534224       41.90237
2014    10      4       0.1921201       50.23376
2014    10      5       0.2947004       70.5974
2014    10      6       0.377138        85.64876
2014    10      7       0.3269697       76.57616
2014    11      0       0.3065341       72.84957
2014    11      1       0.3684726       83.9708
2014    11      2       0.3942981       88.30046
2014    11      3       0.4249514       93.06782
2014    11      4       0.4465289       96.70918
2014    11      5       0.4987175       105.2082
2014    11      6       0.4768063       101.9847
2014    11      7       0.3838204       86.47942
2014    12      0       0.4064893       90.91693
2014    12      1       0.4394518       95.94333
2014    12      2       0.2658547       65.21973
2014    12      3       0.2115679       54.30647
2014    12      4       0.2918419       70.32797
2014    12      5       0.4174351       92.25682
2014    12      6       0.4064106       90.35532
2014    12      7       0.2712792       65.61368
2014    13      0       0.1713054       45.26763
2014    13      1       0.1354439       37.76201
2014    13      2       0.1100998       32.0797
2014    13      3       0.1801426       48.02911
2014    13      4       0.2079242       54.02818
2014    13      5       0.1530641       42.11544
2014    13      6       0.1051241       31.11485
2014    13      7       0.06398445      20.95518
2014    14      0       0.05865524      19.58331
2014    14      1       0.05600812      18.92498
2014    14      2       0.04883455      17.05875
2014    14      3       0.04085867      14.95804
2014    14      4       0.08955109      27.13602
2014    14      5       0.124243        35.26776
2014    14      6       0.08900978      26.91161
2014    14      7       0.05516506      18.40231
2014    15      0       0.06543648      21.05318
2014    15      1       0.07878025      24.39213
2014    15      2       0.07067753      22.53483
2014    15      3       0.06446885      21.0161
2014    15      4       0.08217935      25.41295
2014    15      5       0.1253519       35.47584
2014    15      6       0.1584161       42.82388
2014    15      7       0.1251037       35.10422
2014    16      0       0.111701        32.1428
2014    16      1       0.102391        29.94051
2014    16      2       0.09297166      27.71578
2014    16      3       0.07957454      24.48227
2014    16      4       0.122037        34.81184
2014    16      5       0.1725944       46.40061
2014    16      6       0.1778402       47.70531
2014    16      7       0.1482692       41.17323
2014    17      0       0.1372009       38.60634
2014    17      1       0.1280743       36.46908
2014    17      2       0.1140038       33.05443
2014    17      3       0.1256983       35.68933
2014    17      4       0.1924344       50.5219
2014    17      5       0.3067589       73.35838
2014    17      6       0.4798199       103.2187
2014    17      7       0.4347254       96.03632
2014    18      0       0.3953714       89.24599
2014    18      1       0.3291484       77.2816
2014    18      2       0.2832541       68.51992
2014    18      3       0.3125906       73.85126
2014    18      4       0.4690064       100.2603
2014    18      5       0.3663588       83.28841
2014    18      6       0.3120253       73.37087
2014    18      7       0.318576        74.97553
2014    19      0       0.2514106       62.07742
2014    19      1       0.1749691       46.32158
2014    19      2       0.1110141       32.02219
2014    19      3       0.08039661      24.7519
2014    19      4       0.1158148       33.30993
2014    19      5       0.1670029       44.95633
2014    19      6       0.1939839       50.84125
2014    19      7       0.1466288       40.25599
2014    20      0       0.1087926       31.36506
2014    20      1       0.08029322      24.50513
2014    20      2       0.08693718      26.00881
2014    20      3       0.1160693       32.57157
2014    20      4       0.1909848       48.59486
2014    20      5       0.1039545       30.47175
2014    20      6       0.06570968      21.29713
2014    20      7       0.06851098      21.86221
2014    21      0       0.06522805      21.16159
2014    21      1       0.0498293       17.24784
2014    21      2       0.0468286       16.37037
2014    21      3       0.05478339      18.33709
2014    21      4       0.1223119       34.79513
2014    21      5       0.171754        46.08256
2014    21      6       0.1924138       50.64292
2014    21      7       0.1782079       47.61754
2014    22      0       0.1716542       45.98806
2014    22      1       0.1732012       46.14189
2014    22      2       0.1775956       46.87869
2014    22      3       0.1801447       47.27522
2014    22      4       0.2410688       59.90379
2014    22      5       0.3561075       81.83428
2014    22      6       0.3491872       81.06867
2014    22      7       0.3002506       72.29745
2014    23      0       0.2467968       62.27192
2014    23      1       0.2208961       57.0652
2014    23      2       0.1804819       48.39557
2014    23      3       0.1314034       37.3005
2014    23      4       0.1496636       41.4226
2014    23      5       0.1858298       49.45254
2014    23      6       0.1990894       52.3381
2014    23      7       0.1328304       37.53997
2014    24      0       0.1094187       31.88625
2014    24      1       0.1073875       31.32078
2014    24      2       0.107127        31.23121
2014    24      3       0.1190917       33.90685
2014    24      4       0.1672991       44.82254
2014    24      5       0.2013901       52.45932
2014    24      6       0.190933        50.43606
2014    24      7       0.1253641       35.58528
2014    25      0       0.1174323       33.44391
2014    25      1       0.1197681       33.87063
2014    25      2       0.1180072       33.55297
2014    25      3       0.124696        35.08777
2014    25      4       0.1416974       38.95793
2014    25      5       0.1437364       39.548
2014    25      6       0.1393406       38.81766
2014    25      7       0.1388266       38.92219
2014    26      0       0.1029888       30.65942
2014    26      1       0.05242624      18.02897
2014    26      2       0.04439993      15.81836
2014    26      3       0.04742511      16.54695
2014    26      4       0.05355171      18.14393
2014    26      5       0.07465732      23.52848
2014    26      6       0.08739117      26.57156
2014    26      7       0.07748285      24.04779
2014    27      0       0.0693004       21.82733
2014    27      1       0.07760081      23.70951
2014    27      2       0.07265463      22.56524
2014    27      3       0.0662969       21.12606
2014    27      4       0.08686264      26.35303
2014    27      5       0.1070806       31.2474
2014    27      6       0.1173813       33.60248
2014    27      7       0.09881175      28.7208
2014    28      0       0.1069355       30.69063
2014    28      1       0.1575627       42.28746
2014    28      2       0.1660008       44.01803
2014    28      3       0.1766686       46.4118
2014    28      4       0.441081        96.0962
2014    28      5       0.4242283       92.167
2014    28      6       0.3878373       86.68171
2014    28      7       0.2286135       56.65195
2014    29      0       0.3992142       88.78699
2014    29      1       0.1899396       49.47526
2014    29      2       0.2927678       69.88653
2014    29      3       0.3094701       73.36636
2014    29      4       0.302966        72.4163
2014    29      5       0.3720359       84.94568
2014    29      6       0.2695155       65.89965
2014    29      7       0.1312112       36.99877
2014    30      0       0.06891369      22.3092
2014    30      1       0.04904816      17.02563
2014    30      2       0.03822334      14.23864
2014    30      3       0.03762821      14.08264
2014    30      4       0.05787785      19.33052
2014    30      5       0.09379587      28.14073
2014    30      6       0.1055795       30.88435
2014    30      7       0.09015837      26.82316
2014    31      0       0.1065669       30.5963
2014    31      1       0.08213443      24.90982
2014    31      2       0.07263119      22.44287
2014    31      3       0.06358843      20.28652
2014    31      4       0.1024079       29.75327
2014    31      5       0.1205071       34.39121
2014    31      6       0.1292009       36.63866
2014    31      7       0.09027548      27.24863
2015    1       0       0.1159119       33.51491
2015    1       1       0.1018167       30.0785
2015    1       2       0.09422564      28.3078
2015    1       3       0.09449455      28.35979
2015    1       4       0.1049221       31.03922
2015    1       5       0.1168823       34.01581
2015    1       6       0.1221141       35.31713
2015    1       7       0.1005135       30.18731
2015    2       0       0.09044741      27.7218
2015    2       1       0.09066115      27.73768
2015    2       2       0.08924687      27.37352
2015    2       3       0.08584433      26.48704
2015    2       4       0.1041941       30.98686
2015    2       5       0.1884138       50.29306
2015    2       6       0.2064884       54.29926
2015    2       7       0.1647773       45.17085
2015    3       0       0.1205909       35.00888
2015    3       1       0.1195588       34.649
2015    3       2       0.1129914       32.96503
2015    3       3       0.1095103       32.08564
2015    3       4       0.1492362       41.39566
2015    3       5       0.2468638       62.47118
2015    3       6       0.3019755       73.38905
2015    3       7       0.2782813       68.76268
2015    4       0       0.2347683       59.81458
2015    4       1       0.2082366       54.0947
2015    4       2       0.172052        46.00894
2015    4       3       0.1077221       31.02492
2015    4       4       0.1033256       29.81251
2015    4       5       0.1838591       48.47433
2015    4       6       0.2398593       60.47115
2015    4       7       0.2023138       52.77396
2015    5       0       0.1471388       40.48679
2015    5       1       0.1305158       36.58105
2015    5       2       0.1316712       36.85341
2015    5       3       0.1332096       37.27535
2015    5       4       0.1593032       43.24361
2015    5       5       0.2179994       56.11527
2015    5       6       0.2573625       64.26948
2015    5       7       0.2178002       56.1266
2015    6       0       0.170672        46.04094
2015    6       1       0.1522532       41.88613
2015    6       2       0.1432398       39.69257
2015    6       3       0.14203         39.33853
2015    6       4       0.1551761       42.34412
2015    6       5       0.2159572       55.53493
2015    6       6       0.2654737       65.56033
2015    6       7       0.217768        56.03133
2015    7       0       0.1532183       42.08945
2015    7       1       0.1392156       38.84665
2015    7       2       0.1427644       39.65469
2015    7       3       0.136959        38.32316
2015    7       4       0.155617        42.54662
2015    7       5       0.2282359       58.09383
2015    7       6       0.3078624       73.85654
2015    7       7       0.2916015       70.80621
2015    8       0       0.2105355       54.5737
2015    8       1       0.1581261       43.15216
2015    8       2       0.1307701       36.87997
2015    8       3       0.135866        38.02946
2015    8       4       0.2199117       56.45213
2015    8       5       0.3798997       86.82133
2015    8       6       0.3743664       86.30071
2015    8       7       0.2359695       60.10845
2015    9       0       0.2014009       52.95011
2015    9       1       0.1842243       49.27617
2015    9       2       0.1731128       46.7696
2015    9       3       0.1484786       41.20236
2015    9       4       0.1997811       52.38654
2015    9       5       0.2903059       70.89082
2015    9       6       0.3266224       77.98934
2015    9       7       0.251425        63.55596
2015    10      0       0.1917151       50.97998
2015    10      1       0.242274        61.50149
2015    10      2       0.2131439       55.40248
2015    10      3       0.2029339       53.20203
2015    10      4       0.188206        49.89312
2015    10      5       0.3102175       74.64102
2015    10      6       0.3519738       82.56343
2015    10      7       0.2515522       63.33732
2015    11      0       0.2373646       60.42254
2015    11      1       0.2625942       65.33913
2015    11      2       0.248126        62.32296
2015    11      3       0.2138286       55.19768
2015    11      4       0.2234342       57.22363
2015    11      5       0.3168199       75.78317
2015    11      6       0.29193         71.23577
2015    11      7       0.2186589       56.69967
2015    12      0       0.1970054       52.13937
2015    12      1       0.1679373       45.64584
2015    12      2       0.1215117       34.93764
2015    12      3       0.081277        25.21151
2015    12      4       0.08638472      26.45135
2015    12      5       0.1159143       33.54251
2015    12      6       0.110762        32.41591
2015    12      7       0.06771229      21.9683
2015    13      0       0.06015704      20.0354
2015    13      1       0.05465864      18.48443
2015    13      2       0.05478927      18.35514
2015    13      3       0.05640105      18.77488
2015    13      4       0.09790928      29.19566
2015    13      5       0.1905932       50.12198
2015    13      6       0.2055254       53.24215
2015    13      7       0.1793212       47.34907
2015    14      0       0.2093292       53.68847
2015    14      1       0.2201924       56.22816
2015    14      2       0.1763531       46.78661
2015    14      3       0.1701732       45.5054
2015    14      4       0.2027045       52.55784
2015    14      5       0.2902243       70.11851
2015    14      6       0.3236609       76.61012
2015    14      7       0.2413471       60.79752
2015    15      0       0.1757141       46.85246
2015    15      1       0.1470553       40.19772
2015    15      2       0.1397891       38.23604
2015    15      3       0.1980305       50.99929
2015    15      4       0.2519907       62.38377
2015    15      5       0.2632846       64.94554
2015    15      6       0.2337962       59.38084
2015    15      7       0.2062632       53.75953
2015    16      0       0.1560019       42.79002
2015    16      1       0.1558533       42.5848
2015    16      2       0.1554761       42.38841
2015    16      3       0.1097978       32.06033
2015    16      4       0.09872724      29.58939
2015    16      5       0.1277043       36.57761
2015    16      6       0.1118778       32.87302
2015    16      7       0.08061375      25.12377
2015    17      0       0.09540071      28.6375
2015    17      1       0.1280694       36.46172
2015    17      2       0.10469         30.9722
2015    17      3       0.06124795      20.25243
2015    17      4       0.06090165      20.13848
2015    17      5       0.08482075      26.01053
2015    17      6       0.09714463      29.00526
2015    17      7       0.1100138       31.94554
2015    18      0       0.08720054      26.34879
2015    18      1       0.08022712      24.72235
2015    18      2       0.06443036      20.96652
2015    18      3       0.07051657      22.45217
2015    18      4       0.1347437       37.80884
2015    18      5       0.2405151       60.75749
2015    18      6       0.2514816       62.95924
2015    18      7       0.1622325       43.85247
2015    19      0       0.09516167      28.27598
2015    19      1       0.1046265       30.40595
2015    19      2       0.1487164       40.26815
2015    19      3       0.2336041       58.38144
2015    19      4       0.2877353       69.10978
2015    19      5       0.4208882       92.08548
2015    19      6       0.4660005       99.56798
2015    19      7       0.4087555       90.34253
2015    20      0       0.322983        75.62918
2015    20      1       0.2051662       52.51133
2015    20      2       0.1906348       49.60076
2015    20      3       0.3118543       73.8989
2015    20      4       0.4220548       92.66536
2015    20      5       0.3737854       84.21834
2015    20      6       0.5054093       105.977
2015    20      7       0.3736826       85.0024
2015    21      0       0.2356429       58.89236
2015    21      1       0.2039488       52.17452
2015    21      2       0.2402591       59.65881
2015    21      3       0.3577837       82.19726
2015    21      4       0.4792204       103.0142
2015    21      5       0.5242446       109.0327
2015    21      6       0.4577562       99.62029
2015    21      7       0.2424948       60.68741
2015    22      0       0.1510197       41.11171
2015    22      1       0.1506613       40.86277
2015    22      2       0.1755039       46.32209
2015    22      3       0.2480091       61.59386
2015    22      4       0.4537026       98.64114
2015    22      5       0.4959053       104.9708
2015    22      6       0.5871359       119.1008
2015    22      7       0.4675835       100.1071
2015    23      0       0.4573375       98.50728
2015    23      1       0.3881225       87.10009
2015    23      2       0.3293176       76.52852
2015    23      3       0.385759        86.9153
2015    23      4       0.5423212       111.9679
2015    23      5       0.5432262       111.2758
2015    23      6       0.4710828       101.7529
2015    23      7       0.1831764       48.43579
2015    24      0       0.1880543       49.01623
2015    24      1       0.167507        44.82556
2015    24      2       0.07544633      23.41634
2015    24      3       0.07186011      22.44612
2015    24      4       0.07359903      23.14604
2015    24      5       0.1273368       35.82453
2015    24      6       0.261005        64.06596
2015    24      7       0.2427783       60.12678
2015    25      0       0.1977915       50.69315
2015    25      1       0.235925        59.0521
2015    25      2       0.1485107       40.65652
2015    25      3       0.1060088       31.1045
2015    25      4       0.08468784      25.9273
2015    25      5       0.108575        31.59552
2015    25      6       0.1052076       30.89699
2015    25      7       0.1059853       30.98481
2015    26      0       0.091673        27.79932
2015    26      1       0.09965815      29.75953
2015    26      2       0.09458245      28.62652
2015    26      3       0.1039818       30.54701
2015    26      4       0.1435253       39.7318
2015    26      5       0.1997837       52.25665
2015    26      6       0.2377079       60.54629
2015    26      7       0.277673        69.04485
2015    27      0       0.2527527       64.06631
2015    27      1       0.2265749       58.69326
2015    27      2       0.2233289       57.92504
2015    27      3       0.2229644       57.70667
2015    27      4       0.2153668       56.13325
2015    27      5       0.2462496       62.86854
2015    27      6       0.2330818       60.32656
2015    27      7       0.1241704       36.10705
2015    28      0       0.06409467      21.32848
2015    28      1       0.06140619      20.62182
2015    28      2       0.07627124      24.33688
2015    28      3       0.09848716      29.81655
2015    28      4       0.1468243       41.28605
2015    28      5       0.2078521       54.9828
2015    28      6       0.2199076       57.60792
2015    28      7       0.1824142       49.43694
2015    29      0       0.1281558       37.09205
2015    29      1       0.09859991      29.92133
2015    29      2       0.08424403      26.26718
2015    29      3       0.05737671      19.32045
2015    29      4       0.107238        31.70605
2015    29      5       0.1726788       46.88223
2015    29      6       0.1398192       39.50657
2015    29      7       0.08676902      26.84024
2015    30      0       0.07707953      24.44044
2015    30      1       0.05746332      19.53228
2015    30      2       0.04669943      16.66391
2015    30      3       0.04292696      15.60712
2015    30      4       0.07025722      22.65812
2015    30      5       0.139239        39.29448
2015    30      6       0.1534748       42.70301
2015    30      7       0.1324983       37.75381
2015    31      0       0.169517        46.13271
2015    31      1       0.210896        55.2339
2015    31      2       0.2409625       61.6678
2015    31      3       0.2637563       66.56306
2015    31      4       0.2513768       64.16376
2015    31      5       0.2835101       70.71779
2015    31      6       0.3138953       76.85174
2015    31      7       0.2623534       66.77632
2016    1       0       0.03062523      12.40496
2016    1       1       0.02741649      11.51177
2016    1       2       0.02832258      11.7574
2016    1       3       0.02838824      11.70737
2016    1       4       0.03571385      13.72944
2016    1       5       0.0605435       20.35671
2016    1       6       0.06349126      21.16117
2016    1       7       0.04895985      17.2953
2016    2       0       0.05441276      18.69465
2016    2       1       0.05843396      19.71554
2016    2       2       0.05983469      20.03848
2016    2       3       0.05893596      19.7366
2016    2       4       0.07192425      23.01687
2016    2       5       0.09741663      29.26008
2016    2       6       0.09341915      28.23671
2016    2       7       0.06826094      21.80286
2016    3       0       0.06626406      21.12467
2016    3       1       0.07278015      22.62446
2016    3       2       0.0749792       23.2431
2016    3       3       0.07957426      24.4967
2016    3       4       0.08125657      25.06427
2016    3       5       0.1014943       30.09956
2016    3       6       0.1204852       34.44492
2016    3       7       0.1127231       32.53142
2016    4       0       0.1145399       32.8524
2016    4       1       0.1211568       34.3519
2016    4       2       0.1176932       33.4486
2016    4       3       0.09913972      29.07497
2016    4       4       0.09640783      28.69122
2016    4       5       0.129352        36.37849
2016    4       6       0.1321415       37.11812
2016    4       7       0.1174003       33.73595
2016    5       0       0.1277963       36.24544
2016    5       1       0.1168726       33.81551
2016    5       2       0.1117412       32.58262
2016    5       3       0.09528341      28.4126
2016    5       4       0.08977962      26.87065
2016    5       5       0.09450557      27.93237
2016    5       6       0.06622335      21.16448
2016    5       7       0.04407936      15.72285
2016    6       0       0.04474268      15.935
2016    6       1       0.05067452      17.39959
2016    6       2       0.05856188      19.35404
2016    6       3       0.06388026      20.71476
2016    6       4       0.07309053      23.08863
2016    6       5       0.09340209      28.07652
2016    6       6       0.07355067      23.25318
2016    6       7       0.07143536      22.65652
2016    7       0       0.07252202      22.75582
2016    7       1       0.07622915      23.54231
2016    7       2       0.07697022      23.71511
2016    7       3       0.06420575      20.72095
2016    7       4       0.0806169       24.76616
2016    7       5       0.1032002       30.15804
2016    7       6       0.1001235       29.65902
2016    7       7       0.09685326      29.00178
2016    8       0       0.05066952      17.59324
2016    8       1       0.0444757       15.98213
2016    8       2       0.04857199      16.95252
2016    8       3       0.06300097      20.5352
2016    8       4       0.06728642      21.62578
2016    8       5       0.09291598      27.92278
2016    8       6       0.09833138      29.17731
2016    8       7       0.09260467      27.85936
2016    9       0       0.09608409      28.60853
2016    9       1       0.1084047       31.6044
2016    9       2       0.1078582       31.52277
2016    9       3       0.07030087      22.38246
2016    9       4       0.08030551      24.8816
2016    9       5       0.09012286      27.20616
2016    9       6       0.1021075       29.78646
2016    9       7       0.1660337       44.25937
2016    10      0       0.1872602       49.46885
2016    10      1       0.1895975       49.86088
2016    10      2       0.1867914       49.34338
2016    10      3       0.1948353       51.00905
2016    10      4       0.1888285       49.71155
2016    10      5       0.143107        39.71068
2016    10      6       0.1670259       45.12381
2016    10      7       0.1689138       45.7433
2016    11      0       0.1496043       41.44079
2016    11      1       0.1220196       34.95475
2016    11      2       0.1111129       32.44424
2016    11      3       0.08839326      27.14827
2016    11      4       0.05052234      17.6097
2016    11      5       0.04623024      16.48245
2016    11      6       0.04552306      16.28631
2016    11      7       0.05208962      17.96182
2016    12      0       0.05649593      19.08884
2016    12      1       0.05830424      19.54578
2016    12      2       0.05082374      17.65614
2016    12      3       0.0467111       16.56695
2016    12      4       0.05820577      19.47728
2016    12      5       0.08563552      26.21031
2016    12      6       0.07940793      24.64978
2016    12      7       0.07177129      22.68765
2016    13      0       0.0718339       22.58003
2016    13      1       0.07652224      23.61765
2016    13      2       0.08499727      25.54687
2016    13      3       0.08977199      26.62247
2016    13      4       0.1117951       31.9399
2016    13      5       0.1504476       40.91692
2016    13      6       0.1491462       40.76442
2016    13      7       0.11897         34.00209
2016    14      0       0.09104147      27.5331
2016    14      1       0.07749907      24.24636
2016    14      2       0.06787498      21.73745
2016    14      3       0.06686994      21.1616
2016    14      4       0.09285265      27.26149
2016    14      5       0.1410398       38.12586
2016    14      6       0.09811158      29.0805
2016    14      7       0.09083633      27.40665
2016    15      0       0.09899003      29.40334
2016    15      1       0.09170537      27.61345
2016    15      2       0.08804276      26.76605
2016    15      3       0.08751988      26.64014
2016    15      4       0.09680875      28.69734
2016    15      5       0.1159607       32.93109
2016    15      6       0.1199002       33.89629
2016    15      7       0.1265675       35.19088
2016    16      0       0.1740185       45.88877
2016    16      1       0.2019418       52.19163
2016    16      2       0.1960802       51.03874
2016    16      3       0.1826855       48.29176
2016    16      4       0.1995389       51.89783
2016    16      5       0.168006        45.15482
2016    16      6       0.0810358       24.85645
2016    16      7       0.09827848      28.54885
2016    17      0       0.1137583       32.02939
2016    17      1       0.1066924       30.35001
2016    17      2       0.08247454      24.85549
2016    17      3       0.07207171      22.4618
2016    17      4       0.08639753      26.03629
2016    17      5       0.1142614       32.61405
2016    17      6       0.1223285       34.78057
2016    17      7       0.1184264       33.80964
2016    18      0       0.1149518       33.11905
2016    18      1       0.1193382       34.2692
2016    18      2       0.1231595       35.18995
2016    18      3       0.1249181       35.55391
2016    18      4       0.1356888       37.9584
2016    18      5       0.1577977       43.08849
2016    18      6       0.1809161       48.30304
2016    18      7       0.1888337       49.99054
2016    19      0       0.1633745       44.71096
2016    19      1       0.07287872      23.41191
2016    19      2       0.04517549      16.23988
2016    19      3       0.04266812      15.50797
2016    19      4       0.059734        19.98001
2016    19      5       0.09088865      27.68481
2016    19      6       0.08553096      26.35396
2016    19      7       0.06081508      20.04081
2016    20      0       0.06748295      21.47239
2016    20      1       0.08009169      24.56198
2016    20      2       0.07833873      24.11735
2016    20      3       0.07215875      22.64243
2016    20      4       0.07724052      23.8404
2016    20      5       0.09849486      29.04503
2016    20      6       0.1095923       31.61032
2016    20      7       0.10975         31.54847
2016    21      0       0.1012534       29.61643
2016    21      1       0.08570713      25.90095
2016    21      2       0.05926014      19.6696
2016    21      3       0.1497113       40.88855
2016    21      4       0.3678692       82.43005
2016    21      5       0.2896126       68.96574
2016    21      6       0.5158637       107.9761
2016    21      7       0.3014626       71.86214
2016    22      0       0.1009891       29.62934
2016    22      1       0.1542593       41.71115
2016    22      2       0.2278503       57.15988
2016    22      3       0.3594835       82.43813
2016    22      4       0.2390868       59.96169
2016    22      5       0.1640283       44.16899
2016    22      6       0.09073784      26.8622
2016    22      7       0.1277739       34.99556
2016    23      0       0.264057        63.32044
2016    23      1       0.2652111       64.4497
2016    23      2       0.1486222       40.61157
2016    23      3       0.1746608       46.00218
2016    23      4       0.6153926       122.1895
2016    23      5       0.5420974       111.7728
2016    23      6       0.3503408       80.40021
2016    23      7       0.3413367       78.19361
2016    24      0       0.2654374       64.17031
2016    24      1       0.2233351       55.88024
2016    24      2       0.2533231       61.92779
2016    24      3       0.2091768       53.31819
2016    24      4       0.1602885       43.13331
2016    24      5       0.1762039       46.6158
2016    24      6       0.06055607      20.00573
2016    24      7       0.03273773      12.81736
2016    25      0       0.03372345      13.03996
2016    25      1       0.04289277      15.4362
2016    25      2       0.05108845      17.54843
2016    25      3       0.06418713      20.93291
2016    25      4       0.09661022      28.886
2016    25      5       0.1302975       36.86985
2016    25      6       0.1441878       40.12104
2016    25      7       0.135756        38.23764
2016    26      0       0.1370058       38.44466
2016    26      1       0.1417344       39.3351
2016    26      2       0.1450049       39.96431
2016    26      3       0.1472591       40.42243
2016    26      4       0.1629747       43.91731
2016    26      5       0.2174556       55.80384
2016    26      6       0.2280607       58.0968
2016    26      7       0.1807482       47.93972
2016    27      0       0.1489823       40.67947
2016    27      1       0.1472206       40.1246
2016    27      2       0.1353959       37.32083
2016    27      3       0.1212937       33.99997
2016    27      4       0.1452738       39.64819
2016    27      5       0.1734873       45.98486
2016    27      6       0.1426799       39.42355
2016    27      7       0.1188873       33.81236
2016    28      0       0.1095555       31.76085
2016    28      1       0.10805         31.54044
2016    28      2       0.1023594       30.25715
2016    28      3       0.09088645      27.62558
2016    28      4       0.1105296       32.49561
2016    28      5       0.1435885       40.2508
2016    28      6       0.1543584       42.72769
2016    28      7       0.1122308       32.94579
2016    29      0       0.09027251      27.62495
2016    29      1       0.08350149      26.00867
2016    29      2       0.08405959      26.20187
2016    29      3       0.07595413      24.23733
2016    29      4       0.09458531      28.80808
2016    29      5       0.1157951       33.80369
2016    29      6       0.1260094       35.86255
2016    29      7       0.1060411       31.11061
2016    30      0       0.1037584       30.47149
2016    30      1       0.1050252       30.85421
2016    30      2       0.1028507       30.32293
2016    30      3       0.105633        31.00486
2016    30      4       0.1178854       33.84765
2016    30      5       0.1427532       39.37844
2016    30      6       0.1676817       44.92135
2016    30      7       0.1525636       41.52796
2016    31      0       0.1289533       35.99667
2016    31      1       0.1402842       38.45097
2016    31      2       0.1507341       40.86685
2016    31      3       0.1514973       41.15753
2016    31      4       0.185475        48.82606
2016    31      5       0.2725439       66.91567
2016    31      6       0.2222472       56.87438
2016    31      7       0.1530676       42.08542
2017    1       0       0.1201742       34.16933
2017    1       1       0.1133974       32.54094
2017    1       2       0.1059737       30.77987
2017    1       3       0.1085975       31.43755
2017    1       4       0.1742388       46.36061
2017    1       5       0.232706        58.81476
2017    1       6       0.1953536       51.17388
2017    1       7       0.1320117       37.07304
2017    2       0       0.1199898       34.09743
2017    2       1       0.2267444       57.72128
2017    2       2       0.2486665       62.16574
2017    2       3       0.2387682       60.18187
2017    2       4       0.2657493       65.82298
2017    2       5       0.3610583       84.03022
2017    2       6       0.3831529       88.19195
2017    2       7       0.3091328       74.76605
2017    3       0       0.2228705       57.46605
2017    3       1       0.1933384       51.11203
2017    3       2       0.2322822       59.59831
2017    3       3       0.3001094       73.5943
2017    3       4       0.2832775       70.11104
2017    3       5       0.24044         61.21657
2017    3       6       0.05169609      17.83227
2017    3       7       0.06906466      22.13289
2017    4       0       0.08938719      27.09707
2017    4       1       0.1838706       48.40521
2017    4       2       0.2294091       58.49458
2017    4       3       0.2301101       58.27923
2017    4       4       0.321368        76.72636
2017    4       5       0.3046041       74.34378
2017    4       6       0.2348078       60.65226
2017    4       7       0.2059396       54.65708
2017    5       0       0.1894652       50.9162
2017    5       1       0.1868262       50.26988
2017    5       2       0.1942887       52.03952
2017    5       3       0.2110591       55.88444
2017    5       4       0.2480258       63.82689
2017    5       5       0.2644839       67.27935
2017    5       6       0.249911        64.37321
2017    5       7       0.2048274       54.7957
2017    6       0       0.184085        50.17205
2017    6       1       0.1810779       49.39452
2017    6       2       0.1783174       48.6409
2017    6       3       0.1707945       46.96211
2017    6       4       0.2054905       54.74442
2017    6       5       0.2534449       64.91085
2017    6       6       0.2484624       63.95941
2017    6       7       0.2051793       54.79463
2017    7       0       0.1813756       49.47729
2017    7       1       0.1444259       40.9879
2017    7       2       0.1151671       33.86873
2017    7       3       0.1109352       32.86802
2017    7       4       0.1362769       39.00612
2017    7       5       0.2046338       54.49238
2017    7       6       0.2232831       58.57543
2017    7       7       0.1922115       51.85205
2017    8       0       0.183905        49.93631
2017    8       1       0.1786098       48.62359
2017    8       2       0.1546955       43.02881
2017    8       3       0.1484129       41.28908
2017    8       4       0.1852202       49.55468
2017    8       5       0.2896826       71.56567
2017    8       6       0.3660566       86.2012
2017    8       7       0.3175253       77.18239
2017    9       0       0.2260494       58.62231
2017    9       1       0.1704474       46.463
2017    9       2       0.1560361       43.17408
2017    9       3       0.1515205       42.05871
2017    9       4       0.1654743       45.18627
2017    9       5       0.2354122       60.25916
2017    9       6       0.2951242       72.17638
2017    9       7       0.2915026       71.56493
2017    10      0       0.2448532       62.32762
2017    10      1       0.277541        69.18426
2017    10      2       0.2220829       57.5632
2017    10      3       0.1955473       51.84776
2017    10      4       0.209172        54.6963
2017    10      5       0.2564115       64.59681
2017    10      6       0.3105868       75.29568
2017    10      7       0.2774105       68.98369
2017    11      0       0.2286411       59.02198
2017    11      1       0.1994262       52.72286
2017    11      2       0.1694468       45.95118
2017    11      3       0.1251282       35.67955
2017    11      4       0.1374001       38.58246
2017    11      5       0.1686853       45.59842
2017    11      6       0.1834274       48.83562
2017    11      7       0.175923        47.19405
2017    12      0       0.1959331       51.37577
2017    12      1       0.2130162       54.95765
2017    12      2       0.222186        56.94163
2017    12      3       0.2293262       58.3799
2017    12      4       0.2473877       62.02775
2017    12      5       0.2719597       66.90701
2017    12      6       0.2490861       62.27893
2017    12      7       0.1726968       46.18436
2017    13      0       0.08950701      27.11921
2017    13      1       0.05797221      19.28522
2017    13      2       0.04657334      16.43615
2017    13      3       0.102742        30.35829
2017    13      4       0.1123858       32.7096
2017    13      5       0.1033119       30.45519
2017    13      6       0.05895893      19.58009
2017    13      7       0.03614817      13.70286
2017    14      0       0.04545748      16.12686
2017    14      1       0.07601612      23.82064
2017    14      2       0.1087109       31.6026
2017    14      3       0.1104492       32.02006
2017    14      4       0.12227         34.77289
2017    14      5       0.1535437       41.90487
2017    14      6       0.150621        41.38525
2017    14      7       0.100124        29.72582
2017    15      0       0.08235924      25.38716
2017    15      1       0.08708395      26.51554
2017    15      2       0.07884184      24.50524
2017    15      3       0.0780249       24.23216
2017    15      4       0.1202178       34.39018
2017    15      5       0.169735        45.61106
2017    15      6       0.1839302       48.77164
2017    15      7       0.1377951       38.5879
2017    16      0       0.09396266      28.31124
2017    16      1       0.06313016      20.7017
2017    16      2       0.05589034      18.86806
2017    16      3       0.06372168      20.85287
2017    16      4       0.09089178      27.51079
2017    16      5       0.1345923       37.80147
2017    16      6       0.1520147       41.75039
2017    16      7       0.1192742       34.16673
2017    17      0       0.09575591      28.50124
2017    17      1       0.0881755       26.5663
2017    17      2       0.08981911      26.77643
2017    17      3       0.1146339       32.46948
2017    17      4       0.1425795       38.93723
2017    17      5       0.3493228       80.68102
2017    17      6       0.3822848       86.41649
2017    17      7       0.2499873       61.96551
2017    18      0       0.2110544       54.10966
2017    18      1       0.1939605       50.52023
2017    18      2       0.1854328       48.63608
2017    18      3       0.204814        52.63099
2017    18      4       0.3317931       77.2988
2017    18      5       0.4222596       93.21417
2017    18      6       0.537675        110.6485
2017    18      7       0.4538266       98.39579
2017    19      0       0.3854923       87.32817
2017    19      1       0.3399017       78.7614
2017    19      2       0.3461844       79.70562
2017    19      3       0.3594294       82.04572
2017    19      4       0.4593624       99.10205
2017    19      5       0.4991479       105.4598
2017    19      6       0.5228737       108.7771
2017    19      7       0.5372485       110.973
2017    20      0       0.4735686       101.1871
2017    20      1       0.3654947       83.51986
2017    20      2       0.2539786       62.89739
2017    20      3       0.2165387       54.88036
2017    20      4       0.1586574       43.11151
2017    20      5       0.1154247       33.46193
2017    20      6       0.1051111       31.04062
2017    20      7       0.1084326       31.71494
2017    21      0       0.1296411       36.48589
2017    21      1       0.1246532       35.43466
2017    21      2       0.13379         37.73767
2017    21      3       0.1424004       39.78814
2017    21      4       0.15796         43.0525
2017    21      5       0.1907634       50.25998
2017    21      6       0.1886685       49.92614
2017    21      7       0.1431393       39.74146
2017    22      0       0.1232441       34.8981
2017    22      1       0.09496195      28.13085
2017    22      2       0.06135619      19.91944
2017    22      3       0.04974784      17.25954
2017    22      4       0.0776294       24.39039
2017    22      5       0.1017598       30.27721
2017    22      6       0.1042251       30.85643
2017    22      7       0.07907855      24.54633
2017    23      0       0.07167829      22.55051
2017    23      1       0.06657972      21.24166
2017    23      2       0.1540793       41.58963
2017    23      3       0.1122711       32.44874
2017    23      4       0.04201759      15.25033
2017    23      5       0.08710195      26.3504
2017    23      6       0.08008701      24.67678
2017    23      7       0.05648066      18.91654
2017    24      0       0.05841634      19.47785
2017    24      1       0.04944601      17.23384
2017    24      2       0.05496193      18.65452
2017    24      3       0.09012067      27.4503
2017    24      4       0.1070972       31.44146
2017    24      5       0.1141041       32.99556
2017    24      6       0.1002754       29.63089
2017    24      7       0.07038786      22.22239
2017    25      0       0.06514049      20.97017
2017    25      1       0.06270782      20.35972
2017    25      2       0.07104856      22.415
2017    25      3       0.09034272      27.06397
2017    25      4       0.1395975       38.53353
2017    25      5       0.1518733       41.19069
2017    25      6       0.1556728       42.12282
2017    25      7       0.1206956       34.54381
2017    26      0       0.1231358       35.22795
2017    26      1       0.1234476       35.33996
2017    26      2       0.1269962       36.10108
2017    26      3       0.1152802       33.35075
2017    26      4       0.1067973       31.31353
2017    26      5       0.1166363       33.54281
2017    26      6       0.08695457      26.50601
2017    26      7       0.08353826      25.312
2017    27      0       0.1203035       33.56632
2017    27      1       0.1168067       33.06525
2017    27      2       0.1322319       36.46478
2017    27      3       0.1475075       39.54439
2017    27      4       0.1331432       36.86494
2017    27      5       0.1576434       42.66039
2017    27      6       0.1845065       48.30266
2017    27      7       0.1658447       44.15472
2017    28      0       0.1358506       37.71492
2017    28      1       0.08590342      26.27542
2017    28      2       0.07450663      23.48813
2017    28      3       0.06555693      21.31363
2017    28      4       0.07405214      23.52735
2017    28      5       0.1036104       30.75898
2017    28      6       0.1160916       33.77698
2017    28      7       0.09706897      29.29635
2017    29      0       0.09999454      29.93685
2017    29      1       0.08592563      26.54875
2017    29      2       0.07785749      24.56336
2017    29      3       0.07760645      24.46804
2017    29      4       0.1224072       35.34698
2017    29      5       0.201935        53.11536
2017    29      6       0.2524205       63.46409
2017    29      7       0.2445247       61.9661
2017    30      0       0.1995421       52.57695
2017    30      1       0.1622983       44.22329
2017    30      2       0.123798        35.02581
2017    30      3       0.1402581       38.34609
2017    30      4       0.1806982       47.80289
2017    30      5       0.2789445       68.12462
2017    30      6       0.3195821       76.06076
2017    30      7       0.2984323       72.10189
2017    31      0       0.216899        55.54393
2017    31      1       0.2201311       55.54287
2017    31      2       0.3010877       71.87521
2017    31      3       0.2646004       65.37618
2017    31      4       0.2875531       70.15856
2017    31      5       0.3275525       77.8817
2017    31      6       0.2939082       71.67547
2017    31      7       0.2616421       65.33976
2018    1       0       0.5381874       113.9181
2018    1       1       0.5240999       111.5172
2018    1       2       0.4934787       106.9355
2018    1       3       0.3146888       75.87267
2018    1       4       0.238442        60.81556
2018    1       5       0.1640572       44.54304
2018    1       6       0.1638122       44.22061
2018    1       7       0.1939634       51.10112
2018    2       0       0.2578942       64.10213
2018    2       1       0.2442505       61.9155
2018    2       2       0.1601851       43.75693
2018    2       3       0.1513371       41.81595
2018    2       4       0.2007692       52.47017
2018    2       5       0.2354394       59.84505
2018    2       6       0.2221845       57.05055
2018    2       7       0.207325        54.02191
2018    3       0       0.2110385       54.88789
2018    3       1       0.187969        49.98025
2018    3       2       0.1903694       50.41787
2018    3       3       0.1571402       43.08972
2018    3       4       0.2477325       63.2692
2018    3       5       0.5883048       122.6224
2018    3       6       0.6343558       129.0998
2018    3       7       0.6201356       126.2908
2018    4       0       0.2258434       57.52922
2018    4       1       0.168811        45.70376
2018    4       2       0.2867805       70.27845
2018    4       3       0.253405        63.80938
2018    4       4       0.1175418       33.37514
2018    4       5       0.1859584       48.90353
2018    4       6       0.1705565       45.9162
2018    4       7       0.1989827       52.23751
2018    5       0       0.2493669       63.11758
2018    5       1       0.2864093       70.85599
2018    5       2       0.3864405       89.74054
2018    5       3       0.396805        91.34127
2018    5       4       0.3305958       79.15303
2018    5       5       0.5353781       114.4697
2018    5       6       0.5314886       114.4008
2018    5       7       0.371625        86.9681
2018    6       0       0.4018113       92.40574
2018    6       1       0.4346496       98.07116
2018    6       2       0.3765753       87.89504
2018    6       3       0.3359966       80.34189
2018    6       4       0.5758562       120.7388
2018    6       5       0.6579475       132.0492
2018    6       6       0.4731289       103.8837
2018    6       7       0.4513405       100.6529
2018    7       0       0.3352849       80.07277
2018    7       1       0.2271253       58.36518
2018    7       2       0.3227695       77.20072
2018    7       3       0.4532469       100.6595
2018    7       4       0.4376247       98.04777
2018    7       5       0.5818641       121.1897
2018    7       6       0.5550162       117.4658
2018    7       7       0.3006353       73.71456
2018    8       0       0.1742045       47.5645
2018    8       1       0.1276687       36.79706
2018    8       2       0.05681742      19.28576
2018    8       3       0.04120005      15.11749
2018    8       4       0.04381534      15.71475
2018    8       5       0.09504726      28.61938
2018    8       6       0.1099562       32.03904
2018    8       7       0.09531844      28.21952
2018    9       0       0.08539035      25.99532
2018    9       1       0.08951124      27.25641
2018    9       2       0.1439042       40.62289
2018    9       3       0.1722899       47.26353
2018    9       4       0.1653138       45.58509
2018    9       5       0.2860799       71.29991
2018    9       6       0.3105967       75.9839
2018    9       7       0.2302045       59.70246
2018    10      0       0.2280382       58.96464
2018    10      1       0.2425473       61.53383
2018    10      2       0.2038188       53.47744
2018    10      3       0.1780929       47.51498
2018    10      4       0.1636384       44.76497
2018    10      5       0.1033141       30.98465
2018    10      6       0.07092036      22.52136
2018    10      7       0.05969399      19.5765
2018    11      0       0.08944196      26.93943
2018    11      1       0.1059293       30.99728
2018    11      2       0.1364795       38.21826
2018    11      3       0.1687304       45.85304
2018    11      4       0.2024375       53.0396
2018    11      5       0.2686201       66.64353
2018    11      6       0.2213748       57.13494
2018    11      7       0.1576794       43.23617
2018    12      0       0.1484635       40.93603
2018    12      1       0.1700987       45.47362
2018    12      2       0.1633002       44.02347
2018    12      3       0.1971356       50.9913
2018    12      4       0.2070309       53.44802
2018    12      5       0.2332759       59.24733
2018    12      6       0.2448831       61.90596
2018    12      7       0.2118292       55.39746
2018    13      0       0.2076198       54.6191
2018    13      1       0.2012418       53.22216
2018    13      2       0.2157251       56.05773
2018    13      3       0.2140767       55.65483
2018    13      4       0.3769785       86.34835
2018    13      5       0.2880336       70.85848
2018    13      6       0.2077477       54.52853
2018    13      7       0.1039374       30.85266
2018    14      0       0.1331416       37.80504
2018    14      1       0.1195677       34.75136
2018    14      2       0.1575368       43.26107
2018    14      3       0.1385147       39.39285
2018    14      4       0.1195752       34.88651
2018    14      5       0.1298425       37.2874
2018    14      6       0.0960056       28.92108
2018    14      7       0.06903622      22.27753
2018    15      0       0.05862527      19.54263
2018    15      1       0.07661871      24.20808
2018    15      2       0.150308        42.24335
2018    15      3       0.2853859       71.44009
2018    15      4       0.4185192       95.97449
2018    15      5       0.6248292       128.0374
2018    15      6       0.4571064       101.4086
2018    15      7       0.2848946       70.16275
2018    16      0       0.2021143       53.158
2018    16      1       0.1106022       32.39607
2018    16      2       0.1062938       31.30157
2018    16      3       0.2108869       54.26973
2018    16      4       0.2324182       58.74228
2018    16      5       0.2017899       52.58832
2018    16      6       0.09193057      27.49704
2018    16      7       0.05084562      17.21002
2018    17      0       0.05469935      18.18009
2018    17      1       0.05673457      18.74012
2018    17      2       0.1129613       32.075
2018    17      3       0.1606816       43.41678
2018    17      4       0.256946        64.11854
2018    17      5       0.3520234       82.57411
2018    17      6       0.4046466       91.88574
2018    17      7       0.2053571       53.55726
2018    18      0       0.1088034       31.84992
2018    18      1       0.1267888       36.23867
2018    18      2       0.1597025       43.64299
2018    18      3       0.05849734      19.28765
2018    18      4       0.05872624      19.77661
2018    18      5       0.06124886      20.40295
2018    18      6       0.08101136      25.27453
2018    18      7       0.07883388      24.77291
2018    19      0       0.0581597       19.43461
2018    19      1       0.06495309      20.91166
2018    19      2       0.06571755      21.22057
2018    19      3       0.07275173      23.1232
2018    19      4       0.0777458       24.17701
2018    19      5       0.1576868       43.12255
2018    19      6       0.1223726       35.33015
2018    19      7       0.04604774      16.36152
2018    20      0       0.03834684      14.28019
2018    20      1       0.03878399      14.37795
2018    20      2       0.04572378      16.14224
2018    20      3       0.06073173      19.8565
2018    20      4       0.08921497      26.6859
2018    20      5       0.07231343      22.90241
2018    20      6       0.06989428      22.37015
2018    20      7       0.07925977      24.70086
2018    21      0       0.02315271      10.25211
2018    21      1       0.02688319      11.24783
2018    21      2       0.03002901      12.05956
2018    21      3       0.02819684      11.55902
2018    21      4       0.02853544      11.64992
2018    21      5       0.03864902      14.32543
2018    21      6       0.03157773      12.44973
2018    21      7       0.02680107      11.19855
2018    22      0       0.0283853       11.61767
2018    22      1       0.03501876      13.34661
2018    22      2       0.03262842      12.75913
2018    22      3       0.03720986      13.88606
2018    22      4       0.04754342      16.42651
2018    22      5       0.05128677      17.40199
2018    22      6       0.05425031      18.09901
2018    22      7       0.05927687      19.3699
2018    23      0       0.05953283      19.38303
2018    23      1       0.06771021      21.3122
2018    23      2       0.1016916       29.47955
2018    23      3       0.1378448       38.38209
2018    23      4       0.1713198       46.25566
2018    23      5       0.1720541       46.41077
2018    23      6       0.1830273       48.74126
2018    23      7       0.1687756       45.92926
2018    24      0       0.1478433       41.26768
2018    24      1       0.1659894       45.45726
2018    24      2       0.1568387       43.68537
2018    24      3       0.1723737       47.34075
2018    24      4       0.2308119       60.41002
2018    24      5       0.2205689       58.03656
2018    24      6       0.2013718       53.63951
2018    24      7       0.1969184       52.63694
2018    25      0       0.2214353       58.12281
2018    25      1       0.1967628       52.80285
2018    25      2       0.2351777       60.75117
2018    25      3       0.1670182       45.87644
2018    25      4       0.1267503       36.24678
2018    25      5       0.1477698       41.18933
2018    25      6       0.1799843       48.52066
2018    25      7       0.1529101       42.37002
2018    26      0       0.1584759       43.77366
2018    26      1       0.1778277       48.02541
2018    26      2       0.1941969       51.58311
2018    26      3       0.1895097       50.77076
2018    26      4       0.1083535       32.28339
2018    26      5       0.07246381      23.35539
2018    26      6       0.05575227      18.95856
2018    26      7       0.07415124      23.62298
2018    27      0       0.09467833      28.79671
2018    27      1       0.08039184      25.17968
2018    27      2       0.08522306      26.38541
2018    27      3       0.08900036      27.30299
2018    27      4       0.1111649       32.83841
2018    27      5       0.1611912       44.45712
2018    27      6       0.2132601       56.02052
2018    27      7       0.1899485       51.07685
2018    28      0       0.1765619       47.94725
2018    28      1       0.179354        48.34635
2018    28      2       0.1687557       45.67157
2018    28      3       0.1910922       50.38264
2018    28      4       0.2788025       68.46782
2018    28      5       0.3775861       86.5934
2018    28      6       0.3512703       82.07963
2018    28      7       0.365833        84.16193
2018    29      0       0.3616127       83.42997
2018    29      1       0.3436045       80.59651
2018    29      2       0.3261282       77.75814
2018    29      3       0.3510868       82.44586
2018    29      4       0.4432459       98.35174
2018    29      5       0.5272827       111.7991
2018    29      6       0.456106        101.1469
2018    29      7       0.3665737       85.73869
2018    30      0       0.4137865       93.83725
2018    30      1       0.3364304       79.9295
2018    30      2       0.1065989       31.51439
2018    30      3       0.08089763      24.86605
2018    30      4       0.1127707       32.81735
2018    30      5       0.1392927       39.12018
2018    30      6       0.1346653       37.95976
2018    30      7       0.09163331      27.69176
2018    31      0       0.1383461       38.78029
2018    31      1       0.2067675       54.24969
2018    31      2       0.255864        64.61519
2018    31      3       0.2491144       62.96651
2018    31      4       0.2465487       62.49171
2018    31      5       0.2824687       69.85867
2018    31      6       0.3090447       75.075
2018    31      7       0.30244         73.7284
