####################################################################################################
# Month: 02Feb                                                                                     #
# Station: KILI                                                                                    #
# Frequency: 345 GHz                                                                               #
# Columns are: year    day     tau     Tb (K)                                                      #
####################################################################################################
2009    1       0.87106186      153.186875
2009    2       0.9943435       167.498375
2009    3       0.65931889      127.0780825
2009    4       0.31739792      74.2079525
2009    5       0.1732738       46.12025875
2009    6       0.75022929      137.4498925
2009    7       1.04022145      171.6235625
2009    8       0.92388319      161.488425
2009    9       0.73226456      139.9888125
2009    10      0.89534451      157.892125
2009    11      0.35694194      80.26641375
2009    12      0.4795023       101.43502875
2009    13      0.18907461      50.65999375
2009    14      0.12302352      36.20930625
2009    15      0.17717626      47.77007625
2009    16      1.05586548      168.4285
2009    17      1.21283262      186.615575
2009    18      0.76670062      141.855575
2009    19      0.24644314      60.31011875
2009    20      0.14241609      39.70763
2009    21      0.19588375      51.37239375
2009    22      0.27581672      66.905555
2009    23      0.63776091      121.64253125
2009    24      0.53249998      111.64945875
2009    25      0.34729875      80.984465
2009    26      0.27478845      68.07049375
2009    27      0.26931604      66.50269875
2009    28      0.28426506      69.9329425
2010    1       0.38342954      89.0438675
2010    2       0.30541682      74.24770375
2010    3       0.27045162      67.11509875
2010    4       0.75849509      130.8895675
2010    5       1.43378812      201.7264
2010    6       1.40817612      199.984325
2010    7       1.29720419      191.7798375
2010    8       0.45975214      98.81182625
2010    9       0.14477394      41.26470125
2010    10      0.26979889      66.810085
2010    11      0.36507332      86.4835375
2010    12      0.42165474      96.6680875
2010    13      0.35463338      84.416625
2010    14      0.3613248       84.268305
2010    15      0.37115021      86.36679375
2010    16      0.4397779       96.23589875
2010    17      1.17769535      182.4459
2010    18      1.38953162      199.687475
2010    19      0.94247245      161.7221125
2010    20      1.330159        194.67075
2010    21      1.32063025      194.712425
2010    22      1.39662675      200.23225
2010    23      1.00335881      168.5601125
2010    24      0.58099005      120.2986375
2010    25      0.42608692      94.99768875
2010    26      0.47105776      100.06370875
2010    27      0.95977198      163.0704
2010    28      0.8042149       147.7886375
2011    1       0.36155115      83.2049875
2011    2       0.33946144      77.4041
2011    3       0.30327693      72.79879125
2011    4       0.11958216      35.3643375
2011    5       0.14597534      41.39891875
2011    6       0.13125454      38.126545
2011    7       0.12052957      35.435175
2011    8       0.19113544      50.41635375
2011    9       0.23163958      58.142255
2011    10      0.18214768      47.6674875
2011    11      0.23300555      58.1733175
2011    12      0.38415582      87.45149625
2011    13      0.77049395      136.8332675
2011    14      1.06511086      173.552225
2011    15      1.18580163      183.4536375
2011    16      1.12573705      178.670925
2011    17      0.91831595      159.81545
2011    18      0.9161829       158.274025
2011    19      0.58640122      118.00759625
2011    20      0.26766636      65.55423625
2011    21      0.1993816       52.26031125
2011    22      0.20274449      52.999605
2011    23      0.14542751      40.93077
2011    24      0.12550654      36.4351225
2011    25      0.12480288      36.240485
2011    26      0.15084038      42.22092375
2011    27      0.19767549      52.02817625
2011    28      0.19784628      52.5164
2012    1       0.13556016      39.028975
2012    2       0.20936761      54.15664875
2012    3       0.16091968      44.78117
2012    4       0.08315846      26.81434875
2012    5       0.0973892       29.950515
2012    6       0.18683934      49.90035
2012    7       0.13868974      39.71106375
2012    8       0.17644076      47.29629875
2012    9       0.15321458      42.06453
2012    10      0.22509495      57.06698
2012    11      0.53947506      111.40711375
2012    12      0.79222074      145.3519
2012    13      0.63803274      126.7641175
2012    14      0.18025964      48.07573875
2012    15      0.26751333      65.66732875
2012    16      0.53279446      110.37348625
2012    17      0.59381047      117.04357875
2012    18      0.5419387       110.65803875
2012    19      0.48318074      102.1074175
2012    20      0.39590851      87.47766
2012    21      0.22147192      56.8427275
2012    22      0.39163745      88.8395
2012    23      0.33192686      76.14603
2012    24      0.16758737      45.5578775
2012    25      0.28437221      68.8927375
2012    26      0.89049348      151.6367475
2012    27      1.09004605      175.2800875
2012    28      0.8446315       146.97590375
2012    29      0.69025385      132.26517
2013    1       1.01906689      169.6307125
2013    2       0.66362508      124.49867375
2013    3       0.21567927      54.39764125
2013    4       0.1459957       40.80801875
2013    5       0.22298668      57.07772875
2013    6       0.34365475      79.89010375
2013    7       0.20393688      53.53259
2013    8       0.16294185      45.11937625
2013    9       0.26160722      64.60108375
2013    10      0.18118764      48.996985
2013    11      0.35112272      79.5293475
2013    12      0.4107148       92.32646125
2013    13      0.38157406      85.06250375
2013    14      0.35537613      80.50799625
2013    15      0.33790426      77.18377375
2013    16      0.52716308      101.2542025
2013    17      0.54585274      111.73603
2013    18      0.20263471      52.818
2013    19      0.11621247      34.507645
2013    20      0.3146175       71.1042575
2013    21      0.65129412      127.8886125
2013    22      0.67034538      124.16402625
2013    23      0.14574866      41.035385
2013    24      0.18309989      49.7288525
2013    25      0.1669129       46.0730425
2013    26      0.1429102       40.16882375
2013    27      0.32634992      75.36395875
2013    28      0.45035039      94.83685625
2014    1       0.27217506      66.86747625
2014    2       0.29193879      71.29973625
2014    3       0.57302716      114.629065
2014    4       0.66030175      128.3723975
2014    5       0.6936542       134.5778875
2014    6       0.8403666       148.998975
2014    7       1.14864426      180.0097875
2014    8       0.9193501       154.6124125
2014    9       0.96185396      161.720275
2014    10      1.12381901      177.1937
2014    11      0.884993        155.5277875
2014    12      0.91633792      159.1278875
2014    13      0.76873371      143.226525
2014    14      0.95563365      162.0624
2014    15      1.10973167      173.0838875
2014    16      1.24196856      187.8093875
2014    17      1.02636525      170.887075
2014    18      1.0693789       174.09885
2014    19      0.86224524      153.9120625
2014    20      1.17690763      181.53335
2014    21      1.17247306      182.1107875
2014    22      0.61807728      123.08730125
2014    23      0.35985368      84.02332625
2014    24      0.3626781       84.473095
2014    25      0.31946149      75.3364075
2014    26      0.1390607       39.263095
2014    27      0.12282616      36.323645
2014    28      0.11574852      34.70692375
2015    1       0.38162931      87.52296875
2015    2       0.23512198      60.38205875
2015    3       0.22108184      57.71474625
2015    4       0.16638368      46.24942375
2015    5       0.11646425      34.75454875
2015    6       0.19465461      50.6131125
2015    7       0.11790961      34.02694125
2015    8       0.15832578      42.7546975
2015    9       0.17731481      46.90076125
2015    10      0.16312908      44.60712375
2015    11      0.13047529      37.75684625
2015    12      0.24797622      61.043645
2015    13      0.28405326      68.97252
2015    14      0.32631978      74.9210175
2015    15      1.07008586      173.42075
2015    16      1.10261646      176.6565875
2015    17      0.94983576      162.5352625
2015    18      0.8199934       149.4134375
2015    19      0.21849391      56.29781
2015    20      0.1690959       45.9105375
2015    21      0.22698204      58.36450875
2015    22      0.1238795       36.145445
2015    23      0.12980046      37.079215
2015    24      0.21270209      53.66001125
2015    25      0.13013988      36.7049925
2015    26      0.0933753       29.17619875
2015    27      0.09026549      28.329985
2015    28      0.11342057      33.280085
2016    1       0.43780131      94.968295
2016    2       0.28348398      67.9086075
2016    3       0.45274954      99.41748875
2016    4       0.4870727       104.364965
2016    5       0.48647858      105.33929625
2016    6       0.63388309      127.099975
2016    7       0.82771495      150.3708
2016    8       1.11184846      178.5213875
2016    9       1.324983        194.194125
2016    10      1.05090924      174.0118
2016    11      1.39914288      199.970475
2016    12      1.06747284      175.9327625
2016    13      0.54998641      115.2822025
2016    14      0.3288512       78.24836875
2016    15      0.22004661      57.3345525
2016    16      0.1319406       38.0102
2016    17      0.17638105      48.02519125
2016    18      0.64832094      124.70923125
2016    19      1.14634826      181.45055
2016    20      0.83043806      151.7647625
2016    21      0.62961795      127.2354375
2016    22      0.27617214      68.755755
2016    23      0.32126653      77.60793125
2016    24      0.51094615      110.44235125
2016    25      0.44161422      98.96078375
2016    26      0.65295656      125.2334275
2016    27      1.0210053       170.90535
2016    28      0.55919446      116.644
2016    29      0.3497091       81.96043375
2017    1       0.68459418      132.8181125
2017    2       0.48769056      105.3448825
2017    3       0.39237141      90.481815
2017    4       0.32555539      77.8365825
2017    5       0.15082755      41.49797875
2017    6       0.18398665      49.079205
2017    7       0.27795279      69.00696125
2017    8       0.18097725      49.531285
2017    9       0.2862311       70.90215125
2017    10      0.38980031      88.88092625
2017    11      0.18937306      50.47965
2017    12      0.20378931      54.07125375
2017    13      0.33375434      80.154175
2017    14      0.20881786      54.887595
2017    15      0.16050708      43.4992225
2017    16      0.15806254      43.2014275
2017    17      0.33632152      77.257095
2017    18      0.37369484      85.4000125
2017    19      0.44579092      97.81301125
2017    20      0.47425311      101.93835
2017    21      0.58083735      119.08976875
2017    22      1.09601498      175.786625
2017    23      1.21813639      186.111375
2017    24      0.73667711      137.321925
2017    25      0.18349239      49.68666375
2017    26      0.18194911      48.8941275
2017    27      0.40972986      90.88171625
2017    28      0.51421969      109.4585375
2018    1       0.44656673      99.935875
2018    2       0.28063089      70.02844
2018    3       0.15111885      42.6085225
2018    4       0.15211135      43.12583375
2018    5       0.16856016      46.697285
2018    6       0.42487462      96.336625
2018    7       0.64551067      128.4744375
2018    8       0.90096804      159.2423125
2018    9       0.94423676      162.9306
2018    10      0.6655736       129.9520375
2018    11      0.54110301      113.3576
2018    12      0.35378238      82.08870125
2018    13      0.28088771      68.82841125
2018    14      0.2685535       66.89490625
2018    15      0.28884811      70.04761375
2018    16      0.29638609      71.7152175
2018    17      0.32365111      76.34717625
2018    18      0.27721794      68.397045
2018    19      0.29573991      70.07602375
2018    20      0.27745891      68.325995
2018    21      0.51440094      105.98863625
2018    22      0.3432665       80.7879225
2018    23      0.17244685      47.20721875
2018    24      0.13802968      39.48784
2018    25      0.16857068      45.36250375
2018    26      0.37626898      86.33910125
2018    27      0.27522061      68.19431875
2018    28      0.53597166      108.26791375
