####################################################################################################
# Month: 09Sep                                                                                     #
# Station: RPU                                                                                     #
# Frequency: 345 GHz                                                                               #
# Columns are: year    day     segment         tau     Tb (K)                                      #
####################################################################################################
2009    1       0       1.324476        197.5939
2009    1       1       1.523284        209.667
2009    1       2       1.655296        216.7654
2009    1       3       1.506081        208.7513
2009    1       4       0.9025195       160.2807
2009    1       5       0.7528375       143.3013
2009    1       6       0.3083033       74.87527
2009    1       7       0.195085        52.01854
2009    2       0       0.4560085       100.9601
2009    2       1       0.7924339       148.1485
2009    2       2       0.171255        46.46247
2009    2       3       0.1245821       35.92397
2009    2       4       0.1342068       38.20382
2009    2       5       0.1422294       39.96889
2009    2       6       0.1768195       47.63257
2009    2       7       0.2489231       62.71343
2009    3       0       0.4565858       100.729
2009    3       1       0.8148211       149.571
2009    3       2       0.8918241       157.2504
2009    3       3       0.5409201       112.6991
2009    3       4       0.4682985       101.0165
2009    3       5       0.4816719       102.6887
2009    3       6       0.3265648       76.64472
2009    3       7       0.3227299       76.1887
2009    4       0       0.4727371       101.9378
2009    4       1       0.54786         113.4464
2009    4       2       0.1808351       48.24965
2009    4       3       0.1481793       40.90957
2009    4       4       0.1838967       48.71215
2009    4       5       0.2347559       59.3437
2009    4       6       0.2606373       64.70901
2009    4       7       0.2927921       71.4649
2009    5       0       0.3835682       88.16472
2009    5       1       0.3167786       76.21207
2009    5       2       0.2331029       59.63597
2009    5       3       0.2344607       59.67162
2009    5       4       0.3144407       76.18492
2009    5       5       0.3106007       75.77567
2009    5       6       0.7372958       142.4149
2009    5       7       0.5048388       109.9568
2009    6       0       0.383368        89.97683
2009    6       1       0.3343749       81.07424
2009    6       2       0.2123459       56.59335
2009    6       3       0.2311971       60.01653
2009    6       4       0.3299808       79.37069
2009    6       5       0.359543        84.86438
2009    6       6       0.334017        79.97148
2009    6       7       0.2595271       65.48502
2009    7       0       0.2297338       59.63783
2009    7       1       0.2302129       59.97111
2009    7       2       0.2510593       64.57224
2009    7       3       0.2690366       68.29098
2009    7       4       0.2557169       65.58542
2009    7       5       0.2401362       62.3071
2009    7       6       0.2512834       64.47254
2009    7       7       0.2551986       65.28539
2009    8       0       0.2326586       60.78035
2009    8       1       0.2061498       55.29243
2009    8       2       0.2025557       54.19805
2009    8       3       0.1858653       50.05384
2009    8       4       0.1830133       48.9602
2009    8       5       0.2014485       52.43286
2009    8       6       0.1468462       41.01757
2009    8       7       0.1210802       35.37528
2009    9       0       0.1214962       35.6496
2009    9       1       0.1199122       35.39394
2009    9       2       0.1137641       34.01307
2009    9       3       0.1092579       32.90764
2009    9       4       0.1122755       33.66956
2009    9       5       0.1189195       35.32939
2009    9       6       0.1321629       38.48176
2009    9       7       0.1590702       44.69422
2009    10      0       0.1749972       48.27916
2009    10      1       0.1861394       50.70811
2009    10      2       0.3382284       79.23189
2009    10      3       0.907681        157.6538
2009    10      4       0.9050949       157.2955
2009    10      5       0.876508        153.3359
2009    10      6       0.8164992       147.4425
2009    10      7       1.222937        187.3935
2009    11      0       1.745429        220.1041
2009    11      1       1.688868        218.3105
2009    11      2       1.917919        230.2116
2009    11      3       2.455383        246.3911
2009    11      4       1.959969        231.3288
2009    11      5       1.210097        188.8957
2009    11      6       1.119647        178.6684
2009    11      7       1.538872        209.7933
2009    12      0       2.059784        234.4603
2009    12      1       2.538156        247.5892
2009    12      2       2.552828        247.9402
2009    12      3       2.241589        240.3779
2009    12      4       2.230308        239.8151
2009    12      5       2.199109        239.837
2009    12      6       1.783594        225.5476
2009    12      7       1.241402        194.2603
2009    13      0       0.7535796       146.2402
2009    13      1       0.7353473       144.0092
2009    13      2       0.5493046       117.3734
2009    13      3       0.5154951       112.4758
2009    13      4       0.5900335       124.2779
2009    13      5       0.6747802       136.452
2009    13      6       0.7250306       143.0831
2009    13      7       0.7458445       145.4726
2009    14      0       0.8216955       154.7601
2009    14      1       0.8116132       153.9213
2009    14      2       0.7388683       145.3706
2009    14      3       0.7613897       148.2994
2009    14      4       0.7194378       142.7635
2009    14      5       0.5080619       111.3741
2009    14      6       0.4003238       92.55112
2009    14      7       0.6449626       131.5378
2009    15      0       0.9182486       164.2007
2009    15      1       0.8982043       162.2782
2009    15      2       1.000068        173.0278
2009    15      3       1.265664        196.1238
2009    15      4       1.246777        194.8248
2009    15      5       1.131458        185.7477
2009    15      6       1.041841        177.5023
2009    15      7       0.9032618       162.9134
2009    16      0       0.8662461       158.6179
2009    16      1       1.219349        191.7433
2009    16      2       2.214607        240.8358
2009    16      3       1.738108        222.7754
2009    16      4       1.986321        232.4846
2009    16      5       1.86866         227.711
2009    16      6       1.586051        214.5536
2009    16      7       1.411732        204.236
2009    17      0       1.322235        198.3022
2009    17      1       1.831639        226.5369
2009    17      2       1.653636        218.1744
2009    17      3       1.016822        174.1986
2009    17      4       0.8029964       151.5958
2009    17      5       0.3489576       83.08034
2009    17      6       0.3582853       84.12208
2009    17      7       0.4682437       102.1717
2009    18      0       0.8854624       157.265
2009    18      1       0.777263        144.468
2009    18      2       2.205044        241.6214
2009    18      3       2.798923        254.641
2009    18      4       2.320554        244.0322
2009    18      5       1.903359        230.3553
2009    18      6       2.093424        237.2598
2009    18      7       2.41232         244.4158
2009    19      0       2.148371        235.4526
2009    19      1       1.38091         199.4579
2009    19      2       0.4577211       102.3748
2009    19      3       0.178862        49.34182
2009    19      4       0.1003147       31.24623
2009    19      5       0.08045707      26.23706
2009    19      6       0.08197868      26.44689
2009    19      7       0.1024052       31.26179
2009    20      0       0.1475759       41.36408
2009    20      1       0.3471719       82.5898
2009    20      2       0.4662332       103.5401
2009    20      3       0.4305935       97.63563
2009    20      4       0.2163576       56.82697
2009    20      5       0.1471684       41.23823
2009    20      6       0.1654201       45.12006
2009    20      7       0.1586202       43.68411
2009    21      0       0.1628612       44.93372
2009    21      1       0.2742971       68.8905
2009    21      2       0.5431601       115.9155
2009    21      3       1.566457        213.33
2009    21      4       1.782898        224.0739
2009    21      5       1.67832         219.341
2009    21      6       1.611572        215.335
2009    21      7       1.938324        230.6454
2009    22      0       0.9382131       166.022
2009    22      1       0.143688        41.10413
2009    22      2       0.3403143       80.64369
2009    22      3       0.6374409       127.4583
2009    22      4       0.7370812       139.8237
2009    22      5       0.9852177       166.7624
2009    22      6       1.933759        228.8899
2009    22      7       2.36695         244.2797
2009    23      0       2.306753        244.5306
2009    23      1       2.870779        257.738
2009    23      2       1.943092        233.442
2009    23      3       2.199696        238.3512
2009    23      4       1.608139        214.5694
2009    23      5       2.21792         239.9471
2009    23      6       2.989317        257.4443
2009    23      7       3.216815        260.5061
2009    24      0       3.463153        262.9861
2009    24      1       3.135112        258.5356
2009    24      2       3.24351         260.0996
2009    24      3       3.107215        259.4809
2009    24      4       2.345506        245.701
2009    24      5       3.057745        259.5501
2009    24      6       1.996945        232.5045
2009    24      7       1.52039         209.2455
2009    25      0       2.441004        243.8025
2009    25      1       2.597587        247.5558
2009    25      2       2.553727        247.5508
2009    25      3       2.190181        238.7479
2009    25      4       2.242391        240.5185
2009    25      5       2.210928        239.5577
2009    25      6       2.265122        240.7316
2009    25      7       2.223702        239.0357
2009    26      0       1.946427        230.0714
2009    26      1       1.330089        198.3937
2009    26      2       0.8358208       154.0946
2009    26      3       0.630275        128.2539
2009    26      4       0.5924706       122.5301
2009    26      5       0.6202347       127.821
2009    26      6       0.5325979       115.6691
2009    26      7       0.3605923       86.00748
2009    27      0       0.1772564       47.88792
2009    27      1       0.1884685       49.31351
2009    27      2       0.2561608       62.82903
2009    27      3       0.5008353       105.9449
2009    27      4       0.8336157       150.5032
2009    27      5       0.9623777       164.9409
2009    27      6       1.111719        178.8947
2009    27      7       1.788562        221.465
2009    28      0       2.349081        241.8247
2009    28      1       1.943683        228.9
2009    28      2       1.386474        201.653
2009    28      3       0.891802        159.802
2009    28      4       0.9684893       167.5249
2009    28      5       0.8390886       153.8
2009    28      6       0.9141706       160.9429
2009    28      7       1.218035        187.7253
2009    29      0       1.755132        220.9856
2009    29      1       1.975436        230.3255
2009    29      2       2.053978        232.2069
2009    29      3       2.050759        231.9626
2009    29      4       1.913747        227.0835
2009    29      5       1.691533        216.8312
2009    29      6       2.040272        233.4275
2009    29      7       1.799786        224.2507
2009    30      0       1.897943        227.1681
2009    30      1       2.085169        231.7329
2009    30      2       2.306336        239.944
2009    30      3       1.995148        230.2412
2009    30      4       1.681548        217.443
2009    30      5       1.499135        207.2943
2009    30      6       1.184577        186.3206
2009    30      7       1.232867        190.2628
2010    1       0       0.6439729       128.5988
2010    1       1       0.7838528       146.5227
2010    1       2       0.4749696       104.0659
2010    1       3       0.4176412       94.45625
2010    1       4       0.2104761       54.81858
2010    1       5       0.3755724       85.86491
2010    1       6       0.7608708       142.1694
2010    1       7       1.149351        179.8504
2010    2       0       1.886756        224.3858
2010    2       1       1.675265        216.8755
2010    2       2       1.734618        220.5154
2010    2       3       1.079695        177.0237
2010    2       4       1.310398        199.7352
2010    2       5       0.6083966       127.1031
2010    2       6       0.4750007       104.7572
2010    2       7       0.6482904       130.4824
2010    3       0       0.9254903       163.0681
2010    3       1       1.041808        173.6715
2010    3       2       1.767985        219.8983
2010    3       3       1.147187        178.2793
2010    3       4       1.009626        166.4103
2010    3       5       0.5947644       119.5965
2010    3       6       0.3428657       79.71683
2010    3       7       0.3948596       89.04489
2010    4       0       0.4479024       98.23947
2010    4       1       0.5103423       108.3619
2010    4       2       0.4397241       97.2543
2010    4       3       0.4500245       99.20887
2010    4       4       0.4104104       93.09293
2010    4       5       0.345681        81.02596
2010    4       6       0.3724948       85.23618
2010    4       7       0.7189784       135.4113
2010    5       0       0.8537357       153.292
2010    5       1       1.01473         169.7376
2010    5       2       1.149434        182.5103
2010    5       3       1.27348         192.7641
2010    5       4       2.224692        244.4885
2010    5       5       2.125076        242.2266
2010    5       6       1.704041        225.3635
2010    5       7       2.463197        250.2431
2010    6       0       2.340053        245.3172
2010    6       1       2.759333        254.8392
2010    6       2       2.882747        257.2979
2010    6       3       2.580817        250.504
2010    6       4       2.924141        257.0538
2010    6       5       2.552577        249.0801
2010    6       6       2.620274        250.0506
2010    6       7       2.239807        242.1225
2010    7       0       1.750038        223.8458
2010    7       1       1.487597        210.4757
2010    7       2       0.7122819       140.2303
2010    7       3       0.4174737       95.22246
2010    7       4       0.3418137       81.1112
2010    7       5       0.3518082       82.45421
2010    7       6       0.463954        102.677
2010    7       7       0.8842394       159.4225
2010    8       0       1.172016        186.8573
2010    8       1       1.367198        201.3007
2010    8       2       1.288359        195.9144
2010    8       3       1.276856        195.1977
2010    8       4       1.296722        196.4987
2010    8       5       1.256781        193.5235
2010    8       6       0.9434703       165.3217
2010    8       7       0.9221205       160.8946
2010    9       0       2.05463         235.1351
2010    9       1       2.491806        247.0166
2010    9       2       2.626351        251.9968
2010    9       3       1.132811        184.2973
2010    9       4       1.087647        179.9062
2010    9       5       1.121391        182.1024
2010    9       6       0.7173703       139.6939
2010    9       7       0.4031339       91.87989
2010    10      0       1.408864        202.9916
2010    10      1       0.9897039       169.4357
2010    10      2       0.5645889       118.7482
2010    10      3       0.3966192       91.09057
2010    10      4       0.403535        91.13552
2010    10      5       0.8183846       149.9032
2010    10      6       1.331641        195.9516
2010    10      7       1.506041        206.754
2010    11      0       1.793822        222.2256
2010    11      1       2.508957        246.7303
2010    11      2       3.079644        258.9415
2010    11      3       2.570245        251.0902
2010    11      4       2.761572        255.3406
2010    11      5       2.880067        255.8642
2010    11      6       2.914732        256.7239
2010    11      7       2.066901        235.1391
2010    12      0       0.4314104       99.26575
2010    12      1       0.6455731       132.0541
2010    12      2       1.05276         178.3269
2010    12      3       0.8268484       154.8883
2010    12      4       0.8762137       160.2577
2010    12      5       0.8890476       161.5732
2010    12      6       0.6526671       132.2418
2010    12      7       0.7090383       139.5073
2010    13      0       1.268415        193.98
2010    13      1       1.647763        216.7247
2010    13      2       0.926088        163.0143
2010    13      3       0.2348639       60.05895
2010    13      4       0.1301937       37.563
2010    13      5       0.1764445       47.68817
2010    13      6       0.2652942       66.00972
2010    13      7       0.24095         60.78423
2010    14      0       0.9259991       163.5759
2010    14      1       1.301762        195.3405
2010    14      2       1.939107        229.6546
2010    14      3       1.849542        224.6397
2010    14      4       1.704487        219.1044
2010    14      5       1.568376        211.1921
2010    14      6       0.622996        125.2617
2010    14      7       0.9923467       167.9206
2010    15      0       1.095075        177.7064
2010    15      1       1.068654        176.5828
2010    15      2       0.3825881       88.86924
2010    15      3       0.2960876       72.46405
2010    15      4       0.2399971       61.21712
2010    15      5       0.3463425       81.10533
2010    15      6       1.50936         207.1343
2010    15      7       3.031846        257.6619
2010    16      0       2.875351        255.2701
2010    16      1       3.275998        260.0028
2010    16      2       2.614664        249.6632
2010    16      3       1.28129         197.0754
2010    16      4       0.340486        82.53668
2010    16      5       0.5508707       118.8542
2010    16      6       0.6234898       129.9088
2010    16      7       1.472337        207.9989
2010    17      0       2.076366        233.3221
2010    17      1       2.057168        232.9802
2010    17      2       1.793373        221.2315
2010    17      3       1.323777        192.64
2010    17      4       1.362189        194.229
2010    17      5       1.123314        176.7236
2010    17      6       0.8552344       153.3327
2010    17      7       1.664556        215.0088
2010    18      0       1.924014        227.2543
2010    18      1       1.792085        222.2108
2010    18      2       1.990412        230.0657
2010    18      3       2.212301        237.5198
2010    18      4       1.714055        219.0046
2010    18      5       1.560967        210.6609
2010    18      6       1.702278        216.1633
2010    18      7       1.328444        194.3469
2010    19      0       1.219291        186.6468
2010    19      1       1.255121        188.8068
2010    19      2       1.424367        201.0364
2010    19      3       0.3693137       85.67844
2010    19      4       0.2122402       55.1865
2010    19      5       0.3107275       75.18922
2010    19      6       0.6216269       125.9401
2010    19      7       1.127022        181.6779
2010    20      0       1.671764        217.3158
2010    20      1       1.665924        216.1733
2010    20      2       1.792611        222.5119
2010    20      3       1.571282        210.8545
2010    20      4       1.870497        225.1495
2010    20      5       1.315762        195.1438
2010    20      6       1.660052        215.9215
2010    20      7       1.2389          191.295
2010    21      0       1.079478        175.1173
2010    21      1       1.196405        184.3946
2010    21      2       1.337672        194.7551
2010    21      3       0.8701085       153.415
2010    21      4       1.499788        205.841
2010    21      5       1.865181        224.5426
2010    21      6       1.686801        215.7224
2010    21      7       1.292102        190.038
2010    22      0       0.6444811       126.154
2010    22      1       0.4519831       98.4224
2010    22      2       0.5791488       116.7712
2010    22      3       0.7855882       143.461
2010    22      4       1.142918        180.9437
2010    22      5       1.240055        190.6337
2010    22      6       1.361873        198.1305
2010    22      7       1.072162        173.9153
2010    23      0       0.9039654       158.7755
2010    23      1       0.9457769       163.4039
2010    23      2       0.4493262       99.5613
2010    23      3       0.3410088       79.78478
2010    23      4       0.3859712       87.85907
2010    23      5       0.5057711       106.8407
2010    23      6       0.5741528       116.5207
2010    23      7       0.7462611       141.3329
2010    24      0       1.354007        198.5044
2010    24      1       1.625741        217.8194
2010    24      2       1.037483        175.0553
2010    24      3       1.049851        175.2224
2010    24      4       1.29366         195.6942
2010    24      5       1.523198        209.9325
2010    24      6       1.949922        229.8174
2010    24      7       1.983778        230.9484
2010    25      0       2.587759        247.8639
2010    25      1       2.031305        232.1163
2010    25      2       0.9465593       165.8767
2010    25      3       0.9941783       171.1274
2010    25      4       0.9635553       167.512
2010    25      5       1.26237         194.1952
2010    25      6       1.843191        229.9761
2010    25      7       1.385103        203.5609
2010    26      0       1.019555        173.4894
2010    26      1       0.9424826       166.0429
2010    26      2       0.7799897       148.1108
2010    26      3       0.8191641       153.7823
2010    26      4       1.012666        173.8328
2010    26      5       1.120428        183.3077
2010    26      6       1.067784        178.6622
2010    26      7       1.300075        197.736
2010    27      0       1.909765        231.117
2010    27      1       2.381023        246.1235
2010    27      2       1.488941        210.5614
2010    27      3       0.8639863       158.5067
2010    27      4       0.9061886       163.3218
2010    27      5       1.181333        189.1836
2010    27      6       1.252832        194.4516
2010    27      7       1.064609        177.8607
2010    28      0       0.836659        153.277
2010    28      1       1.064985        177.0875
2010    28      2       1.116952        181.9457
2010    28      3       1.685417        221.3236
2010    28      4       1.750686        225.2049
2010    28      5       1.457606        209.5326
2010    28      6       1.336412        200.6713
2010    28      7       1.351416        201.3693
2010    29      0       2.018667        235.6172
2010    29      1       2.218145        241.9398
2010    29      2       2.853846        256.6188
2010    29      3       2.109293        238.5863
2010    29      4       2.165953        240.3607
2010    29      5       2.333024        245.5047
2010    29      6       2.329212        245.6607
2010    29      7       2.630685        252.5365
2010    30      0       2.724493        254.9543
2010    30      1       3.570771        267.4416
2010    30      2       3.693697        268.2593
2010    30      3       3.838379        269.0664
2010    30      4       3.777197        268.4163
2010    30      5       3.696337        267.0341
2010    30      6       3.017189        257.8253
2010    30      7       2.231487        239.2121
2011    1       0       1.408954        203.4505
2011    1       1       0.902967        160.4617
2011    1       2       0.3983241       88.5304
2011    1       3       0.6289305       122.8566
2011    1       4       0.8119882       148.0147
2011    1       5       0.5697446       117.2529
2011    1       6       0.5652239       116.061
2011    1       7       0.5531461       114.2138
2011    2       0       1.117773        176.0497
2011    2       1       1.085756        173.507
2011    2       2       0.5647861       116.6202
2011    2       3       0.1917196       50.51357
2011    2       4       0.2907631       70.33893
2011    2       5       0.2792141       67.9775
2011    2       6       0.2849392       69.10003
2011    2       7       0.4533352       99.99509
2011    3       0       0.4869587       105.238
2011    3       1       0.6073887       122.7798
2011    3       2       0.5130031       109.3683
2011    3       3       0.4193303       94.16644
2011    3       4       0.5599716       116.5494
2011    3       5       0.6094288       123.651
2011    3       6       0.6460831       128.4991
2011    3       7       0.6681397       131.9251
2011    4       0       0.684425        134.3147
2011    4       1       1.103311        179.0199
2011    4       2       1.290065        193.8221
2011    4       3       1.103294        179.0008
2011    4       4       1.053635        174.1085
2011    4       5       0.9973555       168.492
2011    4       6       0.8211691       150.5718
2011    4       7       0.7113594       139.0671
2011    5       0       0.8621653       157.6768
2011    5       1       1.221756        192.1949
2011    5       2       1.089784        181.9089
2011    5       3       0.8895482       162.0728
2011    5       4       0.7696151       146.6788
2011    5       5       0.7240255       140.9248
2011    5       6       0.6818802       135.4982
2011    5       7       0.636254        129.1961
2011    6       0       0.6485055       130.6179
2011    6       1       0.7837145       148.0421
2011    6       2       0.7280105       141.5127
2011    6       3       0.7686741       146.467
2011    6       4       0.7859401       148.2356
2011    6       5       0.7456903       143.318
2011    6       6       0.7049664       138.1998
2011    6       7       0.6438178       130.1935
2011    7       0       0.5905911       122.6456
2011    7       1       0.6358468       128.9562
2011    7       2       0.5960185       123.2563
2011    7       3       0.5447087       115.5326
2011    7       4       0.5295938       113.0576
2011    7       5       0.5029523       108.8377
2011    7       6       0.5538814       116.9806
2011    7       7       0.5951431       123.097
2011    8       0       0.5899086       122.2816
2011    8       1       1.116794        182.0768
2011    8       2       0.6438693       130.3798
2011    8       3       0.5018766       109.1395
2011    8       4       0.5455703       115.8315
2011    8       5       0.4998714       108.8797
2011    8       6       0.552667        117.0302
2011    8       7       0.411592        93.71385
2011    9       0       0.7974809       149.6521
2011    9       1       1.353743        199.7133
2011    9       2       1.508967        209.4758
2011    9       3       1.096312        180.0319
2011    9       4       0.9108447       163.1971
2011    9       5       0.7080947       139.9913
2011    9       6       0.672437        135.1491
2011    9       7       0.725905        142.562
2011    10      0       0.9036203       164.0755
2011    10      1       0.9727082       171.7427
2011    10      2       0.7275146       142.8901
2011    10      3       0.4232042       94.79293
2011    10      4       0.518615        108.9314
2011    10      5       0.7520401       140.797
2011    10      6       0.7330665       139.2072
2011    10      7       1.612491        215.5675
2011    11      0       2.369031        242.301
2011    11      1       2.599468        248.9455
2011    11      2       2.67745         250.2477
2011    11      3       2.216495        238.811
2011    11      4       1.985698        230.4674
2011    11      5       1.544912        210.4093
2011    11      6       2.012825        230.9364
2011    11      7       1.730378        220.3058
2011    12      0       1.318735        197.288
2011    12      1       1.259806        193.1537
2011    12      2       1.720558        219.9358
2011    12      3       1.515339        207.9585
2011    12      4       1.284088        192.3011
2011    12      5       1.506101        207.0832
2011    12      6       1.663855        214.9614
2011    12      7       1.537847        208.2316
2011    13      0       1.047415        173.3269
2011    13      1       0.9044768       158.8966
2011    13      2       0.7114863       135.2395
2011    13      3       1.046913        171.0746
2011    13      4       1.546091        206.7046
2011    13      5       1.531485        206.777
2011    13      6       1.51381         206.3079
2011    13      7       0.957426        165.0597
2011    14      0       0.8341814       152.529
2011    14      1       0.3585248       84.00904
2011    14      2       0.3145548       75.86798
2011    14      3       0.331842        78.74872
2011    14      4       0.7827772       147.4757
2011    14      5       0.8539034       157.9932
2011    14      6       1.440039        209.0132
2011    14      7       0.9732242       168.0999
2011    15      0       1.039362        173.7222
2011    15      1       1.574441        212.0012
2011    15      2       1.835217        223.5655
2011    15      3       0.6399261       127.7168
2011    15      4       0.7998725       147.8894
2011    15      5       0.485299        104.5878
2011    15      6       0.4973637       106.5017
2011    15      7       0.8183204       149.2959
2011    16      0       1.029451        170.8716
2011    16      1       1.223576        187.2188
2011    16      2       0.9845504       166.8753
2011    16      3       0.5374142       113.2111
2011    16      4       0.7386286       139.943
2011    16      5       1.050228        172.9819
2011    16      6       1.08135         175.764
2011    16      7       0.7340116       139.462
2011    17      0       1.255274        190.1367
2011    17      1       1.300354        192.6735
2011    17      2       0.835662        150.8564
2011    17      3       0.5228157       108.7759
2011    17      4       1.188143        183.1692
2011    17      5       1.472328        203.5352
2011    17      6       1.447937        202.5701
2011    17      7       1.464768        203.0876
2011    18      0       1.381046        197.1778
2011    18      1       1.564434        207.4397
2011    18      2       1.319724        194.0734
2011    18      3       0.8422611       153.4851
2011    18      4       0.5450732       115.5289
2011    18      5       0.3681426       85.87959
2011    18      6       0.4340478       94.7575
2011    18      7       0.8937774       156.5034
2011    19      0       1.783141        222.0801
2011    19      1       1.550285        210.2843
2011    19      2       1.168164        185.2363
2011    19      3       1.81378         223.4035
2011    19      4       1.170953        182.9999
2011    19      5       0.9087071       159.0651
2011    19      6       0.7122534       135.8449
2011    19      7       0.6228279       125.0465
2011    20      0       0.7088186       136.8728
2011    20      1       0.8641278       155.5445
2011    20      2       0.2541839       64.64968
2011    20      3       0.2329808       59.81521
2011    20      4       0.3618113       85.40997
2011    20      5       0.4401406       99.39614
2011    20      6       0.5303122       114.0587
2011    20      7       0.6141763       126.329
2011    21      0       0.5203877       112.4522
2011    21      1       0.5065362       110.0636
2011    21      2       0.5157855       111.3377
2011    21      3       0.481343        105.7423
2011    21      4       0.4518086       100.9793
2011    21      5       0.4123358       94.37473
2011    21      6       0.4585306       101.7338
2011    21      7       0.5069098       108.996
2011    22      0       0.4601532       101.6525
2011    22      1       0.4935794       107.5202
2011    22      2       0.5435483       115.2379
2011    22      3       0.4400002       98.56592
2011    22      4       0.4370735       98.22469
2011    22      5       0.5554875       117.5736
2011    22      6       0.6165199       126.6569
2011    22      7       0.6821103       135.9135
2011    23      0       0.781074        148.4404
2011    23      1       1.202689        189.5352
2011    23      2       1.162736        186.5963
2011    23      3       0.9212525       164.0832
2011    23      4       0.5857227       121.6374
2011    23      5       0.5030888       108.548
2011    23      6       0.5144671       110.2596
2011    23      7       0.8328275       153.3202
2011    24      0       1.776978        223.9318
2011    24      1       1.598649        215.146
2011    24      2       1.666135        218.8429
2011    24      3       0.9272516       163.7749
2011    24      4       1.02142         173.4055
2011    24      5       0.957564        166.8386
2011    24      6       1.522052        210.2259
2011    24      7       1.089285        178.3403
2011    25      0       1.270921        192.6109
2011    25      1       1.337399        196.2724
2011    25      2       1.149682        181.7145
2011    25      3       0.690261        133.1518
2011    25      4       0.799402        145.1206
2011    25      5       0.9358837       160.5581
2011    25      6       0.7987883       146.4097
2011    25      7       0.6287411       125.2689
2011    26      0       0.8289622       150.2987
2011    26      1       0.8617676       154.0835
2011    26      2       0.607109        122.8857
2011    26      3       0.4014475       90.90893
2011    26      4       0.376032        86.49944
2011    26      5       0.356897        83.19909
2011    26      6       0.323701        76.90741
2011    26      7       0.3052109       73.4433
2011    27      0       0.2264226       57.70458
2011    27      1       0.2431234       61.36554
2011    27      2       0.1921849       51.02539
2011    27      3       0.1865413       49.96028
2011    27      4       0.1905447       50.8352
2011    27      5       0.1699095       46.35715
2011    27      6       0.1416177       40.17944
2011    27      7       0.1476454       41.7018
2011    28      0       0.1784603       48.69892
2011    28      1       0.2348089       60.85945
2011    28      2       0.2392043       61.6763
2011    28      3       0.3075225       74.65326
2011    28      4       0.4379305       97.12358
2011    28      5       0.496692        106.3615
2011    28      6       0.4354978       96.26502
2011    28      7       0.4438992       97.41063
2011    29      0       0.534651        111.9258
2011    29      1       1.090126        178.6041
2011    29      2       1.061204        176.6436
2011    29      3       0.6750714       134.1671
2011    29      4       0.3570258       84.56837
2011    29      5       0.2958511       73.13531
2011    29      6       0.2930628       72.55104
2011    29      7       0.2487036       63.77907
2011    30      0       0.2415181       62.4114
2011    30      1       0.6233618       127.6991
2011    30      2       0.8217444       152.8796
2011    30      3       0.4962358       108.571
2011    30      4       0.3985116       90.39207
2011    30      5       0.5822192       118.6775
2011    30      6       0.7394864       139.662
2011    30      7       0.8392656       152.3587
2012    1       0       0.2198976       55.59479
2012    1       1       0.2208878       56.45554
2012    1       2       0.3118268       73.34495
2012    1       3       0.4206385       91.59129
2012    1       4       0.38639         85.75993
2012    1       5       0.4299641       92.69122
2012    1       6       0.4441132       94.89712
2012    1       7       0.3864194       85.72746
2012    2       0       0.4809057       101.4841
2012    2       1       0.5351713       110.4197
2012    2       2       0.6783084       131.3076
2012    2       3       1.109366        179.1726
2012    2       4       1.316852        196.2765
2012    2       5       1.514109        209.9674
2012    2       6       1.53463         209.4846
2012    2       7       1.79853         223.6904
2012    3       0       2.578937        248.4435
2012    3       1       2.672431        251.0618
2012    3       2       2.66819         251.5977
2012    3       3       1.657116        215.2008
2012    3       4       1.354442        197.5883
2012    3       5       1.2012          187.5903
2012    3       6       1.427292        202.5825
2012    3       7       1.213379        188.1466
2012    4       0       1.25108         191.1395
2012    4       1       1.43558         203.1083
2012    4       2       1.071991        175.8029
2012    4       3       0.9739449       165.8087
2012    4       4       1.539894        207.1538
2012    4       5       0.6860963       133.9206
2012    4       6       0.5715041       117.1235
2012    4       7       0.6844231       133.4826
2012    5       0       0.6026608       122.535
2012    5       1       0.471581        102.6223
2012    5       2       0.4478334       99.05326
2012    5       3       0.3358282       80.10231
2012    5       4       0.3265547       77.55032
2012    5       5       0.5366131       112.6373
2012    5       6       0.908185        161.1588
2012    5       7       1.385319        202.1734
2012    6       0       1.0728          177.4598
2012    6       1       0.7269916       139.821
2012    6       2       0.4242119       94.14631
2012    6       3       0.3814442       87.71275
2012    6       4       0.3002442       73.61313
2012    6       5       0.2496007       64.11683
2012    6       6       0.6266851       126.4867
2012    6       7       1.430912        206.3306
2012    7       0       2.048767        235.8933
2012    7       1       2.300459        243.9842
2012    7       2       1.551455        214.2504
2012    7       3       1.352015        202.1122
2012    7       4       1.294496        200.8297
2012    7       5       1.353517        202.684
2012    7       6       1.04174         177.5181
2012    7       7       0.946138        167.1963
2012    8       0       1.011055        175.2963
2012    8       1       1.84845         227.5829
2012    8       2       2.446824        245.3912
2012    8       3       1.558559        211.0318
2012    8       4       1.473356        205.2257
2012    8       5       1.258442        189.8767
2012    8       6       1.244396        188.4095
2012    8       7       1.483897        203.6149
2012    9       0       1.432541        202.4016
2012    9       1       1.611615        213.3052
2012    9       2       1.736966        219.0892
2012    9       3       1.683958        214.2566
2012    9       4       2.011442        229.127
2012    9       5       1.766595        219.6288
2012    9       6       0.6728032       131.548
2012    9       7       0.8207208       149.5052
2012    10      0       0.8612082       154.9567
2012    10      1       1.269681        192.8167
2012    10      2       0.8652795       155.9046
2012    10      3       1.502923        208.1387
2012    10      4       1.627644        215.1351
2012    10      5       1.137071        180.6505
2012    10      6       1.606083        210.0564
2012    10      7       1.527936        206.879
2012    11      0       0.9982158       167.7385
2012    11      1       1.090729        174.0622
2012    11      2       1.088218        171.4999
2012    11      3       0.9809316       163.1326
2012    11      4       0.975929        162.6504
2012    11      5       0.6956432       131.3729
2012    11      6       0.64468         124.6995
2012    11      7       0.8206528       146.8279
2012    12      0       0.9060709       156.4045
2012    12      1       0.8928397       155.0733
2012    12      2       0.8185867       147.351
2012    12      3       0.3453611       80.18867
2012    12      4       0.2844483       68.89956
2012    12      5       0.2404855       60.13806
2012    12      6       0.1672524       45.22874
2012    12      7       0.2446535       61.02924
2012    13      0       0.3093592       73.9728
2012    13      1       0.4948513       106.4392
2012    13      2       0.3835248       88.26838
2012    13      3       0.206636        54.38039
2012    13      4       0.1863787       50.06628
2012    13      5       0.1670893       45.78134
2012    13      6       0.1760711       47.30718
2012    13      7       0.1842496       49.05746
2012    14      0       0.2320428       59.40497
2012    14      1       0.387431        89.61498
2012    14      2       0.3070446       74.84815
2012    14      3       0.2491361       63.23505
2012    14      4       0.2226993       57.65559
2012    14      5       0.240571        60.92682
2012    14      6       0.1978085       51.53822
2012    14      7       0.2152912       54.70089
2012    15      0       0.490715        104.9638
2012    15      1       1.695756        217.8161
2012    15      2       1.68667         219.7842
2012    15      3       1.831745        226.4308
2012    15      4       2.110088        237.2234
2012    15      5       2.025649        234.6441
2012    15      6       1.849487        227.9581
2012    15      7       2.512864        248.1619
2012    16      0       2.314074        242.0859
2012    16      1       2.000611        231.7806
2012    16      2       1.489315        207.8778
2012    16      3       1.322505        196.9261
2012    16      4       1.288525        192.9571
2012    16      5       1.66176         216.8224
2012    16      6       1.823211        224.3049
2012    16      7       1.329912        196.8392
2012    17      0       1.774447        222.9926
2012    17      1       1.030815        175.0005
2012    17      2       0.5440666       115.3467
2012    17      3       0.5460548       114.2864
2012    17      4       0.4766362       104.7365
2012    17      5       0.543666        115.1247
2012    17      6       0.3122341       76.54554
2012    17      7       0.1979433       52.66394
2012    18      0       0.2279347       58.54706
2012    18      1       0.2976891       72.83286
2012    18      2       0.308423        75.34841
2012    18      3       0.3179151       77.15841
2012    18      4       0.3388486       81.21532
2012    18      5       0.3492939       83.16945
2012    18      6       0.3502245       83.50367
2012    18      7       0.3793727       88.42736
2012    19      0       0.4200612       95.24691
2012    19      1       0.4564043       100.743
2012    19      2       0.4493369       99.02461
2012    19      3       0.4762655       103.3949
2012    19      4       0.5300011       112.4267
2012    19      5       0.5719156       118.7678
2012    19      6       0.5674061       117.674
2012    19      7       0.6438669       128.1453
2012    20      0       0.9285582       161.5264
2012    20      1       1.167219        183.1037
2012    20      2       1.301157        193.542
2012    20      3       1.097728        177.5407
2012    20      4       0.9444755       163.0606
2012    20      5       0.7723942       144.731
2012    20      6       0.6150496       125.0716
2012    20      7       0.3756205       87.5942
2012    21      0       0.3079385       75.11585
2012    21      1       0.635211        128.424
2012    21      2       0.6820018       134.9047
2012    21      3       0.5691246       119.2354
2012    21      4       0.482051        105.745
2012    21      5       0.2350973       60.58925
2012    21      6       0.1452434       40.8942
2012    21      7       0.1410011       39.82445
2012    22      0       0.3996457       91.79844
2012    22      1       0.9131778       162.0611
2012    22      2       1.002208        171.1886
2012    22      3       0.8730371       157.9659
2012    22      4       0.6605897       132.1835
2012    22      5       0.257338        65.32267
2012    22      6       0.1490926       41.87855
2012    22      7       0.1835689       48.87481
2012    23      0       0.5120354       109.3048
2012    23      1       0.8578061       155.0316
2012    23      2       1.005511        170.466
2012    23      3       0.9254876       164.7771
2012    23      4       0.825148        153.5424
2012    23      5       0.6736025       132.6186
2012    23      6       0.5288795       110.8803
2012    23      7       0.5009358       105.7048
2012    24      0       0.6495828       127.9192
2012    24      1       0.9668866       165.8202
2012    24      2       0.9450812       163.6833
2012    24      3       0.6663117       130.6516
2012    24      4       0.6362132       125.8033
2012    24      5       0.6794549       131.355
2012    24      6       0.6911051       132.7454
2012    24      7       0.6905388       132.5418
2012    25      0       0.6858196       132.1039
2012    25      1       0.6958906       134.018
2012    25      2       0.7182594       137.1399
2012    25      3       0.7650601       142.9661
2012    25      4       0.8412026       151.9809
2012    25      5       0.8214205       151.4288
2012    25      6       0.9132653       162.1446
2012    25      7       0.9765277       166.8528
2012    26      0       0.8805069       156.3315
2012    26      1       0.8232828       150.1179
2012    26      2       0.9518243       164.8491
2012    26      3       1.196673        187.6247
2012    26      4       1.357402        199.0618
2012    26      5       1.44827         203.7408
2012    26      6       1.631171        213.866
2012    26      7       1.726717        219.1216
2012    27      0       1.599926        212.6125
2012    27      1       1.240015        189.0526
2012    27      2       0.920254        158.7034
2012    27      3       1.26533         188.9549
2012    27      4       1.257353        189.7203
2012    27      5       1.738741        221.1839
2012    27      6       1.970193        232.1423
2012    27      7       1.926476        231.4793
2012    28      0       1.880319        230.2198
2012    28      1       2.067351        238.3413
2012    28      2       2.043012        237.1381
2012    28      3       1.430056        207.5239
2012    28      4       0.8960053       162.183
2012    28      5       0.933683        165.5386
2012    28      6       1.14301         184.7291
2012    28      7       1.220667        191.1543
2012    29      0       1.396642        204.0539
2012    29      1       1.773675        225.1591
2012    29      2       1.994773        234.8114
2012    29      3       1.232541        193.9004
2012    29      4       0.8477556       158.2328
2012    29      5       0.2898659       73.1807
2012    29      6       0.3368245       82.1215
2012    29      7       0.3746775       88.81366
2012    30      0       0.4605726       103.007
2012    30      1       0.6169649       125.4282
2012    30      2       0.957856        165.9
2012    30      3       0.8758718       159.2398
2012    30      4       0.9036135       162.9968
2012    30      5       2.213275        241.6247
2012    30      6       2.719301        252.714
2012    30      7       1.529891        211.0414
2013    1       0       0.2374905       60.8136
2013    1       1       0.4117873       93.5259
2013    1       2       0.4196132       94.91738
2013    1       3       0.3935099       89.65958
2013    1       4       0.4061536       91.4943
2013    1       5       0.3378224       79.15966
2013    1       6       0.3711376       85.22692
2013    1       7       0.5035302       107.5982
2013    2       0       0.5649722       117.3968
2013    2       1       0.6082935       123.9711
2013    2       2       0.6200043       125.8748
2013    2       3       0.671672        132.9096
2013    2       4       0.537851        113.7056
2013    2       5       0.4996473       107.6859
2013    2       6       0.4318931       97.00659
2013    2       7       0.3102897       75.3395
2013    3       0       0.2219135       57.41296
2013    3       1       0.3532403       83.11135
2013    3       2       0.1945039       51.25525
2013    3       3       0.170338        45.8981
2013    3       4       0.160717        43.87263
2013    3       5       0.1681649       45.74103
2013    3       6       0.3452972       81.15211
2013    3       7       0.5868224       119.8689
2013    4       0       1.4789          205.1451
2013    4       1       1.863213        223.1558
2013    4       2       1.491559        203.9388
2013    4       3       1.372576        196.4133
2013    4       4       1.376493        196.8963
2013    4       5       1.397736        198.2868
2013    4       6       1.244707        188.5336
2013    4       7       1.048707        173.0134
2013    5       0       0.896151        158.3656
2013    5       1       0.8207737       150.0067
2013    5       2       0.5119307       109.0809
2013    5       3       0.1197302       35.43723
2013    5       4       0.1533286       43.37437
2013    5       5       0.1169709       35.01437
2013    5       6       0.2204569       57.86362
2013    5       7       0.5380414       115.0559
2013    6       0       0.6450836       130.5518
2013    6       1       0.6868402       136.3054
2013    6       2       0.7047751       138.3358
2013    6       3       0.8568864       153.9191
2013    6       4       1.512024        207.422
2013    6       5       1.610816        215.7982
2013    6       6       0.8946674       162.0346
2013    6       7       0.2038912       53.10659
2013    7       0       0.3155524       74.51324
2013    7       1       0.3188584       75.38825
2013    7       2       0.2942952       69.98394
2013    7       3       0.55263         114.0456
2013    7       4       0.6401657       128.2359
2013    7       5       0.4416164       98.70132
2013    7       6       0.4170883       94.32452
2013    7       7       0.715308        139.1408
2013    8       0       1.459286        206.0849
2013    8       1       1.445818        204.6929
2013    8       2       1.725367        220.5273
2013    8       3       1.114338        180.6284
2013    8       4       0.7733714       146.119
2013    8       5       0.5773107       120.0287
2013    8       6       0.3181406       76.1744
2013    8       7       0.5371824       113.6274
2013    9       0       0.7383628       141.6529
2013    9       1       0.9769937       167.709
2013    9       2       0.8782756       158.0046
2013    9       3       0.1251387       36.45364
2013    9       4       0.1243509       36.39071
2013    9       5       0.1531406       42.20782
2013    9       6       0.3444887       79.18653
2013    9       7       0.3388761       79.00629
2013    10      0       0.4382743       96.78104
2013    10      1       0.6241189       124.9471
2013    10      2       0.8998157       158.2947
2013    10      3       0.7840598       146.8471
2013    10      4       1.118382        182.2992
2013    10      5       1.278888        195.7889
2013    10      6       1.385823        204.5106
2013    10      7       1.211536        192.2021
2013    11      0       1.547331        214.9437
2013    11      1       1.465991        209.8111
2013    11      2       1.351239        201.4481
2013    11      3       2.238775        243.0289
2013    11      4       2.450154        248.425
2013    11      5       3.068786        258.9588
2013    11      6       3.201508        260.1284
2013    11      7       2.902438        255.4932
2013    12      0       2.868109        254.9411
2013    12      1       2.899107        255.5508
2013    12      2       3.149841        259.2762
2013    12      3       2.711679        253.0394
2013    12      4       1.566571        212.9178
2013    12      5       1.119527        180.3537
2013    12      6       1.022788        172.8934
2013    12      7       0.7630479       145.1778
2013    13      0       0.7004398       137.0536
2013    13      1       1.197111        187.8361
2013    13      2       1.084018        176.8413
2013    13      3       1.628381        213.5692
2013    13      4       1.840755        223.186
2013    13      5       2.106563        233.6902
2013    13      6       2.074874        233.0544
2013    13      7       1.49372         206.3428
2013    14      0       0.4406815       97.96953
2013    14      1       1.370473        197.8938
2013    14      2       1.482556        204.2514
2013    14      3       0.6293839       126.4103
2013    14      4       0.373223        86.17381
2013    14      5       0.3808301       88.05777
2013    14      6       0.7228896       140.4875
2013    14      7       0.7446644       144.5975
2013    15      0       1.091907        181.4641
2013    15      1       1.098069        179.2631
2013    15      2       1.150261        183.7945
2013    15      3       1.018557        172.2102
2013    15      4       0.9458674       166.8008
2013    15      5       0.9021182       161.6906
2013    15      6       0.9956239       169.1709
2013    15      7       0.9272929       162.4421
2013    16      0       1.335494        197.3035
2013    16      1       1.338158        197.6499
2013    16      2       1.279712        196.279
2013    16      3       1.22893         192.3026
2013    16      4       1.117707        179.7065
2013    16      5       1.18731         184.806
2013    16      6       0.8647925       154.5959
2013    16      7       0.5016019       107.1427
2013    17      0       0.3207818       76.41009
2013    17      1       0.1981393       52.32626
2013    17      2       0.1001629       30.38172
2013    17      3       0.09598151      29.48331
2013    17      4       0.08953874      27.88103
2013    17      5       0.08754141      27.27855
2013    17      6       0.1000547       30.15206
2013    17      7       0.1172052       34.03542
2013    18      0       0.1342187       37.69286
2013    18      1       0.1767767       47.21038
2013    18      2       0.1573791       43.38187
2013    18      3       0.1383452       38.96934
2013    18      4       0.1613278       43.757
2013    18      5       0.1775962       47.27024
2013    18      6       0.1855499       48.63183
2013    18      7       0.3481777       79.18511
2013    19      0       0.5045569       104.3688
2013    19      1       0.855792        152.529
2013    19      2       1.627751        215.9516
2013    19      3       2.425127        246.0558
2013    19      4       2.643727        251.5861
2013    19      5       2.921778        257.5598
2013    19      6       2.298276        245.197
2013    19      7       2.103444        239.1357
2013    20      0       2.32366         245.8696
2013    20      1       1.696061        222.0744
2013    20      2       1.751499        223.5983
2013    20      3       2.024504        234.7079
2013    20      4       1.994162        233.5745
2013    20      5       1.950681        232.609
2013    20      6       3.114019        259.7595
2013    20      7       3.118353        259.24
2013    21      0       3.771097        266.2708
2013    21      1       3.036406        257.5398
2013    21      2       2.660904        250.9635
2013    21      3       3.120504        259.4045
2013    21      4       2.833188        254.7532
2013    21      5       3.305022        261.9005
2013    21      6       3.290134        260.9784
2013    21      7       2.490483        244.9674
2013    22      0       1.820959        225.5715
2013    22      1       1.376282        203.0099
2013    22      2       0.9858099       170.3377
2013    22      3       1.13195         182.2272
2013    22      4       1.994598        232.7141
2013    22      5       1.92353         229.8324
2013    22      6       1.731842        222.8355
2013    22      7       1.543786        213.9989
2013    23      0       1.671662        221.542
2013    23      1       1.546332        214.8116
2013    23      2       0.953063        168.6009
2013    23      3       0.8021219       151.3508
2013    23      4       0.874053        158.3836
2013    23      5       0.9754906       166.8965
2013    23      6       1.341946        196.4446
2013    23      7       1.820983        223.6452
2013    24      0       2.628967        250.4588
2013    24      1       2.896699        256.1334
2013    24      2       3.012138        257.9262
2013    24      3       3.058778        260.3531
2013    24      4       3.539519        267.0011
2013    24      5       3.737431        269.809
2013    24      6       3.764763        267.9255
2013    24      7       3.85501         269.1167
2013    25      0       3.840171        268.9692
2013    25      1       3.352236        264.8866
2013    25      2       3.76226         268.9265
2013    25      3       3.778111        268.853
2013    25      4       3.673024        268.0459
2013    25      5       3.137069        261.3066
2013    25      6       2.811831        256.3
2013    25      7       2.608676        252.3825
2013    26      0       2.009718        236.2347
2013    26      1       1.044701        179.9368
2013    26      2       0.5389942       116.561
2013    26      3       0.7824376       150.9694
2013    26      4       0.4257195       97.91799
2013    26      5       0.4684687       104.8197
2013    26      6       0.4907946       108.3928
2013    26      7       0.4288912       97.62264
2013    27      0       0.4229232       96.54346
2013    27      1       0.3932073       91.56563
2013    27      2       0.6499346       132.7801
2013    27      3       1.607641        218.6527
2013    27      4       1.571636        217.0178
2013    27      5       0.6511546       132.0549
2013    27      6       1.578762        212.9972
2013    27      7       1.782915        223.0117
2013    28      0       1.694292        218.633
2013    28      1       1.484901        207.7063
2013    28      2       1.602336        214.9561
2013    28      3       1.95506         231.4283
2013    28      4       1.704084        221.1428
2013    28      5       1.447878        207.1212
2013    28      6       1.217297        190.4162
2013    28      7       0.7680458       146.1493
2013    29      0       0.7223052       140.3054
2013    29      1       1.340057        197.1999
2013    29      2       1.40726         200.7106
2013    29      3       1.984808        230.8408
2013    29      4       2.8171          253.4473
2013    29      5       2.014357        232.1238
2013    29      6       1.804653        224.5775
2013    29      7       2.220546        239.5038
2013    30      0       2.428252        244.4504
2013    30      1       2.424553        244.0294
2013    30      2       2.225469        238.8726
2013    30      3       1.76121         222.7924
2013    30      4       1.588895        214.7192
2013    30      5       0.9374505       166.0033
2013    30      6       0.4630595       103.3599
2013    30      7       0.3200039       76.33196
2014    1       0       2.069952        233.8455
2014    1       1       2.217624        239.4148
2014    1       2       2.344158        243.1392
2014    1       3       2.125351        236.4971
2014    1       4       2.150727        236.874
2014    1       5       2.124757        236.2258
2014    1       6       1.960844        230.9508
2014    1       7       1.894491        228.477
2014    2       0       2.066575        235.0618
2014    2       1       2.051136        235.1663
2014    2       2       1.781753        224.3625
2014    2       3       1.601317        215.1181
2014    2       4       1.732465        221.4202
2014    2       5       1.70062         219.9814
2014    2       6       1.566754        213.211
2014    2       7       1.463046        207.2167
2014    3       0       1.801415        225.247
2014    3       1       1.936891        230.7564
2014    3       2       1.783024        224.6235
2014    3       3       1.405498        204.0745
2014    3       4       1.207882        190.1735
2014    3       5       1.120035        182.4953
2014    3       6       1.073445        178.3224
2014    3       7       1.032511        174.4894
2014    4       0       1.120411        182.4591
2014    4       1       1.589497        214.6883
2014    4       2       1.449866        205.832
2014    4       3       1.541877        209.4013
2014    4       4       2.12844         234.8974
2014    4       5       2.387427        244.4236
2014    4       6       2.124802        236.8485
2014    4       7       1.676341        218.1537
2014    5       0       1.663524        217.3787
2014    5       1       2.339114        242.8799
2014    5       2       2.275018        240.5451
2014    5       3       2.002795        231.9214
2014    5       4       1.899068        228.0803
2014    5       5       1.984681        230.9815
2014    5       6       1.90218         227.5199
2014    5       7       1.696426        218.2332
2014    6       0       1.596256        212.9697
2014    6       1       1.42059         202.7173
2014    6       2       1.15204         183.1343
2014    6       3       1.00561         170.2577
2014    6       4       0.885812        158.1842
2014    6       5       0.7401727       141.1534
2014    6       6       0.5895913       121.9728
2014    6       7       0.5216125       112.3846
2014    7       0       0.3138963       76.29596
2014    7       1       0.4349669       97.61687
2014    7       2       0.5511566       116.6114
2014    7       3       0.518249        111.4536
2014    7       4       0.4871703       106.5901
2014    7       5       0.362916        85.79641
2014    7       6       0.2455517       63.19691
2014    7       7       0.2955712       72.87845
2014    8       0       0.1982543       53.03028
2014    8       1       0.2240834       57.63335
2014    8       2       0.3684524       86.09205
2014    8       3       0.4633149       103.0343
2014    8       4       0.5838635       121.5696
2014    8       5       0.6506476       131.2094
2014    8       6       0.6204011       127.2967
2014    8       7       0.5415113       116.5087
2014    9       0       0.6088109       127.0069
2014    9       1       0.8981085       164.5465
2014    9       2       0.9507568       169.7736
2014    9       3       0.7104566       140.2549
2014    9       4       0.5246309       113.7361
2014    9       5       0.47848         106.2084
2014    9       6       0.4572037       102.5504
2014    9       7       0.4102633       94.36991
2014    10      0       0.4882484       107.5725
2014    10      1       0.9014149       162.2117
2014    10      2       1.021877        174.057
2014    10      3       0.903073        161.3124
2014    10      4       0.8366829       152.1797
2014    10      5       0.9436141       162.6096
2014    10      6       0.9491645       163.1701
2014    10      7       0.8457621       152.0979
2014    11      0       0.9072175       159.8775
2014    11      1       1.668872        217.7308
2014    11      2       1.382852        199.6397
2014    11      3       1.013287        169.0563
2014    11      4       1.224014        188.1209
2014    11      5       1.486345        206.3205
2014    11      6       1.306148        195.2771
2014    11      7       2.050568        234.1348
2014    12      0       2.503988        247.2784
2014    12      1       2.931083        255.5034
2014    12      2       2.439066        245.5946
2014    12      3       2.41703         244.6952
2014    12      4       2.905019        256.1154
2014    12      5       2.989433        257.865
2014    12      6       3.153977        259.6132
2014    12      7       2.117835        238.4294
2014    13      0       2.168668        239.5529
2014    13      1       2.224973        241.4877
2014    13      2       2.277993        242.826
2014    13      3       2.043586        234.6839
2014    13      4       1.357463        200.5011
2014    13      5       1.409883        203.1667
2014    13      6       1.601391        213.9896
2014    13      7       1.93531         228.9082
2014    14      0       1.647472        215.8612
2014    14      1       1.465056        205.553
2014    14      2       0.8268894       152.0578
2014    14      3       0.683712        134.7476
2014    14      4       0.7930467       148.3867
2014    14      5       0.7701624       145.9542
2014    14      6       0.5586803       116.8035
2014    14      7       0.4994423       106.2173
2014    15      0       0.9773136       168.1609
2014    15      1       1.485655        207.1587
2014    15      2       1.569363        212.4683
2014    15      3       1.102631        179.1391
2014    15      4       1.31312         195.6357
2014    15      5       1.922345        228.6855
2014    15      6       1.705287        220.1844
2014    15      7       1.657977        218.8036
2014    16      0       1.237107        191.7789
2014    16      1       1.016619        172.0505
2014    16      2       1.00725         170.9429
2014    16      3       0.8978743       160.0099
2014    16      4       1.087072        178.7004
2014    16      5       0.9448249       165.0929
2014    16      6       1.012001        171.4367
2014    16      7       1.07352         176.9853
2014    17      0       1.227867        189.8404
2014    17      1       1.213691        188.8495
2014    17      2       0.7717158       145.832
2014    17      3       0.4489177       100.0118
2014    17      4       0.38248         88.93985
2014    17      5       0.3037201       74.29547
2014    17      6       0.3184557       76.32517
2014    17      7       0.6052898       122.1221
2014    18      0       1.62527         215.549
2014    18      1       2.494911        247.8696
2014    18      2       2.440815        247.3606
2014    18      3       2.702048        251.6862
2014    18      4       2.688837        251.7875
2014    18      5       2.616001        248.4418
2014    18      6       2.721148        251.0059
2014    18      7       1.714624        220.4626
2014    19      0       1.604156        215.0235
2014    19      1       1.316113        196.5335
2014    19      2       1.913195        227.5421
2014    19      3       0.9475293       163.8465
2014    19      4       0.7095031       137.1342
2014    19      5       1.03487         171.8616
2014    19      6       1.653715        214.4702
2014    19      7       2.000477        229.4716
2014    20      0       1.692108        215.7845
2014    20      1       1.279605        190.5267
2014    20      2       0.7880286       145.2697
2014    20      3       0.6052198       121.5984
2014    20      4       0.5039482       105.7705
2014    20      5       0.3139205       74.01375
2014    20      6       0.4043104       89.93204
2014    20      7       0.4971748       104.7516
2014    21      0       1.004461        166.7423
2014    21      1       1.283571        191.2051
2014    21      2       0.9721751       165.9115
2014    21      3       0.9119203       159.8451
2014    21      4       1.417825        200.2371
2014    21      5       1.797118        221.107
2014    21      6       1.624851        212.4125
2014    21      7       1.66225         213.6799
2014    22      0       1.339083        194.5839
2014    22      1       0.9355554       161.1011
2014    22      2       0.5512436       114.3016
2014    22      3       0.6637764       131.0249
2014    22      4       0.5404658       114.2266
2014    22      5       0.9859064       169.296
2014    22      6       1.204339        189.7474
2014    22      7       1.0708          179.3116
2014    23      0       0.5846326       121.617
2014    23      1       0.5976994       124.4708
2014    23      2       0.5442752       117.15
2014    23      3       0.7293711       140.7141
2014    23      4       1.100206        182.4131
2014    23      5       1.321972        201.3014
2014    23      6       0.6695332       135.1547
2014    23      7       0.325947        79.21705
2014    24      0       0.2645358       66.87497
2014    24      1       0.2998494       74.25466
2014    24      2       0.2741223       69.57262
2014    24      3       0.2275559       59.58747
2014    24      4       0.2316956       60.12642
2014    24      5       0.2389575       62.00665
2014    24      6       0.2797116       70.28953
2014    24      7       0.3222807       78.75374
2014    25      0       0.4515834       101.8117
2014    25      1       0.5647316       120.2627
2014    25      2       0.6120212       127.6546
2014    25      3       0.3961942       92.85443
2014    25      4       0.2671765       67.37505
2014    25      5       0.3400141       80.18942
2014    25      6       0.3543282       83.2753
2014    25      7       0.4107393       93.74395
2014    26      0       0.4261432       96.41451
2014    26      1       0.4571183       101.6136
2014    26      2       0.4691637       103.7837
2014    26      3       0.4732623       104.9387
2014    26      4       0.4756109       104.8709
2014    26      5       0.7969065       146.3132
2014    26      6       0.6161077       123.4324
2014    26      7       0.6611325       130.0127
2014    27      0       0.7377961       139.7503
2014    27      1       0.7450129       141.0562
2014    27      2       1.270302        192.2242
2014    27      3       2.201393        239.7034
2014    27      4       2.47339         247.3298
2014    27      5       2.666856        250.9531
2014    27      6       2.005963        235.3221
2014    27      7       2.107992        238.7817
2014    28      0       2.298336        244.7451
2014    28      1       2.479801        248.2616
2014    28      2       1.889339        229.478
2014    28      3       1.441202        207.0271
2014    28      4       1.318623        198.5336
2014    28      5       1.345771        200.0648
2014    28      6       1.364555        201.376
2014    28      7       1.363767        201.3591
2014    29      0       1.172922        187.157
2014    29      1       1.093129        180.0989
2014    29      2       0.9356966       165.2906
2014    29      3       0.8757685       158.7388
2014    29      4       0.9333001       164.339
2014    29      5       1.015654        171.7207
2014    29      6       0.7418886       140.5691
2014    29      7       0.5227484       109.0261
2014    30      0       0.7454965       139.3797
2014    30      1       1.526093        208.8665
2014    30      2       1.433816        203.8352
2014    30      3       1.084681        176.5746
2014    30      4       1.37891         199.6593
2014    30      5       1.650712        216.2623
2014    30      6       1.629931        214.962
2014    30      7       1.507646        207.4409
2015    1       0       2.180304        237.5068
2015    1       1       2.168145        238.1412
2015    1       2       1.657083        218.9593
2015    1       3       0.6833784       135.6547
2015    1       4       0.8384568       154.2288
2015    1       5       0.4135993       94.33359
2015    1       6       0.696806        135.4265
2015    1       7       1.070459        176.4383
2015    2       0       1.405354        201.3205
2015    2       1       2.003998        230.4678
2015    2       2       2.056104        233.5287
2015    2       3       1.766887        221.9689
2015    2       4       1.952667        228.847
2015    2       5       2.240371        237.9633
2015    2       6       1.738673        220.356
2015    2       7       1.768081        221.1176
2015    3       0       1.658744        216.1187
2015    3       1       1.807186        222.3835
2015    3       2       1.301623        194.8254
2015    3       3       0.8638556       156.9022
2015    3       4       0.4295265       97.81129
2015    3       5       0.2640764       65.3568
2015    3       6       0.4347836       95.95928
2015    3       7       0.6044199       120.7579
2015    4       0       1.100121        175.6277
2015    4       1       1.942347        226.9163
2015    4       2       1.474248        205.2372
2015    4       3       0.6417234       126.3534
2015    4       4       0.8744541       156.1853
2015    4       5       0.9113689       160.6737
2015    4       6       0.8365391       153.0031
2015    4       7       0.6240332       126.8257
2015    5       0       0.4360188       97.81253
2015    5       1       0.5228782       111.7075
2015    5       2       0.8128681       151.048
2015    5       3       0.7536027       143.5936
2015    5       4       0.7666682       144.2954
2015    5       5       1.413443        201.6137
2015    5       6       1.477441        204.8538
2015    5       7       1.396732        199.1063
2015    6       0       0.6440935       128.3042
2015    6       1       0.668247        131.6201
2015    6       2       0.6514557       131.2191
2015    6       3       0.8027403       151.3946
2015    6       4       0.6599993       132.7781
2015    6       5       0.4014102       91.49786
2015    6       6       0.2291611       59.03709
2015    6       7       0.2096625       54.96226
2015    7       0       0.4038063       92.70244
2015    7       1       0.4156437       94.45123
2015    7       2       0.2080778       54.14274
2015    7       3       0.2146899       54.69645
2015    7       4       0.2851574       68.44623
2015    7       5       0.2605891       64.95277
2015    7       6       0.216864        56.40569
2015    7       7       0.1609432       44.29735
2015    8       0       0.1461576       40.83416
2015    8       1       0.1689342       45.81464
2015    8       2       0.1506015       41.2297
2015    8       3       0.1879643       48.62932
2015    8       4       0.2246488       56.49837
2015    8       5       0.2572069       62.78422
2015    8       6       0.3251597       75.1297
2015    8       7       0.4934808       102.839
2015    9       0       0.4461465       95.56069
2015    9       1       0.3057747       71.50083
2015    9       2       0.3823333       85.15922
2015    9       3       0.4805383       101.1623
2015    9       4       0.4795811       101.0819
2015    9       5       0.491265        102.738
2015    9       6       0.7228981       137.3627
2015    9       7       1.180859        184.9168
2015    10      0       1.744718        219.9596
2015    10      1       1.999198        230.1565
2015    10      2       1.947822        228.0254
2015    10      3       1.503366        205.3941
2015    10      4       0.945548        163.3325
2015    10      5       0.7447393       141.0496
2015    10      6       0.7900908       143.9307
2015    10      7       0.8917564       155.3152
2015    11      0       0.6459739       127.4491
2015    11      1       0.3457081       79.7184
2015    11      2       0.85873         150.7522
2015    11      3       1.015933        166.8
2015    11      4       0.6043656       120.5747
2015    11      5       0.3655914       83.90683
2015    11      6       0.5509051       113.5994
2015    11      7       0.2198902       57.11961
2015    12      0       0.1504348       42.49317
2015    12      1       0.1486382       41.66478
2015    12      2       0.3645318       83.69032
2015    12      3       0.5984887       124.2009
2015    12      4       0.6285449       129.396
2015    12      5       0.6607978       132.3038
2015    12      6       0.6899102       134.9858
2015    12      7       0.8236916       151.0335
2015    13      0       0.6480582       129.5318
2015    13      1       0.305859        74.94296
2015    13      2       0.1805804       49.1022
2015    13      3       0.2353032       60.88328
2015    13      4       0.473902        103.2617
2015    13      5       0.5260939       111.4497
2015    13      6       0.4581509       100.4455
2015    13      7       0.3674486       84.64489
2015    14      0       0.251663        63.41977
2015    14      1       0.2880688       69.96828
2015    14      2       0.44559         96.95527
2015    14      3       0.5764106       117.7501
2015    14      4       0.6952184       134.9477
2015    14      5       0.7422016       141.0452
2015    14      6       1.004964        168.9693
2015    14      7       1.215309        187.7168
2015    15      0       1.35709         199.276
2015    15      1       1.438512        205.3552
2015    15      2       1.382282        201.4356
2015    15      3       1.352137        199.866
2015    15      4       1.128643        183.9272
2015    15      5       0.6617793       133.4017
2015    15      6       0.471873        104.5961
2015    15      7       0.3957052       91.78592
2015    16      0       0.3127236       76.47864
2015    16      1       0.2140403       56.29702
2015    16      2       0.3618984       85.45863
2015    16      3       0.30072         73.40234
2015    16      4       0.2441472       61.87501
2015    16      5       0.266669        66.80891
2015    16      6       0.4743979       105.0775
2015    16      7       0.6213509       127.7083
2015    17      0       0.9134082       163.3887
2015    17      1       1.146289        185.1637
2015    17      2       1.378569        202.6849
2015    17      3       1.194852        188.4651
2015    17      4       1.753227        221.8889
2015    17      5       1.801585        224.3903
2015    17      6       1.919322        228.9401
2015    17      7       1.987065        231.0991
2015    18      0       2.13396         236.8991
2015    18      1       1.405907        203.9152
2015    18      2       1.402184        202.879
2015    18      3       1.068744        177.0852
2015    18      4       0.8103092       149.7382
2015    18      5       0.4906605       105.1601
2015    18      6       0.5043468       107.827
2015    18      7       0.7746867       144.4267
2015    19      0       1.348904        196.8303
2015    19      1       1.41268         200.3691
2015    19      2       1.424335        201.085
2015    19      3       1.236638        188.1844
2015    19      4       1.26424         189.8397
2015    19      5       1.359608        195.9893
2015    19      6       1.528768        206.8794
2015    19      7       1.502591        205.063
2015    20      0       1.527817        206.6088
2015    20      1       1.473366        204.2655
2015    20      2       1.486548        204.802
2015    20      3       1.412659        200.7452
2015    20      4       1.186985        185.5927
2015    20      5       1.234005        189.0439
2015    20      6       1.273739        191.9367
2015    20      7       1.311945        194.9113
2015    21      0       1.475572        205.2158
2015    21      1       1.613286        211.9312
2015    21      2       1.465039        204.3464
2015    21      3       1.385461        200.3844
2015    21      4       1.42495         202.5215
2015    21      5       1.367154        198.3893
2015    21      6       1.300255        193.7499
2015    21      7       1.476585        204.6895
2015    22      0       1.386501        199.6874
2015    22      1       1.559282        210.733
2015    22      2       1.349714        197.9975
2015    22      3       1.226391        189.1119
2015    22      4       0.9297552       162.1567
2015    22      5       0.8238671       150.3788
2015    22      6       1.018252        171.062
2015    22      7       1.441885        204.602
2015    23      0       1.719943        219.5842
2015    23      1       1.83693         223.9807
2015    23      2       1.976808        230.0081
2015    23      3       1.921805        227.1279
2015    23      4       1.655138        215.8377
2015    23      5       1.909855        227.7827
2015    23      6       1.81248         223.909
2015    23      7       1.791885        223.2606
2015    24      0       1.817376        224.5257
2015    24      1       1.803659        223.8673
2015    24      2       1.575529        212.4706
2015    24      3       1.419697        203.2124
2015    24      4       1.278272        193.0516
2015    24      5       1.124621        180.5765
2015    24      6       0.942864        164.0974
2015    24      7       0.7160447       138.9251
2015    25      0       0.5785032       120.5243
2015    25      1       0.8696132       157.078
2015    25      2       0.7018509       136.8759
2015    25      3       0.4533206       100.4349
2015    25      4       0.3154742       75.94725
2015    25      5       0.3784341       87.46924
2015    25      6       0.4654069       102.2147
2015    25      7       0.4539795       100.0508
2015    26      0       0.4440661       97.95704
2015    26      1       0.8200842       150.4266
2015    26      2       0.7813964       145.9241
2015    26      3       0.4521779       98.85847
2015    26      4       0.3820662       87.09706
2015    26      5       0.4165572       93.37151
2015    26      6       0.4559124       99.68324
2015    26      7       0.4772953       103.0957
2015    27      0       0.859784        154.2263
2015    27      1       1.103718        177.9181
2015    27      2       1.042704        172.381
2015    27      3       0.7927002       146.4869
2015    27      4       0.8251139       150.0841
2015    27      5       0.7244201       138.1622
2015    27      6       0.9522167       162.675
2015    27      7       0.7326907       138.94
2015    28      0       0.968676        163.9802
2015    28      1       1.049709        172.0907
2015    28      2       0.8353254       151.4701
2015    28      3       0.6670565       131.8049
2015    28      4       0.4460831       99.11765
2015    28      5       0.3326971       78.7804
2015    28      6       0.3752547       86.32736
2015    28      7       0.3963572       90.21227
2015    29      0       0.5441798       114.4045
2015    29      1       0.9819541       168.3815
2015    29      2       1.156816        184.3622
2015    29      3       1.129313        182.0237
2015    29      4       0.9922111       169.6105
2015    29      5       0.7674587       145.2119
2015    29      6       0.5422472       114.4851
2015    29      7       0.4415335       98.41852
2015    30      0       0.6500793       130.5107
2015    30      1       0.9302966       163.8949
2015    30      2       0.7920614       148.276
2015    30      3       0.5404267       112.8215
2015    30      4       0.8641715       153.3848
2015    30      5       1.468441        205.2424
2015    30      6       1.40279         202.5506
2015    30      7       1.475252        206.8543
2016    1       0       0.2484418       63.11561
2016    1       1       0.2600817       65.45961
2016    1       2       0.2967413       72.74541
2016    1       3       0.3497297       82.70503
2016    1       4       0.3783568       86.93886
2016    1       5       0.6419427       126.0036
2016    1       6       1.596688        212.5434
2016    1       7       1.602352        214.9423
2016    2       0       1.145295        184.6721
2016    2       1       1.264945        195.8553
2016    2       2       1.337929        200.9743
2016    2       3       1.571089        215.1832
2016    2       4       1.327929        198.8299
2016    2       5       0.4569675       101.4314
2016    2       6       0.3079186       74.80108
2016    2       7       0.3478965       80.92502
2016    3       0       0.5933683       119.0756
2016    3       1       0.9586148       164.7003
2016    3       2       1.260081        191.9651
2016    3       3       1.529167        211.1569
2016    3       4       1.609195        216.8824
2016    3       5       1.040885        176.8693
2016    3       6       0.9056962       162.1729
2016    3       7       0.7235781       139.4649
2016    4       0       0.7922469       148.2026
2016    4       1       1.514702        213.2621
2016    4       2       2.57843         250.1246
2016    4       3       2.25032         242.347
2016    4       4       0.6204947       127.5717
2016    4       5       0.8861012       159.8558
2016    4       6       1.323864        196.6282
2016    4       7       1.164651        184.6612
2016    5       0       0.702164        136.8644
2016    5       1       0.9940866       170.7783
2016    5       2       1.127666        183.1341
2016    5       3       0.9877399       170.3126
2016    5       4       0.9295586       164.8695
2016    5       5       0.6717362       134.5888
2016    5       6       0.5486969       116.0714
2016    5       7       0.6173966       124.9285
2016    6       0       0.4736258       104.4766
2016    6       1       0.5464796       116.1049
2016    6       2       0.2449077       62.27071
2016    6       3       0.1780886       47.83756
2016    6       4       0.2061003       53.31892
2016    6       5       0.3547722       82.08333
2016    6       6       0.6410504       127.1326
2016    6       7       0.7698803       144.6691
2016    7       0       0.8358777       151.2469
2016    7       1       1.065381        177.1916
2016    7       2       0.6990351       134.9386
2016    7       3       1.0004          167.1939
2016    7       4       1.248987        187.1123
2016    7       5       1.013781        166.148
2016    7       6       0.670588        128.3
2016    7       7       0.750734        138.6756
2016    8       0       0.883928        153.1531
2016    8       1       0.8897902       153.4424
2016    8       2       0.9062459       155.3097
2016    8       3       0.737015        137.0003
2016    8       4       0.8113288       146.1497
2016    8       5       0.7523789       139.9136
2016    8       6       0.4652512       100.2981
2016    8       7       0.1874569       49.41652
2016    9       0       0.3148314       74.77358
2016    9       1       0.7707627       142.721
2016    9       2       0.4309683       96.19221
2016    9       3       0.3001165       72.93368
2016    9       4       0.1781945       47.93763
2016    9       5       0.2275484       57.69672
2016    9       6       0.3931324       88.54928
2016    9       7       0.3827571       87.26981
2016    10      0       0.2775694       67.90348
2016    10      1       0.3164713       75.04598
2016    10      2       0.3678386       84.81999
2016    10      3       0.4205807       94.64903
2016    10      4       0.3820284       88.1103
2016    10      5       0.2866506       70.35221
2016    10      6       0.2315613       59.21475
2016    10      7       0.2239314       58.07165
2016    11      0       0.2546529       63.62471
2016    11      1       0.3026011       72.26596
2016    11      2       0.3291294       76.82359
2016    11      3       0.3325254       77.26791
2016    11      4       0.2847785       68.55121
2016    11      5       0.2337005       58.91534
2016    11      6       0.2206212       56.60259
2016    11      7       0.2183468       56.42576
2016    12      0       0.207313        54.49381
2016    12      1       0.1970694       52.62787
2016    12      2       0.1922307       51.65148
2016    12      3       0.2044924       54.37538
2016    12      4       0.2165474       57.16283
2016    12      5       0.1884161       51.26939
2016    12      6       0.1580807       44.69791
2016    12      7       0.6731416       135.5919
2016    13      0       1.097695        181.097
2016    13      1       1.029511        174.0852
2016    13      2       0.919142        163.3317
2016    13      3       0.9537992       167.1092
2016    13      4       1.080807        179.229
2016    13      5       1.101718        180.3684
2016    13      6       1.491263        208.1706
2016    13      7       2.069831        234.0183
2016    14      0       2.15981         237.4575
2016    14      1       1.761035        222.9126
2016    14      2       1.527263        211.2405
2016    14      3       1.381806        202.1953
2016    14      4       2.06452         234.2108
2016    14      5       2.125806        235.2171
2016    14      6       2.030937        232.0365
2016    14      7       1.67177         217.8528
2016    15      0       1.506505        210.0388
2016    15      1       1.59533         215.804
2016    15      2       1.682233        220.8541
2016    15      3       1.195324        190.5009
2016    15      4       1.828603        226.5145
2016    15      5       2.567485        250.5102
2016    15      6       2.85791         256.1696
2016    15      7       2.107145        237.9506
2016    16      0       2.972111        257.2952
2016    16      1       2.950821        256.9199
2016    16      2       2.585451        250.9632
2016    16      3       1.600723        214.5452
2016    16      4       1.202524        187.5631
2016    16      5       1.514189        207.5743
2016    16      6       1.486086        207.5868
2016    16      7       2.381825        245.3607
2016    17      0       3.021546        258.4357
2016    17      1       3.103093        260.3672
2016    17      2       2.782163        254.9396
2016    17      3       2.702923        254.0112
2016    17      4       2.320748        244.8268
2016    17      5       1.61638         217.5568
2016    17      6       1.705548        220.5922
2016    17      7       1.844239        226.4927
2016    18      0       2.393285        245.5238
2016    18      1       2.576176        249.4437
2016    18      2       2.300731        242.696
2016    18      3       1.775351        224.1061
2016    18      4       1.089124        180.5446
2016    18      5       0.9389628       165.9078
2016    18      6       0.8608477       157.2122
2016    18      7       0.8229819       152.9496
2016    19      0       1.178964        187.1884
2016    19      1       1.304658        195.8979
2016    19      2       1.027096        173.2574
2016    19      3       0.788196        148.1833
2016    19      4       0.636306        128.4437
2016    19      5       0.574793        119.2419
2016    19      6       0.515242        110.1956
2016    19      7       0.5451733       114.1807
2016    20      0       0.4570018       100.2572
2016    20      1       1.203538        187.0947
2016    20      2       1.50805         207.5614
2016    20      3       1.818483        222.6336
2016    20      4       2.021473        230.5728
2016    20      5       2.149674        235.4312
2016    20      6       2.180827        236.3885
2016    20      7       2.104122        234.2423
2016    21      0       1.977783        230.6694
2016    21      1       1.990286        231.6464
2016    21      2       1.839299        226.1804
2016    21      3       1.601464        215.4893
2016    21      4       1.414624        204.9055
2016    21      5       1.203324        190.1928
2016    21      6       0.9820383       170.6611
2016    21      7       0.7776692       148.2949
2016    22      0       0.9174006       164.0029
2016    22      1       1.386151        203.8601
2016    22      2       1.350089        201.2379
2016    22      3       1.090443        180.7105
2016    22      4       0.9251697       164.7413
2016    22      5       0.918449        163.9571
2016    22      6       0.9336964       165.6166
2016    22      7       0.7290141       142.1416
2016    23      0       1.023991        174.6588
2016    23      1       1.536839        212.8607
2016    23      2       1.381151        203.6304
2016    23      3       1.560908        214.5517
2016    23      4       1.518992        212.3165
2016    23      5       1.568455        215.0269
2016    23      6       1.433727        206.5972
2016    23      7       1.561947        213.5455
2016    24      0       1.804839        225.2493
2016    24      1       2.495781        246.9983
2016    24      2       2.559042        248.1252
2016    24      3       2.329974        243.0404
2016    24      4       2.20086         238.8322
2016    24      5       2.075014        233.9445
2016    24      6       2.433855        245.1786
2016    24      7       2.121199        235.9376
2016    25      0       2.167544        237.6034
2016    25      1       2.388173        243.6378
2016    25      2       2.428535        244.8109
2016    25      3       2.513721        247.1088
2016    25      4       2.485535        246.7962
2016    25      5       2.480348        246.5433
2016    25      6       2.507339        247.1611
2016    25      7       2.327074        242.6235
2016    26      0       2.156825        238.0814
2016    26      1       2.187094        239.0705
2016    26      2       2.049458        234.7601
2016    26      3       1.959135        231.1774
2016    26      4       1.995849        231.9446
2016    26      5       2.166258        237.5432
2016    26      6       2.211502        239.0459
2016    26      7       2.223089        239.772
2016    27      0       2.216363        239.9311
2016    27      1       2.279092        242.0452
2016    27      2       2.287924        242.632
2016    27      3       2.370929        244.895
2016    27      4       2.372371        244.7544
2016    27      5       2.15848         238.5084
2016    27      6       2.046912        234.6715
2016    27      7       1.993934        232.8012
2016    28      0       2.34304         243.661
2016    28      1       2.549073        248.2043
2016    28      2       2.833234        253.9508
2016    28      3       2.427691        245.5845
2016    28      4       2.162231        238.3408
2016    28      5       2.453246        246.0972
2016    28      6       2.451575        245.6229
2016    28      7       2.695849        251.0813
2016    29      0       2.684738        250.8299
2016    29      1       2.563911        247.935
2016    29      2       2.445257        245.247
2016    29      3       2.167459        237.3592
2016    29      4       2.114378        235.4572
2016    29      5       2.064958        233.6896
2016    29      6       2.024809        232.3646
2016    29      7       1.913106        228.4949
2016    30      0       2.129547        236.3924
2016    30      1       2.325133        242.173
2016    30      2       2.262826        240.4371
2016    30      3       2.157314        238.1419
2016    30      4       1.607433        215.9479
2016    30      5       1.298169        196.2825
2016    30      6       1.457847        205.8728
2016    30      7       1.686635        218.4098
2017    1       0       1.528173        210.2247
2017    1       1       1.77114         222.2163
2017    1       2       1.526235        209.3682
2017    1       3       1.555361        211.8897
2017    1       4       1.287383        194.6055
2017    1       5       0.9347609       162.8488
2017    1       6       1.644785        214.8411
2017    1       7       1.917237        227.1718
2017    2       0       2.004785        230.7627
2017    2       1       1.93335         228.1747
2017    2       2       1.793256        222.0173
2017    2       3       1.627139        214.135
2017    2       4       1.647971        214.899
2017    2       5       1.75694         219.9
2017    2       6       1.668823        215.5569
2017    2       7       1.697755        216.8697
2017    3       0       1.771573        220.1004
2017    3       1       1.702588        216.7352
2017    3       2       1.598755        211.8884
2017    3       3       1.515388        207.3737
2017    3       4       1.204567        187.0875
2017    3       5       0.6954144       136.3836
2017    3       6       0.3430638       81.23791
2017    3       7       0.3678542       85.22293
2017    4       0       1.097088        178.4391
2017    4       1       1.375453        199.6143
2017    4       2       1.263938        191.8179
2017    4       3       0.7411617       141.4096
2017    4       4       0.3990374       91.47487
2017    4       5       0.3081435       75.21826
2017    4       6       0.2972945       72.25617
2017    4       7       0.6066864       122.0027
2017    5       0       1.262201        193.1858
2017    5       1       1.195418        189.3793
2017    5       2       1.561853        214.0573
2017    5       3       2.023097        233.957
2017    5       4       2.410037        244.7291
2017    5       5       2.421994        244.9569
2017    5       6       2.063241        235.4541
2017    5       7       2.149219        237.3493
2017    6       0       1.928583        229.1581
2017    6       1       1.706859        219.4339
2017    6       2       1.645601        216.4591
2017    6       3       1.564021        211.9876
2017    6       4       1.819236        224.504
2017    6       5       1.75557         220.4158
2017    6       6       1.99176         229.6109
2017    6       7       1.58563         211.1529
2017    7       0       1.515417        207.7777
2017    7       1       1.604751        212.6065
2017    7       2       1.580154        210.5601
2017    7       3       1.426835        201.7635
2017    7       4       1.733221        218.149
2017    7       5       1.202081        186.3238
2017    7       6       0.5119847       109.2281
2017    7       7       0.60484         122.7216
2017    8       0       1.338318        196.1958
2017    8       1       1.633812        213.9165
2017    8       2       1.969628        230.1695
2017    8       3       1.691899        218.761
2017    8       4       1.553051        210.7774
2017    8       5       1.699762        218.1859
2017    8       6       2.21258         237.1933
2017    8       7       2.195246        237.217
2017    9       0       1.953455        228.5386
2017    9       1       1.364566        196.2081
2017    9       2       0.8945596       155.9761
2017    9       3       0.5987268       119.7005
2017    9       4       1.192713        182.4494
2017    9       5       1.036807        169.9743
2017    9       6       0.8495383       151.4879
2017    9       7       1.235559        186.3538
2017    10      0       1.613239        210.6101
2017    10      1       1.316093        190.628
2017    10      2       1.535423        205.1517
2017    10      3       1.15326         180.8336
2017    10      4       1.045885        171.1394
2017    10      5       0.9950313       166.5368
2017    10      6       0.829225        149.3915
2017    10      7       0.8625446       151.6811
2017    11      0       1.182736        180.7839
2017    11      1       1.184187        181.6123
2017    11      2       0.6722305       130.9095
2017    11      3       0.5279029       110.2425
2017    11      4       0.5434327       111.852
2017    11      5       0.5358577       112.5487
2017    11      6       0.5374497       112.6562
2017    11      7       0.607036        123.3485
2017    12      0       0.6156852       123.6469
2017    12      1       1.170289        184.068
2017    12      2       0.9460823       164.5398
2017    12      3       0.9650637       166.3974
2017    12      4       0.9773999       167.6365
2017    12      5       0.9679528       166.7144
2017    12      6       0.8811147       157.7694
2017    12      7       0.7955492       148.2758
2017    13      0       0.7841111       147.2292
2017    13      1       1.198782        187.6961
2017    13      2       1.527335        209.7745
2017    13      3       2.085541        234.1973
2017    13      4       1.428583        205.781
2017    13      5       1.151132        186.1529
2017    13      6       0.6844543       135.9179
2017    13      7       1.28551         196.5517
2017    14      0       1.602667        217.4897
2017    14      1       1.561999        215.0932
2017    14      2       1.464608        209.9863
2017    14      3       1.356775        203.323
2017    14      4       1.348581        202.7175
2017    14      5       1.157982        188.5468
2017    14      6       1.274885        196.9167
2017    14      7       1.210962        192.1633
2017    15      0       1.261039        195.5296
2017    15      1       1.105           182.405
2017    15      2       0.926303        165.0627
2017    15      3       0.9313194       165.0896
2017    15      4       2.03752         233.6503
2017    15      5       2.316879        241.76
2017    15      6       1.616969        214.0322
2017    15      7       1.000927        169.5213
2017    16      0       1.454754        203.5849
2017    16      1       1.307517        194.334
2017    16      2       1.061978        175.6121
2017    16      3       0.2473622       62.42708
2017    16      4       0.2944547       70.83504
2017    16      5       0.5298554       111.5195
2017    16      6       0.7518144       142.1192
2017    16      7       0.9499471       163.9375
2017    17      0       1.143699        183.4551
2017    17      1       1.224422        190.8528
2017    17      2       2.124615        236.2249
2017    17      3       2.075834        233.2173
2017    17      4       1.596055        209.6617
2017    17      5       1.400662        199.1802
2017    17      6       1.332528        194.0118
2017    17      7       1.166901        181.2141
2017    18      0       1.342393        193.7811
2017    18      1       1.172039        181.686
2017    18      2       1.515279        205.4838
2017    18      3       1.208379        184.7977
2017    18      4       1.10738         176.2846
2017    18      5       1.151186        180.2309
2017    18      6       0.9476821       162.1743
2017    18      7       0.9154695       160.0829
2017    19      0       0.9701855       165.7731
2017    19      1       1.063759        174.891
2017    19      2       0.9184777       160.7444
2017    19      3       0.7957173       147.1593
2017    19      4       0.5565692       115.8614
2017    19      5       0.4579564       100.8008
2017    19      6       0.4021768       91.59298
2017    19      7       0.4020112       91.50762
2017    20      0       0.5013256       107.9613
2017    20      1       0.7768811       146.275
2017    20      2       0.805296        150.0652
2017    20      3       0.7337739       140.8758
2017    20      4       0.9206221       160.5684
2017    20      5       1.059878        174.971
2017    20      6       1.050265        175.2188
2017    20      7       1.672433        217.3888
2017    21      0       1.740668        220.4896
2017    21      1       1.68129         217.3985
2017    21      2       1.508535        208.319
2017    21      3       1.028026        172.5008
2017    21      4       0.7520425       141.6276
2017    21      5       0.7974101       145.9765
2017    21      6       0.7462136       140.6083
2017    21      7       0.7333677       138.9553
2017    22      0       1.145268        181.7716
2017    22      1       1.245016        190.3994
2017    22      2       1.078127        177.4099
2017    22      3       1.416803        202.8614
2017    22      4       1.163384        184.6967
2017    22      5       0.9667261       167.6489
2017    22      6       0.7884262       147.6833
2017    22      7       0.5672167       117.6168
2017    23      0       0.9135856       160.9766
2017    23      1       1.501058        207.6257
2017    23      2       1.11559         180.5631
2017    23      3       0.7596036       145.0784
2017    23      4       0.6135069       125.552
2017    23      5       0.6303917       127.0035
2017    23      6       0.9585916       165.872
2017    23      7       1.1801          186.2646
2017    24      0       1.164934        185.9476
2017    24      1       1.18345         188.6965
2017    24      2       1.183932        189.4522
2017    24      3       1.133755        186.0048
2017    24      4       1.15296         187.5472
2017    24      5       1.051091        178.4569
2017    24      6       0.8347647       156.2014
2017    24      7       0.612529        127.7267
2017    25      0       0.6577909       134.3868
2017    25      1       1.49689         212.7327
2017    25      2       1.718443        223.536
2017    25      3       1.937041        231.6618
2017    25      4       2.035305        234.9562
2017    25      5       1.541599        212.4247
2017    25      6       2.098757        237.4484
2017    25      7       1.968899        233.3372
2017    26      0       1.510878        209.8489
2017    26      1       2.409723        244.3019
2017    26      2       2.308017        242.155
2017    26      3       2.359897        244.152
2017    26      4       1.807921        224.8715
2017    26      5       1.269285        192.0162
2017    26      6       1.077246        177.0553
2017    26      7       0.9231065       162.3993
2017    27      0       1.235833        190.4264
2017    27      1       1.32054         196.7672
2017    27      2       1.178657        186.1561
2017    27      3       1.328586        196.538
2017    27      4       1.30338         194.8454
2017    27      5       1.310008        195.3057
2017    27      6       1.450374        204.8173
2017    27      7       1.405332        201.4152
2017    28      0       1.681732        217.0493
2017    28      1       1.77463         222.1817
2017    28      2       1.649296        216.6473
2017    28      3       0.7336368       142.2214
2017    28      4       0.2922933       71.98879
2017    28      5       0.3854005       88.21788
2017    28      6       0.8793976       154.7225
2017    28      7       1.602382        211.5724
2017    29      0       2.092893        234.8571
2017    29      1       1.886757        229.2955
2017    29      2       1.393052        206.0374
2017    29      3       1.177742        190.2943
2017    29      4       1.252306        194.57
2017    29      5       1.364576        201.7138
2017    29      6       1.435348        205.8419
2017    29      7       1.697541        220.1556
2017    30      0       1.889985        228.1081
2017    30      1       1.940305        230.3732
2017    30      2       1.420561        205.7184
2017    30      3       0.8791181       159.3299
2017    30      4       0.5901341       122.1834
2017    30      5       0.5806734       120.061
2017    30      6       0.5513717       113.8992
2017    30      7       1.731637        218.1032
2018    1       0       0.4745917       104.2716
2018    1       1       0.935388        164.4597
2018    1       2       0.7132621       138.7007
2018    1       3       0.9226409       159.6526
2018    1       4       1.388793        199.6675
2018    1       5       1.428187        201.1382
2018    1       6       2.029696        231.413
2018    1       7       1.232762        189.0704
2018    2       0       2.004326        231.4533
2018    2       1       1.925516        229.1808
2018    2       2       1.789813        223.9851
2018    2       3       1.529113        209.1024
2018    2       4       1.703174        218.5024
2018    2       5       1.126559        181.6209
2018    2       6       0.8544204       155.3764
2018    2       7       0.5687411       118.4605
2018    3       0       0.8554205       153.8688
2018    3       1       1.343144        195.4584
2018    3       2       1.41688         199.6061
2018    3       3       1.291419        191.4107
2018    3       4       1.299382        191.7569
2018    3       5       1.277502        190.0743
2018    3       6       1.10505         176.8396
2018    3       7       0.9707926       165.0509
2018    4       0       1.044159        172.1109
2018    4       1       1.135152        179.5981
2018    4       2       1.22891         186.8188
2018    4       3       1.076505        174.7144
2018    4       4       1.136348        179.3275
2018    4       5       1.106368        176.699
2018    4       6       1.335989        194.9549
2018    4       7       0.8526479       154.3503
2018    5       0       1.016862        170.9058
2018    5       1       1.219525        186.6164
2018    5       2       1.470705        203.4793
2018    5       3       1.506907        205.4997
2018    5       4       1.496801        205.9592
2018    5       5       1.684448        215.9217
2018    5       6       1.106817        177.2942
2018    5       7       0.7287198       137.1595
2018    6       0       0.7921301       145.0124
2018    6       1       0.9413513       162.279
2018    6       2       0.6675153       131.7719
2018    6       3       0.6272273       127.0503
2018    6       4       0.9109349       161.3978
2018    6       5       0.9500588       165.1709
2018    6       6       0.6933179       136.1859
2018    6       7       0.7779256       146.7959
2018    7       0       1.111691        180.9311
2018    7       1       1.44158         204.81
2018    7       2       1.32782         196.7433
2018    7       3       1.108402        179.957
2018    7       4       0.7502211       142.8987
2018    7       5       0.6747089       132.819
2018    7       6       0.5270064       111.8627
2018    7       7       0.2780023       68.93739
2018    8       0       0.2074419       54.56737
2018    8       1       0.1801796       48.92127
2018    8       2       0.1607103       44.7754
2018    8       3       0.1576358       44.11039
2018    8       4       0.1442324       41.17163
2018    8       5       0.1272691       37.33816
2018    8       6       0.1178984       35.06598
2018    8       7       0.1225664       35.94541
2018    9       0       0.1250579       36.65938
2018    9       1       0.1356239       39.27015
2018    9       2       0.1539102       43.02195
2018    9       3       0.1766604       47.70195
2018    9       4       0.1758769       47.55657
2018    9       5       0.1986339       51.98515
2018    9       6       0.2602507       64.4677
2018    9       7       0.3190474       75.54924
2018    10      0       0.403204        90.63443
2018    10      1       0.5122477       108.608
2018    10      2       0.59141         120.3866
2018    10      3       0.5144064       108.5827
2018    10      4       0.5222068       109.7083
2018    10      5       0.6288628       125.4538
2018    10      6       0.7265717       138.587
2018    10      7       0.9399203       163.2594
2018    11      0       1.194078        186.6565
2018    11      1       1.463157        205.3254
2018    11      2       1.264415        192.6745
2018    11      3       0.5032208       108.9614
2018    11      4       0.4008977       92.27711
2018    11      5       0.4358602       98.35357
2018    11      6       0.2390989       60.21591
2018    11      7       0.2958395       70.45455
2018    12      0       0.7179327       139.3008
2018    12      1       0.7032255       138.2012
2018    12      2       0.6634764       133.4045
2018    12      3       0.6113564       125.8287
2018    12      4       0.6463824       130.8306
2018    12      5       0.6603004       132.6585
2018    12      6       0.5968013       124.1033
2018    12      7       0.4307179       97.95136
2018    13      0       0.3668332       86.48592
2018    13      1       0.3221265       77.79893
2018    13      2       0.3574467       84.1988
2018    13      3       0.5253379       112.7199
2018    13      4       0.3974566       91.24013
2018    13      5       0.3278539       78.48436
2018    13      6       0.302242        73.48311
2018    13      7       0.489111        107.6109
2018    14      0       0.7882101       150.3512
2018    14      1       0.8602088       158.894
2018    14      2       0.7707267       148.6062
2018    14      3       0.543463        117.1329
2018    14      4       0.4453275       100.9444
2018    14      5       0.4325194       98.58076
2018    14      6       0.4518911       101.6355
2018    14      7       0.4554192       102.1555
2018    15      0       0.4396148       99.543
2018    15      1       0.4373472       99.2382
2018    15      2       0.4032486       93.5061
2018    15      3       0.4324214       98.84672
2018    15      4       0.4889425       108.2883
2018    15      5       0.5625346       119.5665
2018    15      6       0.4287003       97.63613
2018    15      7       0.2254768       59.04602
2018    16      0       0.2551859       65.28007
2018    16      1       0.2707909       68.12013
2018    16      2       0.3879812       89.06455
2018    16      3       0.6103079       122.9952
2018    16      4       0.9337595       163.7664
2018    16      5       1.3759          201.1962
2018    16      6       1.424758        204.3751
2018    16      7       1.222262        190.7307
2018    17      0       1.784041        224.9214
2018    17      1       1.855508        227.9236
2018    17      2       1.672046        219.9491
2018    17      3       1.34558         200.5607
2018    17      4       1.456258        207.0459
2018    17      5       1.673929        218.168
2018    17      6       1.625062        215.4341
2018    17      7       1.776806        222.4323
2018    18      0       1.868894        226.9037
2018    18      1       2.027324        233.9746
2018    18      2       2.256201        242.8153
2018    18      3       2.12523         239.625
2018    18      4       1.641704        219.5101
2018    18      5       1.222782        192.8409
2018    18      6       1.234496        193.8886
2018    18      7       1.345294        201.1388
2018    19      0       1.165816        187.4306
2018    19      1       1.907091        230.9591
2018    19      2       1.973598        233.7586
2018    19      3       1.964152        233.4396
2018    19      4       1.781145        226.2218
2018    19      5       1.63831         219.8273
2018    19      6       1.558258        215.9055
2018    19      7       1.591396        217.7675
2018    20      0       1.765054        226.5174
2018    20      1       2.488931        250.6986
2018    20      2       2.055279        238.9257
2018    20      3       1.329216        202.2288
2018    20      4       1.510144        213.5302
2018    20      5       0.7785976       147.077
2018    20      6       0.5854867       119.6785
2018    20      7       0.8348397       150.924
2018    21      0       0.9933692       167.5163
2018    21      1       1.464559        206.8671
2018    21      2       1.955874        230.4509
2018    21      3       1.889949        227.2553
2018    21      4       1.884977        227.5756
2018    21      5       1.547819        210.967
2018    21      6       1.043223        173.0267
2018    21      7       0.8330325       150.4953
2018    22      0       0.847616        152.6787
2018    22      1       0.9308865       162.1437
2018    22      2       1.007581        170.4178
2018    22      3       0.937044        164.4813
2018    22      4       0.7444359       143.7635
2018    22      5       0.658707        132.7185
2018    22      6       0.6338522       129.2739
2018    22      7       0.5437309       116.1839
2018    23      0       0.4795305       105.9314
2018    23      1       0.4451717       100.247
2018    23      2       0.3716619       86.85558
2018    23      3       0.2830065       69.98331
2018    23      4       0.3541939       82.67519
2018    23      5       0.4799959       103.4357
2018    23      6       0.5734925       116.8632
2018    23      7       0.5158753       110.2997
2018    24      0       1.358699        200.1857
2018    24      1       1.61923         214.4646
2018    24      2       2.084876        233.8286
2018    24      3       1.767362        220.56
2018    24      4       1.482791        205.5931
2018    24      5       1.304835        192.6828
2018    24      6       1.224955        186.3305
2018    24      7       1.133283        176.6101
2018    25      0       1.377586        195.0846
2018    25      1       1.31345         193.1213
2018    25      2       0.7898889       146.8916
2018    25      3       0.2455997       62.72652
2018    25      4       0.2535594       64.40695
2018    25      5       0.219001        57.57121
2018    25      6       0.2076156       55.10198
2018    25      7       0.2183741       57.20739
2018    26      0       0.8718299       157.6197
2018    26      1       1.02781         173.0416
2018    26      2       0.6803126       134.0824
2018    26      3       0.3926869       90.2816
2018    26      4       0.3343759       79.73152
2018    26      5       0.4181516       94.55926
2018    26      6       0.4532984       100.2211
2018    26      7       0.4802273       104.499
2018    27      0       0.9926234       168.5094
2018    27      1       1.286839        192.0808
2018    27      2       1.338938        195.5672
2018    27      3       1.195197        185.1902
2018    27      4       1.040315        172.3205
2018    27      5       0.740066        140.4475
2018    27      6       0.6159189       124.0857
2018    27      7       0.9505196       163.7538
2018    28      0       1.064304        174.2273
2018    28      1       1.096003        176.6473
2018    28      2       0.9625574       164.1379
2018    28      3       0.512207        108.6191
2018    28      4       0.3348508       78.27453
2018    28      5       0.404595        90.19736
2018    28      6       0.4392492       96.69572
2018    28      7       0.3826832       87.63916
2018    29      0       0.8049599       149.0082
2018    29      1       1.075006        176.9348
2018    29      2       0.4919179       107.3688
2018    29      3       0.3139799       76.12436
2018    29      4       0.2943748       72.20082
2018    29      5       0.279131        68.95416
2018    29      6       0.2408069       61.2494
2018    29      7       0.2283755       58.70862
2018    30      0       0.2418187       61.28662
2018    30      1       0.2712527       66.80776
2018    30      2       0.3116275       73.62515
2018    30      3       0.2991117       71.34781
2018    30      4       0.3620578       83.56322
2018    30      5       0.4756536       102.8249
2018    30      6       0.4715132       102.3303
2018    30      7       0.7743446       145.8308
