####################################################################################################
# Month: 06Jun                                                                                     #
# Station: SPX                                                                                     #
# Frequency: 230 GHz                                                                               #
# Columns are: year    day     segment         tau     Tb (K)                                      #
####################################################################################################
2009    1       0       0.09335446      27.26447
2009    1       1       0.1196584       33.18153
2009    1       2       0.2105687       52.51131
2009    1       3       0.2460616       60.09146
2009    1       4       0.2380149       59.20687
2009    1       5       0.2150747       54.86849
2009    1       6       0.1304494       36.21798
2009    1       7       0.1288342       35.71855
2009    2       0       0.1227523       34.43481
2009    2       1       0.119531        33.86159
2009    2       2       0.1190066       33.73407
2009    2       3       0.1134211       32.34832
2009    2       4       0.1725775       45.85522
2009    2       5       0.1445349       39.63637
2009    2       6       0.08595303      25.92391
2009    2       7       0.07013256      21.94847
2009    3       0       0.08718621      25.93806
2009    3       1       0.160362        42.41428
2009    3       2       0.1919728       49.29623
2009    3       3       0.1105441       31.62775
2009    3       4       0.1240645       34.74218
2009    3       5       0.15305         41.32183
2009    3       6       0.1578696       42.42209
2009    3       7       0.1627329       43.5068
2009    4       0       0.1506127       40.72286
2009    4       1       0.2448634       59.54489
2009    4       2       0.1308194       36.29771
2009    4       3       0.04668624      16.19201
2009    4       4       0.0578549       18.83371
2009    4       5       0.06321939      20.22465
2009    4       6       0.06440147      20.58773
2009    4       7       0.05492535      18.26726
2009    5       0       0.03904467      14.15541
2009    5       1       0.1110568       31.09103
2009    5       2       0.1723104       44.64419
2009    5       3       0.1526309       40.58817
2009    5       4       0.1813585       46.63336
2009    5       5       0.2895844       68.8466
2009    5       6       0.4857489       102.7288
2009    5       7       0.4224502       92.47703
2009    6       0       0.2799018       66.79655
2009    6       1       0.3896098       87.23567
2009    6       2       0.2777456       66.65578
2009    6       3       0.3797474       85.00562
2009    6       4       0.3152634       73.28656
2009    6       5       0.3179403       73.52347
2009    6       6       0.3644784       81.71356
2009    6       7       0.3124826       72.35972
2009    7       0       0.2382681       58.08599
2009    7       1       0.1981665       50.27573
2009    7       2       0.1259907       34.76039
2009    7       3       0.1357128       37.0595
2009    7       4       0.3013313       70.62786
2009    7       5       0.3726523       83.3831
2009    7       6       0.2752069       65.95392
2009    7       7       0.2603581       62.85844
2009    8       0       0.3647762       81.722
2009    8       1       0.2176753       54.42181
2009    8       2       0.1894515       48.58189
2009    8       3       0.2565094       62.01713
2009    8       4       0.4559912       97.43215
2009    8       5       0.4655432       98.76311
2009    8       6       0.4564433       97.71566
2009    8       7       0.4313102       93.55134
2009    9       0       0.3683656       82.66906
2009    9       1       0.361771        81.47767
2009    9       2       0.3885751       86.21585
2009    9       3       0.3171821       73.59346
2009    9       4       0.3243265       74.56607
2009    9       5       0.2817893       66.40147
2009    9       6       0.3963656       87.23242
2009    9       7       0.3888805       86.42261
2009    10      0       0.2231428       55.87071
2009    10      1       0.1457287       39.30741
2009    10      2       0.0805193       24.20467
2009    10      3       0.1119141       31.3527
2009    10      4       0.1589492       42.15387
2009    10      5       0.1282806       35.2515
2009    10      6       0.2212641       54.87412
2009    10      7       0.3483593       79.89303
2009    11      0       0.362238        82.54487
2009    11      1       0.1250965       34.77534
2009    11      2       0.1004828       29.04439
2009    11      3       0.07863794      24.00224
2009    11      4       0.04784872      16.54667
2009    11      5       0.05731294      18.68732
2009    11      6       0.08284963      24.87405
2009    11      7       0.1549653       41.16761
2009    12      0       0.1547203       41.60851
2009    12      1       0.1438737       39.04539
2009    12      2       0.1952392       50.26284
2009    12      3       0.2419507       59.94618
2009    12      4       0.1792669       46.67015
2009    12      5       0.1850941       47.93523
2009    12      6       0.1916338       49.33468
2009    12      7       0.1678068       44.54847
2009    13      0       0.1101256       31.79837
2009    13      1       0.0964883       28.63498
2009    13      2       0.08464883      25.75476
2009    13      3       0.08355958      25.48114
2009    13      4       0.08300031      25.35556
2009    13      5       0.08056089      24.68884
2009    13      6       0.08159191      24.80829
2009    13      7       0.08691736      25.89654
2009    14      0       0.109666        31.1707
2009    14      1       0.155033        41.54692
2009    14      2       0.1542971       41.66104
2009    14      3       0.122428        34.16162
2009    14      4       0.1626041       43.02566
2009    14      5       0.2515999       61.71091
2009    14      6       0.4570094       98.86348
2009    14      7       0.6214327       124.2194
2009    15      0       0.5154027       108.8167
2009    15      1       0.6343337       125.7769
2009    15      2       0.612515        123.9092
2009    15      3       0.3774009       86.55542
2009    15      4       0.5085135       107.9021
2009    15      5       0.3369137       79.42526
2009    15      6       0.3189446       75.37391
2009    15      7       0.7339868       139.0668
2009    16      0       0.5702299       117.7941
2009    16      1       0.215925        55.59541
2009    16      2       0.08395534      25.46258
2009    16      3       0.07467398      23.12297
2009    16      4       0.08022247      24.08798
2009    16      5       0.1055373       30.00631
2009    16      6       0.09341641      27.1541
2009    16      7       0.07217909      22.25313
2009    17      0       0.06742285      21.17664
2009    17      1       0.09396863      27.38532
2009    17      2       0.09084815      26.80862
2009    17      3       0.08628321      25.95749
2009    17      4       0.09194362      27.55379
2009    17      5       0.09865318      29.29409
2009    17      6       0.09313857      27.84194
2009    17      7       0.1312963       36.26842
2009    18      0       0.1337042       36.94688
2009    18      1       0.1170161       33.04719
2009    18      2       0.1189049       33.72525
2009    18      3       0.1789875       47.78331
2009    18      4       0.4774896       105.0274
2009    18      5       0.6809856       134.3795
2009    18      6       0.6034005       122.4812
2009    18      7       0.5125211       109.2551
2009    19      0       0.6271215       126.0032
2009    19      1       0.4993113       106.8821
2009    19      2       0.4620745       101.4777
2009    19      3       0.4948853       106.419
2009    19      4       0.5493941       114.1971
2009    19      5       0.5403109       112.7409
2009    19      6       0.4518067       98.52006
2009    19      7       0.218791        55.74033
2009    20      0       0.04178711      15.10476
2009    20      1       0.03579793      13.46568
2009    20      2       0.05535516      18.17562
2009    20      3       0.06915787      21.62643
2009    20      4       0.1202966       33.27522
2009    20      5       0.200691        50.74327
2009    20      6       0.2437202       59.52092
2009    20      7       0.2154539       53.63464
2009    21      0       0.114474        32.09083
2009    21      1       0.09904274      28.66846
2009    21      2       0.08252322      25.00426
2009    21      3       0.1052593       30.13049
2009    21      4       0.1464004       39.24651
2009    21      5       0.237679        58.62699
2009    21      6       0.2627523       63.6424
2009    21      7       0.3641609       82.58244
2009    22      0       0.4137195       91.07012
2009    22      1       0.2260033       56.25323
2009    22      2       0.07264933      22.51186
2009    22      3       0.1695183       44.09444
2009    22      4       0.1970595       49.493
2009    22      5       0.2160916       53.02357
2009    22      6       0.3304848       75.27428
2009    22      7       0.1399272       37.66768
2009    23      0       0.1802848       46.35971
2009    23      1       0.2506494       60.64741
2009    23      2       0.332661        76.59342
2009    23      3       0.3410109       78.41903
2009    23      4       0.3136064       73.85349
2009    23      5       0.3203122       75.3461
2009    23      6       0.3560316       82.05494
2009    23      7       0.3249259       76.44444
2009    24      0       0.2624049       64.40962
2009    24      1       0.2934891       70.69721
2009    24      2       0.2611654       64.31796
2009    24      3       0.1951084       50.80227
2009    24      4       0.1483427       40.81801
2009    24      5       0.1319561       37.04937
2009    24      6       0.1322955       37.11698
2009    24      7       0.1493895       41.05911
2009    25      0       0.1676123       45.13363
2009    25      1       0.1774717       47.31915
2009    25      2       0.2133984       54.94918
2009    25      3       0.2439198       61.22155
2009    25      4       0.3108555       73.91846
2009    25      5       0.4185216       92.90716
2009    25      6       0.4475734       97.11886
2009    25      7       0.4081894       90.31381
2009    26      0       0.4060199       90.61759
2009    26      1       0.3846072       87.21228
2009    26      2       0.4228903       93.35356
2009    26      3       0.5595808       115.0841
2009    26      4       0.5812595       117.1733
2009    26      5       0.5545025       112.5926
2009    26      6       0.5850028       117.8856
2009    26      7       0.674425        130.7461
2009    27      0       0.6952293       133.8138
2009    27      1       0.5164945       108.8955
2009    27      2       0.3828324       86.95606
2009    27      3       0.5107971       108.1421
2009    27      4       0.5392716       112.5353
2009    27      5       0.583852        119.507
2009    27      6       0.4710133       102.3376
2009    27      7       0.3017627       72.50681
2009    28      0       0.2361846       59.49792
2009    28      1       0.2142372       55.16894
2009    28      2       0.1983487       51.8977
2009    28      3       0.1875741       49.67312
2009    28      4       0.2786562       68.8193
2009    28      5       0.3876489       89.56066
2009    28      6       0.3142473       76.08423
2009    28      7       0.32199         77.53209
2009    29      0       0.3176283       76.5016
2009    29      1       0.2604554       64.89366
2009    29      2       0.2590793       64.3174
2009    29      3       0.4422283       98.23982
2009    29      4       0.5239993       111.6773
2009    29      5       0.4980204       107.3675
2009    29      6       0.4494687       99.0492
2009    29      7       0.4255068       95.00446
2009    30      0       0.3687477       84.97755
2009    30      1       0.355967        82.63314
2009    30      2       0.3253041       77.00777
2009    30      3       0.3175276       75.48102
2009    30      4       0.3195927       75.72828
2009    30      5       0.3145729       74.63975
2009    30      6       0.3362858       78.23631
2009    30      7       0.341852        78.98292
2010    1       0       0.05631895      18.73918
2010    1       1       0.06136812      19.87297
2010    1       2       0.06655541      21.11203
2010    1       3       0.07875643      23.96765
2010    1       4       0.1236545       34.03109
2010    1       5       0.2372752       57.78875
2010    1       6       0.2566759       62.06153
2010    1       7       0.3167873       72.93532
2010    2       0       0.3284227       75.16608
2010    2       1       0.299097        69.67566
2010    2       2       0.1951927       49.46745
2010    2       3       0.1411757       38.20941
2010    2       4       0.1583462       41.89876
2010    2       5       0.122066        33.96438
2010    2       6       0.133302        36.7716
2010    2       7       0.1407244       38.60246
2010    3       0       0.1796249       47.22795
2010    3       1       0.2074504       53.12245
2010    3       2       0.2822013       68.11975
2010    3       3       0.4101446       90.27691
2010    3       4       0.3171149       74.30415
2010    3       5       0.2063852       53.15285
2010    3       6       0.2393583       60.03597
2010    3       7       0.2418637       60.50065
2010    4       0       0.2196454       56.00937
2010    4       1       0.2004018       52.11662
2010    4       2       0.1742187       46.64351
2010    4       3       0.1418118       39.45152
2010    4       4       0.08909194      27.05437
2010    4       5       0.05800532      19.36763
2010    4       6       0.04815797      16.85852
2010    4       7       0.04952246      17.22745
2010    5       0       0.05443541      18.47581
2010    5       1       0.056887        19.05486
2010    5       2       0.06003288      19.75505
2010    5       3       0.06167374      20.13985
2010    5       4       0.07367652      23.19172
2010    5       5       0.1411884       39.43641
2010    5       6       0.1648421       44.84017
2010    5       7       0.1576713       43.14882
2010    6       0       0.2271754       58.06919
2010    6       1       0.2294543       58.42612
2010    6       2       0.2331602       59.15207
2010    6       3       0.3192491       76.19016
2010    6       4       0.4834399       104.45
2010    6       5       0.5836102       119.7192
2010    6       6       0.5319612       111.0633
2010    6       7       0.6068677       121.6141
2010    7       0       0.4854638       103.6792
2010    7       1       0.08395932      25.4866
2010    7       2       0.06071082      19.8002
2010    7       3       0.08765267      26.33739
2010    7       4       0.09296486      27.59444
2010    7       5       0.08599232      25.93351
2010    7       6       0.08863345      26.59959
2010    7       7       0.09830862      28.96163
2010    8       0       0.09946925      28.99916
2010    8       1       0.1239205       34.40184
2010    8       2       0.1641598       43.53503
2010    8       3       0.2370366       59.02621
2010    8       4       0.3596566       82.25598
2010    8       5       0.4539464       98.54739
2010    8       6       0.4569603       98.44479
2010    8       7       0.5145529       107.5562
2010    9       0       0.3715897       84.5438
2010    9       1       0.2476225       61.04964
2010    9       2       0.2482469       61.22616
2010    9       3       0.2328554       58.44985
2010    9       4       0.2917236       70.37038
2010    9       5       0.342171        79.6235
2010    9       6       0.4168121       92.39965
2010    9       7       0.5512168       113.9771
2010    10      0       0.4368523       96.47135
2010    10      1       0.4631664       100.8771
2010    10      2       0.4637918       100.3218
2010    10      3       0.4285724       94.70925
2010    10      4       0.210977        53.74584
2010    10      5       0.1142213       32.85019
2010    10      6       0.1152984       33.36563
2010    10      7       0.139883        38.52382
2010    11      0       0.2244023       56.61535
2010    11      1       0.2292364       57.21448
2010    11      2       0.1628249       43.02199
2010    11      3       0.1634728       43.2808
2010    11      4       0.1633695       43.82317
2010    11      5       0.325579        77.28337
2010    11      6       0.3410944       80.45294
2010    11      7       0.2817707       69.28337
2010    12      0       0.437588        97.15255
2010    12      1       0.3055295       73.48683
2010    12      2       0.2435017       61.05325
2010    12      3       0.2492875       62.04925
2010    12      4       0.2593082       63.67956
2010    12      5       0.3739192       85.09588
2010    12      6       0.4438978       97.14517
2010    12      7       0.3601545       82.78857
2010    13      0       0.5057881       107.5482
2010    13      1       0.4989183       106.6352
2010    13      2       0.4107321       91.90669
2010    13      3       0.3957002       88.9915
2010    13      4       0.4991282       105.0727
2010    13      5       0.4778154       101.8245
2010    13      6       0.4562051       98.05018
2010    13      7       0.3522705       80.61804
2010    14      0       0.3571415       81.51167
2010    14      1       0.3624047       82.76663
2010    14      2       0.2846052       68.08515
2010    14      3       0.3753515       84.95995
2010    14      4       0.4529656       96.98067
2010    14      5       0.3923555       87.67423
2010    14      6       0.4215765       93.06117
2010    14      7       0.4123598       91.17315
2010    15      0       0.4417522       96.73266
2010    15      1       0.2948899       70.08156
2010    15      2       0.4287415       93.90436
2010    15      3       0.2648956       64.3832
2010    15      4       0.2806607       67.37618
2010    15      5       0.3544581       81.04826
2010    15      6       0.5175952       108.4992
2010    15      7       0.4682198       101.4274
2010    16      0       0.5290917       110.2614
2010    16      1       0.4599104       99.24889
2010    16      2       0.3362017       78.13648
2010    16      3       0.3054227       72.6651
2010    16      4       0.5478739       113.2471
2010    16      5       0.4664862       100.4147
2010    16      6       0.4224051       93.7273
2010    16      7       0.4504616       98.81484
2010    17      0       0.2714788       66.21219
2010    17      1       0.1417948       38.66878
2010    17      2       0.1744966       45.40624
2010    17      3       0.3580427       80.67115
2010    17      4       0.4717067       99.28329
2010    17      5       0.447169        95.71748
2010    17      6       0.4844625       101.4748
2010    17      7       0.3672693       82.39821
2010    18      0       0.3371269       77.28891
2010    18      1       0.3553919       80.823
2010    18      2       0.4019601       89.07062
2010    18      3       0.430141        94.41248
2010    18      4       0.351413        80.9055
2010    18      5       0.330096        76.5219
2010    18      6       0.2275801       56.3652
2010    18      7       0.1113273       31.36564
2010    19      0       0.08978272      26.4571
2010    19      1       0.1157927       32.34826
2010    19      2       0.2383681       57.90489
2010    19      3       0.379743        84.33467
2010    19      4       0.3634371       81.44605
2010    19      5       0.307766        71.22997
2010    19      6       0.1922092       48.53333
2010    19      7       0.1265147       34.30163
2010    20      0       0.1245369       33.73207
2010    20      1       0.1701232       43.51352
2010    20      2       0.2317575       56.26219
2010    20      3       0.2276969       55.89069
2010    20      4       0.2091346       52.3698
2010    20      5       0.2138274       53.65834
2010    20      6       0.2178855       54.57114
2010    20      7       0.1694369       44.627
2010    21      0       0.1497639       40.25638
2010    21      1       0.1163192       32.75821
2010    21      2       0.06785967      21.37694
2010    21      3       0.05598124      18.39306
2010    21      4       0.05838511      19.00319
2010    21      5       0.05378789      17.93183
2010    21      6       0.04564333      15.9312
2010    21      7       0.04092556      14.73585
2010    22      0       0.04299056      15.24525
2010    22      1       0.04937161      16.82501
2010    22      2       0.05675076      18.62507
2010    22      3       0.05883301      19.13256
2010    22      4       0.06113079      19.69469
2010    22      5       0.06476165      20.60804
2010    22      6       0.06497285      20.72429
2010    22      7       0.0622519       20.11635
2010    23      0       0.0665019       21.11167
2010    23      1       0.06624722      21.08991
2010    23      2       0.06698101      21.26358
2010    23      3       0.06920365      21.68545
2010    23      4       0.06448171      20.55137
2010    23      5       0.05933714      19.37843
2010    23      6       0.0584291       19.32951
2010    23      7       0.07059701      22.26931
2010    24      0       0.08859434      26.36757
2010    24      1       0.1020995       29.52704
2010    24      2       0.1003617       29.26073
2010    24      3       0.08338361      25.3522
2010    24      4       0.08463107      25.68559
2010    24      5       0.09239772      27.5562
2010    24      6       0.1014619       29.64578
2010    24      7       0.1112087       31.87151
2010    25      0       0.1155028       32.77335
2010    25      1       0.1209468       33.96463
2010    25      2       0.125808        35.08637
2010    25      3       0.13522         37.12199
2010    25      4       0.1598741       42.39121
2010    25      5       0.1658318       43.91832
2010    25      6       0.1504398       40.79816
2010    25      7       0.1462569       39.95163
2010    26      0       0.1422529       39.14825
2010    26      1       0.1356613       37.6435
2010    26      2       0.1119442       32.14372
2010    26      3       0.0901146       26.97767
2010    26      4       0.07719092      23.8831
2010    26      5       0.07776859      24.04011
2010    26      6       0.07048983      22.29077
2010    26      7       0.06752892      21.61055
2010    27      0       0.06307447      20.50556
2010    27      1       0.05973921      19.67448
2010    27      2       0.0545118       18.38108
2010    27      3       0.05273505      17.9603
2010    27      4       0.0602352       19.87196
2010    27      5       0.07742622      24.15643
2010    27      6       0.0826278       25.38789
2010    27      7       0.08750258      26.52838
2010    28      0       0.09871559      29.16566
2010    28      1       0.1103216       31.869
2010    28      2       0.1119196       32.22954
2010    28      3       0.1117005       32.17669
2010    28      4       0.1420689       39.17866
2010    28      5       0.1550084       42.06594
2010    28      6       0.1513975       41.2977
2010    28      7       0.1300363       36.45132
2010    29      0       0.1247648       35.16569
2010    29      1       0.1368027       37.80709
2010    29      2       0.1246357       34.86706
2010    29      3       0.1385822       37.87852
2010    29      4       0.3029553       71.79632
2010    29      5       0.3790228       85.17111
2010    29      6       0.3710012       83.91737
2010    29      7       0.3560061       81.79138
2010    30      0       0.2922388       70.75556
2010    30      1       0.179459        47.65466
2010    30      2       0.1437269       39.50952
2010    30      3       0.1833562       48.1462
2010    30      4       0.2939342       70.72817
2010    30      5       0.2271294       57.52914
2010    30      6       0.1735928       46.06794
2010    30      7       0.1804315       47.55549
2011    1       0       0.3811756       85.45445
2011    1       1       0.331852        76.94583
2011    1       2       0.2359359       58.61294
2011    1       3       0.2833864       67.81437
2011    1       4       0.4000519       88.28612
2011    1       5       0.2643703       64.01286
2011    1       6       0.2618008       63.93581
2011    1       7       0.2471988       61.04815
2011    2       0       0.2065545       52.59032
2011    2       1       0.2075938       52.78695
2011    2       2       0.2214083       55.66572
2011    2       3       0.2721438       65.67923
2011    2       4       0.2450035       60.41023
2011    2       5       0.3285964       76.35365
2011    2       6       0.3590256       81.81166
2011    2       7       0.2932645       70.2098
2011    3       0       0.3006452       71.7886
2011    3       1       0.3015044       71.97626
2011    3       2       0.2806938       67.94906
2011    3       3       0.3305864       77.22412
2011    3       4       0.3875858       86.89044
2011    3       5       0.4022457       88.66305
2011    3       6       0.4653276       99.27381
2011    3       7       0.4305474       94.50257
2011    4       0       0.3160369       74.08457
2011    4       1       0.3152065       74.1725
2011    4       2       0.3337119       77.69447
2011    4       3       0.369532        83.67147
2011    4       4       0.4195899       91.88063
2011    4       5       0.4148641       90.81734
2011    4       6       0.4258067       92.82091
2011    4       7       0.3195271       74.67727
2011    5       0       0.2477991       60.94036
2011    5       1       0.2520506       61.81556
2011    5       2       0.3026621       71.59193
2011    5       3       0.4737198       100.5985
2011    5       4       0.5353868       110.6554
2011    5       5       0.434311        94.06434
2011    5       6       0.3445424       79.17856
2011    5       7       0.3429293       78.37175
2011    6       0       0.3100144       72.29631
2011    6       1       0.420278        92.03165
2011    6       2       0.352455        80.30277
2011    6       3       0.2416611       58.97898
2011    6       4       0.4477176       95.77712
2011    6       5       0.4342837       94.62156
2011    6       6       0.2789188       67.29778
2011    6       7       0.2796909       67.63274
2011    7       0       0.2349601       58.87919
2011    7       1       0.1772789       46.9622
2011    7       2       0.158057        42.52298
2011    7       3       0.1756857       46.06988
2011    7       4       0.3199223       74.5952
2011    7       5       0.5669775       115.4531
2011    7       6       0.5891569       118.6124
2011    7       7       0.5097267       107.5709
2011    8       0       0.4362757       95.70638
2011    8       1       0.5081378       107.0675
2011    8       2       0.4407098       95.75818
2011    8       3       0.4213052       92.1753
2011    8       4       0.3997343       88.45207
2011    8       5       0.3720249       83.89046
2011    8       6       0.3686174       83.30441
2011    8       7       0.3496901       79.86429
2011    9       0       0.2859766       68.04552
2011    9       1       0.3121405       72.8553
2011    9       2       0.3290283       76.04708
2011    9       3       0.2162172       54.54773
2011    9       4       0.1878032       48.63044
2011    9       5       0.2087271       53.23737
2011    9       6       0.1971351       50.83471
2011    9       7       0.1313661       36.31997
2011    10      0       0.1355857       37.02544
2011    10      1       0.1583312       42.00372
2011    10      2       0.2070921       52.28893
2011    10      3       0.2063869       52.2393
2011    10      4       0.2119932       53.41662
2011    10      5       0.2466149       60.58681
2011    10      6       0.2483322       61.15916
2011    10      7       0.2146975       54.43391
2011    11      0       0.24212         60.03717
2011    11      1       0.1921202       49.56428
2011    11      2       0.1308448       36.08121
2011    11      3       0.1075109       30.75855
2011    11      4       0.1204857       33.75185
2011    11      5       0.1456761       39.04672
2011    11      6       0.1460981       38.92114
2011    11      7       0.1658537       43.11704
2011    12      0       0.1677277       43.78543
2011    12      1       0.1599905       42.2291
2011    12      2       0.1760789       45.81113
2011    12      3       0.1859653       48.08342
2011    12      4       0.2015806       51.56992
2011    12      5       0.2466565       60.7958
2011    12      6       0.2945112       70.2819
2011    12      7       0.4567714       98.47346
2011    13      0       0.5080088       106.3402
2011    13      1       0.283244        68.32307
2011    13      2       0.2084565       53.19346
2011    13      3       0.436876        95.48755
2011    13      4       0.4925097       104.6824
2011    13      5       0.3572109       81.98208
2011    13      6       0.3012671       71.67023
2011    13      7       0.2198505       55.6872
2011    14      0       0.198164        51.15784
2011    14      1       0.189029        49.2304
2011    14      2       0.19853         51.34463
2011    14      3       0.3137975       74.5644
2011    14      4       0.4754186       102.5741
2011    14      5       0.4561083       99.43016
2011    14      6       0.3593202       82.6156
2011    14      7       0.2758664       67.33972
2011    15      0       0.1584927       43.10189
2011    15      1       0.1153687       33.27405
2011    15      2       0.1175641       33.84659
2011    15      3       0.1647988       44.67797
2011    15      4       0.2443272       61.58504
2011    15      5       0.2621234       64.89302
2011    15      6       0.221307        56.27878
2011    15      7       0.1765425       46.68409
2011    16      0       0.1770209       46.81797
2011    16      1       0.1894714       49.57136
2011    16      2       0.1892543       49.57239
2011    16      3       0.346936        81.36887
2011    16      4       0.3859438       87.80377
2011    16      5       0.5394589       111.2563
2011    16      6       0.5694489       116.1202
2011    16      7       0.3753749       85.65064
2011    17      0       0.1749408       46.00574
2011    17      1       0.1873171       48.22529
2011    17      2       0.2184418       55.04141
2011    17      3       0.2612216       63.88768
2011    17      4       0.3455928       80.22583
2011    17      5       0.6707769       130.8208
2011    17      6       0.6869423       132.4238
2011    17      7       0.6387226       126.8761
2011    18      0       0.3438122       80.5189
2011    18      1       0.229339        57.92269
2011    18      2       0.436225        95.89356
2011    18      3       0.5550052       114.0759
2011    18      4       0.4428628       96.64098
2011    18      5       0.1573266       42.27026
2011    18      6       0.2176288       54.88597
2011    18      7       0.1426269       38.83542
2011    19      0       0.06250281      20.21162
2011    19      1       0.0516462       17.46363
2011    19      2       0.05619741      18.46066
2011    19      3       0.06911978      21.62657
2011    19      4       0.07427029      22.69359
2011    19      5       0.1127699       31.7666
2011    19      6       0.1520365       41.03806
2011    19      7       0.1864071       48.98779
2011    20      0       0.1412945       39.14421
2011    20      1       0.1348691       37.48271
2011    20      2       0.3664465       83.85061
2011    20      3       0.1966241       50.97928
2011    20      4       0.1763187       46.53759
2011    20      5       0.2828009       68.54001
2011    20      6       0.2592247       63.61679
2011    20      7       0.2116426       53.99302
2011    21      0       0.2746098       66.48968
2011    21      1       0.2416782       60.00008
2011    21      2       0.1959558       50.77083
2011    21      3       0.2476173       61.34087
2011    21      4       0.3070309       72.80465
2011    21      5       0.2001258       51.36419
2011    21      6       0.4661024       100.0494
2011    21      7       0.3270875       76.02616
2011    22      0       0.3748837       85.01146
2011    22      1       0.2244081       56.013
2011    22      2       0.2482152       61.0462
2011    22      3       0.344579        79.31003
2011    22      4       0.4138556       91.63234
2011    22      5       0.4151465       91.62697
2011    22      6       0.5802644       117.7499
2011    22      7       0.4985506       105.9939
2011    23      0       0.2015582       51.09753
2011    23      1       0.1451219       38.67503
2011    23      2       0.2908195       68.20779
2011    23      3       0.3086655       71.58579
2011    23      4       0.3457651       79.01319
2011    23      5       0.1726491       45.68858
2011    23      6       0.06832404      21.59249
2011    23      7       0.08804746      26.01901
2011    24      0       0.08367864      25.00209
2011    24      1       0.1325844       35.53742
2011    24      2       0.08090828      24.36673
2011    24      3       0.07381924      22.75195
2011    24      4       0.1046894       30.04132
2011    24      5       0.1092607       31.08467
2011    24      6       0.1556674       41.36242
2011    24      7       0.2573124       63.30425
2011    25      0       0.2740281       67.00066
2011    25      1       0.3144121       74.89494
2011    25      2       0.3107288       74.3941
2011    25      3       0.2513937       62.9492
2011    25      4       0.2353552       59.79745
2011    25      5       0.1508053       41.59068
2011    25      6       0.1873783       49.60202
2011    25      7       0.1455237       40.37944
2011    26      0       0.1042642       30.8017
2011    26      1       0.1018385       30.14493
2011    26      2       0.1038488       30.5398
2011    26      3       0.1353623       37.91467
2011    26      4       0.135956        38.05334
2011    26      5       0.1232564       35.06746
2011    26      6       0.1417959       39.31387
2011    26      7       0.1540059       42.10802
2011    27      0       0.1669321       44.90836
2011    27      1       0.1973324       51.42438
2011    27      2       0.170913        45.90688
2011    27      3       0.1497831       41.22369
2011    27      4       0.1417137       39.41801
2011    27      5       0.1324149       37.32693
2011    27      6       0.1266677       36.07548
2011    27      7       0.1009823       29.94959
2011    28      0       0.09875856      29.34878
2011    28      1       0.1313335       36.99631
2011    28      2       0.1438668       39.85893
2011    28      3       0.1271999       36.03811
2011    28      4       0.1302888       36.73645
2011    28      5       0.1568271       42.77395
2011    28      6       0.1739073       46.72104
2011    28      7       0.1885692       49.74507
2011    29      0       0.1852549       48.93715
2011    29      1       0.2035614       52.82612
2011    29      2       0.2340162       58.89357
2011    29      3       0.4000773       89.17821
2011    29      4       0.4657961       99.96295
2011    29      5       0.5498026       113.6496
2011    29      6       0.4553947       99.01855
2011    29      7       0.455409        98.94173
2011    30      0       0.2883358       69.55275
2011    30      1       0.4124967       91.51367
2011    30      2       0.1121982       32.38071
2011    30      3       0.04619171      16.21395
2011    30      4       0.05710755      18.96939
2011    30      5       0.1009441       29.47665
2011    30      6       0.1405572       38.46708
2011    30      7       0.1788229       46.55512
2012    1       0       0.2790208       67.35063
2012    1       1       0.1962373       50.57765
2012    1       2       0.1534142       41.20759
2012    1       3       0.1563736       41.9033
2012    1       4       0.1160183       32.94665
2012    1       5       0.1161683       33.04829
2012    1       6       0.1286562       35.74619
2012    1       7       0.08249296      25.09861
2012    2       0       0.07429211      23.10823
2012    2       1       0.08020703      24.50261
2012    2       2       0.07653716      23.53243
2012    2       3       0.08257052      24.83052
2012    2       4       0.1552965       41.12618
2012    2       5       0.1833133       47.65773
2012    2       6       0.2029788       51.88331
2012    2       7       0.3546608       80.80155
2012    3       0       0.5946887       119.0353
2012    3       1       0.4892433       104.7431
2012    3       2       0.3170744       74.69931
2012    3       3       0.3393728       78.77102
2012    3       4       0.5065645       106.4843
2012    3       5       0.6059121       121.7483
2012    3       6       0.5247661       109.3457
2012    3       7       0.4572042       98.05206
2012    4       0       0.3980007       87.60566
2012    4       1       0.1988158       50.45994
2012    4       2       0.2615108       63.43874
2012    4       3       0.2318051       57.50966
2012    4       4       0.1209737       34.07214
2012    4       5       0.06403103      20.38242
2012    4       6       0.1285289       35.52735
2012    4       7       0.1402155       38.4711
2012    5       0       0.04295209      15.34399
2012    5       1       0.04164915      14.76242
2012    5       2       0.08422473      25.01982
2012    5       3       0.1372304       37.14336
2012    5       4       0.2049238       52.13043
2012    5       5       0.2640888       64.30273
2012    5       6       0.2825406       67.59902
2012    5       7       0.3180931       74.4817
2012    6       0       0.3465882       78.95012
2012    6       1       0.3297858       76.77227
2012    6       2       0.4549887       97.96484
2012    6       3       0.3735821       84.62174
2012    6       4       0.3484972       80.61397
2012    6       5       0.2667121       64.86888
2012    6       6       0.2526494       62.00891
2012    6       7       0.2775405       67.04608
2012    7       0       0.5398274       112.5112
2012    7       1       0.3284665       76.81124
2012    7       2       0.3189984       74.91767
2012    7       3       0.3122593       74.35969
2012    7       4       0.3804266       86.45918
2012    7       5       0.3776377       84.83019
2012    7       6       0.370409        83.78812
2012    7       7       0.5819588       118.4675
2012    8       0       0.5165498       108.3715
2012    8       1       0.4832734       103.6559
2012    8       2       0.2333741       58.26374
2012    8       3       0.3892817       87.88837
2012    8       4       0.5045035       106.7989
2012    8       5       0.4205328       92.62513
2012    8       6       0.2643629       63.47026
2012    8       7       0.262431        63.30479
2012    9       0       0.1894606       48.68952
2012    9       1       0.1072366       30.4366
2012    9       2       0.0522288       17.50659
2012    9       3       0.05056612      17.17993
2012    9       4       0.0703965       21.96988
2012    9       5       0.1081126       30.64034
2012    9       6       0.2354062       57.80759
2012    9       7       0.4388616       94.7196
2012    10      0       0.3402928       78.0918
2012    10      1       0.2058016       52.15511
2012    10      2       0.1872586       48.2479
2012    10      3       0.1768095       46.23099
2012    10      4       0.1730419       45.45977
2012    10      5       0.2538603       61.9292
2012    10      6       0.4173438       91.39735
2012    10      7       0.3604611       82.39287
2012    11      0       0.2254734       56.82871
2012    11      1       0.2034232       51.82038
2012    11      2       0.2289503       56.8715
2012    11      3       0.2603658       63.2974
2012    11      4       0.3413127       78.62806
2012    11      5       0.356896        80.55839
2012    11      6       0.336332        76.02963
2012    11      7       0.3390722       77.12077
2012    12      0       0.2894121       68.76279
2012    12      1       0.4077168       89.37826
2012    12      2       0.3231704       74.18181
2012    12      3       0.3034706       70.37205
2012    12      4       0.2821342       66.35898
2012    12      5       0.3708693       82.86887
2012    12      6       0.3563105       80.22152
2012    12      7       0.2193393       54.4886
2012    13      0       0.1758559       45.56304
2012    13      1       0.1934902       49.14264
2012    13      2       0.1879548       47.87494
2012    13      3       0.3111987       71.96805
2012    13      4       0.2697397       64.14348
2012    13      5       0.3483424       77.91582
2012    13      6       0.267015        63.60828
2012    13      7       0.1686206       44.00521
2012    14      0       0.06664417      21.06962
2012    14      1       0.06569121      20.67729
2012    14      2       0.08205942      24.45948
2012    14      3       0.1038577       29.66617
2012    14      4       0.153548        40.75637
2012    14      5       0.2170875       54.4805
2012    14      6       0.2366002       58.66584
2012    14      7       0.2516272       62.01331
2012    15      0       0.2277417       57.21156
2012    15      1       0.1807325       47.26102
2012    15      2       0.1753492       46.09057
2012    15      3       0.2260855       56.83761
2012    15      4       0.2572183       63.33636
2012    15      5       0.2408176       60.3053
2012    15      6       0.2174904       55.55091
2012    15      7       0.1955142       51.04229
2012    16      0       0.1590448       43.03545
2012    16      1       0.1396175       38.82262
2012    16      2       0.1179823       33.8747
2012    16      3       0.1253986       35.61231
2012    16      4       0.145191        40.20476
2012    16      5       0.1962986       51.59354
2012    16      6       0.2012376       52.53835
2012    16      7       0.2053779       53.04811
2012    17      0       0.2751206       67.34852
2012    17      1       0.2599477       64.15717
2012    17      2       0.2539283       62.68522
2012    17      3       0.2484738       61.61907
2012    17      4       0.2405916       60.32795
2012    17      5       0.172717        46.04629
2012    17      6       0.1833539       48.87483
2012    17      7       0.4055859       92.36201
2012    18      0       0.3253156       77.57397
2012    18      1       0.2386083       60.22088
2012    18      2       0.1165384       33.31685
2012    18      3       0.1613206       43.59102
2012    18      4       0.2095176       53.4544
2012    18      5       0.2487949       61.37336
2012    18      6       0.3254157       75.5955
2012    18      7       0.4171654       91.31179
2012    19      0       0.3193683       74.44628
2012    19      1       0.3679497       83.09729
2012    19      2       0.2515247       62.07061
2012    19      3       0.3156754       74.24461
2012    19      4       0.4411873       96.57256
2012    19      5       0.495125        105.5918
2012    19      6       0.4337809       94.96623
2012    19      7       0.4540342       99.26628
2012    20      0       0.3589127       82.91932
2012    20      1       0.323534        76.24628
2012    20      2       0.3264483       76.51878
2012    20      3       0.3537049       81.55595
2012    20      4       0.3928623       87.8283
2012    20      5       0.4363481       95.80291
2012    20      6       0.3376255       78.71126
2012    20      7       0.261651        65.28944
2012    21      0       0.1482879       40.58994
2012    21      1       0.1688219       44.84763
2012    21      2       0.2470483       60.55466
2012    21      3       0.2937094       70.53369
2012    21      4       0.4026993       90.52521
2012    21      5       0.473349        101.3981
2012    21      6       0.3549384       80.98146
2012    21      7       0.3714829       83.82589
2012    22      0       0.05968558      19.71273
2012    22      1       0.05270969      17.66316
2012    22      2       0.04973968      16.95604
2012    22      3       0.06077101      19.70242
2012    22      4       0.08265977      24.87684
2012    22      5       0.09035448      26.65877
2012    22      6       0.1045455       29.95721
2012    22      7       0.09271717      27.37433
2012    23      0       0.09069155      26.7408
2012    23      1       0.143545        38.08041
2012    23      2       0.1265359       34.67751
2012    23      3       0.1048875       30.11314
2012    23      4       0.08551035      25.82638
2012    23      5       0.0845287       25.72798
2012    23      6       0.1148528       32.9194
2012    23      7       0.1387729       38.27784
2012    24      0       0.1578067       42.4607
2012    24      1       0.2510715       62.06559
2012    24      2       0.2237121       56.76051
2012    24      3       0.2445365       60.58268
2012    24      4       0.2983807       71.26193
2012    24      5       0.4834472       103.5869
2012    24      6       0.5535172       115.374
2012    24      7       0.4730748       102.7051
2012    25      0       0.4751553       103.289
2012    25      1       0.5971504       121.3774
2012    25      2       0.2980902       71.90463
2012    25      3       0.2017415       52.17772
2012    25      4       0.324184        76.71947
2012    25      5       0.2981208       71.66193
2012    25      6       0.249727        61.9372
2012    25      7       0.2524428       62.79374
2012    26      0       0.2731533       67.10263
2012    26      1       0.3484372       81.32844
2012    26      2       0.3617682       83.42048
2012    26      3       0.3633817       83.89603
2012    26      4       0.3443785       80.8765
2012    26      5       0.284154        69.6656
2012    26      6       0.2191247       56.29158
2012    26      7       0.1861826       48.95169
2012    27      0       0.1837043       48.24272
2012    27      1       0.2269057       57.4767
2012    27      2       0.265786        65.76245
2012    27      3       0.2498047       62.38403
2012    27      4       0.1577343       43.30248
2012    27      5       0.1330155       37.74992
2012    27      6       0.1055036       30.77896
2012    27      7       0.08464499      25.70107
2012    28      0       0.1362157       37.55493
2012    28      1       0.1828098       48.03456
2012    28      2       0.1947254       50.29878
2012    28      3       0.3241804       76.19688
2012    28      4       0.4447258       98.48771
2012    28      5       0.4096751       92.37273
2012    28      6       0.3789171       87.17636
2012    28      7       0.3437389       81.21142
2012    29      0       0.2602697       64.12661
2012    29      1       0.1625523       43.84722
2012    29      2       0.1971223       51.38405
2012    29      3       0.1801898       48.17922
2012    29      4       0.1693262       45.9299
2012    29      5       0.2305483       59.32278
2012    29      6       0.3546837       83.51633
2012    29      7       0.4388491       98.52672
2012    30      0       0.2407094       61.47781
2012    30      1       0.1281596       36.55555
2012    30      2       0.1367814       38.53033
2012    30      3       0.1706934       46.10568
2012    30      4       0.2548097       63.96477
2012    30      5       0.3844424       88.60918
2012    30      6       0.3423271       80.73518
2012    30      7       0.2238274       57.06053
2013    1       0       0.3743517       84.16444
2013    1       1       0.3731399       83.87802
2013    1       2       0.2184168       54.96903
2013    1       3       0.226789        56.70464
2013    1       4       0.2725487       65.7335
2013    1       5       0.3005897       70.97963
2013    1       6       0.2169575       54.6725
2013    1       7       0.1321608       36.46605
2013    2       0       0.1010356       29.25787
2013    2       1       0.07137596      22.14724
2013    2       2       0.07368334      22.64527
2013    2       3       0.07482402      22.8762
2013    2       4       0.06633076      20.86495
2013    2       5       0.06510963      20.66895
2013    2       6       0.05974616      19.37082
2013    2       7       0.06787682      21.27679
2013    3       0       0.1124863       31.4426
2013    3       1       0.1514517       39.74292
2013    3       2       0.2106403       52.42862
2013    3       3       0.1330802       36.57417
2013    3       4       0.08144905      24.42204
2013    3       5       0.1182366       32.64199
2013    3       6       0.1891754       48.09753
2013    3       7       0.2279593       56.45707
2013    4       0       0.2004304       50.89271
2013    4       1       0.1427513       38.84876
2013    4       2       0.1342366       36.92179
2013    4       3       0.1481084       39.80633
2013    4       4       0.1597958       42.38593
2013    4       5       0.1706142       44.65142
2013    4       6       0.1636819       43.25141
2013    4       7       0.1440235       38.91499
2013    5       0       0.1272234       35.0899
2013    5       1       0.1234676       34.20665
2013    5       2       0.1155393       32.53277
2013    5       3       0.1373394       37.67636
2013    5       4       0.1833401       47.56831
2013    5       5       0.1536367       41.08867
2013    5       6       0.1643954       43.51628
2013    5       7       0.08916121      26.55453
2013    6       0       0.05918313      19.33022
2013    6       1       0.05495879      18.27805
2013    6       2       0.04754451      16.41208
2013    6       3       0.04594472      16.00233
2013    6       4       0.04782617      16.49121
2013    6       5       0.04057255      14.61172
2013    6       6       0.04346597      15.354
2013    6       7       0.0533945       17.84596
2013    7       0       0.07172357      22.31853
2013    7       1       0.08859611      26.33785
2013    7       2       0.09006212      26.67726
2013    7       3       0.09262073      27.25743
2013    7       4       0.08943071      26.44613
2013    7       5       0.08905654      26.29561
2013    7       6       0.09328888      27.27021
2013    7       7       0.09487167      27.69593
2013    8       0       0.09257259      27.26325
2013    8       1       0.0872698       26.09676
2013    8       2       0.07822028      24.00254
2013    8       3       0.07654984      23.55267
2013    8       4       0.1299442       35.8392
2013    8       5       0.3424914       77.84651
2013    8       6       0.3817673       84.56146
2013    8       7       0.3842543       85.10347
2013    9       0       0.2939449       70.01449
2013    9       1       0.2610223       63.30598
2013    9       2       0.1994637       50.71756
2013    9       3       0.3022483       70.76596
2013    9       4       0.3447362       78.72726
2013    9       5       0.356           80.77245
2013    9       6       0.2640588       63.09382
2013    9       7       0.2698189       64.11966
2013    10      0       0.2354167       57.82171
2013    10      1       0.2269387       56.317
2013    10      2       0.4349364       94.52855
2013    10      3       0.213705        53.8667
2013    10      4       0.2142828       54.23377
2013    10      5       0.3419711       78.89353
2013    10      6       0.3236937       75.33338
2013    10      7       0.3370686       78.05051
2013    11      0       0.2161875       54.63212
2013    11      1       0.1286332       35.66573
2013    11      2       0.1019763       29.59311
2013    11      3       0.1084847       31.26588
2013    11      4       0.1386827       38.32885
2013    11      5       0.1040423       30.31664
2013    11      6       0.07275424      22.72745
2013    11      7       0.06378331      20.51361
2013    12      0       0.06761149      21.44107
2013    12      1       0.104767        30.32384
2013    12      2       0.1781885       46.94746
2013    12      3       0.1969122       51.02923
2013    12      4       0.18665         48.66628
2013    12      5       0.1840023       47.75997
2013    12      6       0.2126632       53.96818
2013    12      7       0.232811        58.52179
2013    13      0       0.2769371       67.60354
2013    13      1       0.3017455       72.47432
2013    13      2       0.262246        64.74548
2013    13      3       0.2470117       61.77322
2013    13      4       0.231444        58.63869
2013    13      5       0.2215386       56.51766
2013    13      6       0.4616692       101.0937
2013    13      7       0.6001588       122.0237
2013    14      0       0.4757704       103.5389
2013    14      1       0.1200946       33.96989
2013    14      2       0.09897018      28.60879
2013    14      3       0.1343664       36.49771
2013    14      4       0.2001774       51.22098
2013    14      5       0.3400863       79.36848
2013    14      6       0.3291066       77.58453
2013    14      7       0.25105         62.68928
2013    15      0       0.2179638       55.84907
2013    15      1       0.2478657       62.18904
2013    15      2       0.250748        62.48792
2013    15      3       0.2864604       69.70541
2013    15      4       0.3131964       74.82432
2013    15      5       0.4042849       91.33937
2013    15      6       0.5780731       118.1667
2013    15      7       0.3462935       80.7866
2013    16      0       0.3185183       75.79286
2013    16      1       0.3290433       77.39026
2013    16      2       0.3162245       74.82074
2013    16      3       0.266968        65.06153
2013    16      4       0.1966625       51.08424
2013    16      5       0.2823662       68.39879
2013    16      6       0.3607511       82.27092
2013    16      7       0.3123939       73.71874
2013    17      0       0.2864875       69.86018
2013    17      1       0.2838872       69.76629
2013    17      2       0.2167148       55.88837
2013    17      3       0.1759409       47.07013
2013    17      4       0.1580905       43.06193
2013    17      5       0.3233069       76.8889
2013    17      6       0.401553        90.68122
2013    17      7       0.3949147       89.59621
2013    18      0       0.4339102       96.38467
2013    18      1       0.4685218       101.3106
2013    18      2       0.3442022       80.56109
2013    18      3       0.2568308       63.80113
2013    18      4       0.2348355       59.01218
2013    18      5       0.2444539       61.08134
2013    18      6       0.2669858       65.94232
2013    18      7       0.3136622       74.86459
2013    19      0       0.2443826       61.05603
2013    19      1       0.2501113       62.10986
2013    19      2       0.3003091       72.37468
2013    19      3       0.3852429       88.26948
2013    19      4       0.2746267       67.82164
2013    19      5       0.3124229       75.0831
2013    19      6       0.3172624       75.89116
2013    19      7       0.3130396       74.87152
2013    20      0       0.3031783       73.0603
2013    20      1       0.2765434       68.04705
2013    20      2       0.2971221       71.98472
2013    20      3       0.4018244       90.6491
2013    20      4       0.4954095       105.7309
2013    20      5       0.3353124       78.9425
2013    20      6       0.3837323       87.38116
2013    20      7       0.3596479       82.44373
2013    21      0       0.3592687       83.13021
2013    21      1       0.1415742       39.1085
2013    21      2       0.1443209       39.72169
2013    21      3       0.1841366       48.71713
2013    21      4       0.2444945       61.76
2013    21      5       0.4051199       91.70863
2013    21      6       0.48853         105.4653
2013    21      7       0.5207619       109.2219
2013    22      0       0.4925558       104.4766
2013    22      1       0.4796573       102.4287
2013    22      2       0.4181895       92.44623
2013    22      3       0.3518899       81.01593
2013    22      4       0.309808        73.56544
2013    22      5       0.2207901       56.3974
2013    22      6       0.1094368       31.58769
2013    22      7       0.1649186       44.27184
2013    23      0       0.2039483       52.88229
2013    23      1       0.1660112       44.7902
2013    23      2       0.1687384       45.38858
2013    23      3       0.1925581       50.37099
2013    23      4       0.2757775       67.30559
2013    23      5       0.2021778       52.15232
2013    23      6       0.1008796       29.41537
2013    23      7       0.07315908      22.65483
2013    24      0       0.2367602       58.782
2013    24      1       0.2923051       69.28542
2013    24      2       0.2765745       66.15581
2013    24      3       0.278174        66.51631
2013    24      4       0.3466296       79.35107
2013    24      5       0.2380224       59.21241
2013    24      6       0.165205        44.12581
2013    24      7       0.1407224       38.63486
2013    25      0       0.08550892      25.75786
2013    25      1       0.06767674      21.35839
2013    25      2       0.05489136      18.25692
2013    25      3       0.0603762       19.69532
2013    25      4       0.07818427      24.03611
2013    25      5       0.1357291       37.39194
2013    25      6       0.131811        36.46441
2013    25      7       0.1040751       30.09235
2013    26      0       0.08108967      24.61383
2013    26      1       0.04836506      16.62946
2013    26      2       0.0467701       16.1881
2013    26      3       0.05570284      18.32237
2013    26      4       0.05818911      18.91441
2013    26      5       0.0580233       18.90404
2013    26      6       0.08696804      25.92428
2013    26      7       0.08311804      25.04673
2013    27      0       0.08567618      25.69631
2013    27      1       0.09470809      27.67768
2013    27      2       0.1900139       48.05221
2013    27      3       0.3428358       77.43969
2013    27      4       0.3724728       83.01817
2013    27      5       0.3182895       73.26805
2013    27      6       0.3431758       77.63828
2013    27      7       0.1538504       40.86383
2013    28      0       0.08991495      26.17464
2013    28      1       0.1415908       37.51626
2013    28      2       0.1536506       40.30186
2013    28      3       0.204592        51.27764
2013    28      4       0.2521087       61.22424
2013    28      5       0.2435666       59.9196
2013    28      6       0.1938813       49.66495
2013    28      7       0.1828183       47.34174
2013    29      0       0.2037146       51.55798
2013    29      1       0.4147848       90.67325
2013    29      2       0.5089234       106.3488
2013    29      3       0.5230962       108.4005
2013    29      4       0.3729432       83.4561
2013    29      5       0.2610309       63.32886
2013    29      6       0.3112786       73.36881
2013    29      7       0.2283866       57.26516
2013    30      0       0.2044208       52.59797
2013    30      1       0.2201854       56.05553
2013    30      2       0.2214608       56.49712
2013    30      3       0.1897938       49.93543
2013    30      4       0.1760979       46.9209
2013    30      5       0.1134487       32.51465
2013    30      6       0.07061556      22.30246
2013    30      7       0.06416828      20.70416
2014    1       0       0.0665407       20.94209
2014    1       1       0.07552356      22.85762
2014    1       2       0.08810963      25.76887
2014    1       3       0.1186677       32.77537
2014    1       4       0.1140567       32.07682
2014    1       5       0.2075811       52.39676
2014    1       6       0.1458447       39.3822
2014    1       7       0.1750742       45.81161
2014    2       0       0.1449518       39.20261
2014    2       1       0.09942314      28.89553
2014    2       2       0.1028743       29.73323
2014    2       3       0.1984419       50.93726
2014    2       4       0.2530557       61.95618
2014    2       5       0.2695244       65.08749
2014    2       6       0.2533537       61.90764
2014    2       7       0.2600384       63.16256
2014    3       0       0.16168         42.57279
2014    3       1       0.1336798       36.30168
2014    3       2       0.1426265       38.35916
2014    3       3       0.2706848       65.37466
2014    3       4       0.3837635       86.22674
2014    3       5       0.3205221       74.83725
2014    3       6       0.2291557       57.00917
2014    3       7       0.2573207       62.10341
2014    4       0       0.2222119       55.38959
2014    4       1       0.2333639       57.60094
2014    4       2       0.2807941       66.83976
2014    4       3       0.4687961       99.62745
2014    4       4       0.3812069       85.90314
2014    4       5       0.4675459       100.0444
2014    4       6       0.431389        93.13817
2014    4       7       0.1067693       30.70231
2014    5       0       0.04449589      15.51625
2014    5       1       0.0726994       22.26453
2014    5       2       0.0997843       28.56889
2014    5       3       0.1664292       43.30633
2014    5       4       0.1654322       43.36462
2014    5       5       0.1757598       45.63741
2014    5       6       0.1692904       44.52312
2014    5       7       0.1733964       45.62774
2014    6       0       0.1648951       43.84716
2014    6       1       0.1644325       43.80407
2014    6       2       0.129059        36.00398
2014    6       3       0.1258009       34.79332
2014    6       4       0.1499508       40.10416
2014    6       5       0.2066258       52.59978
2014    6       6       0.2267239       56.5823
2014    6       7       0.2193712       55.323
2014    7       0       0.1985919       51.15767
2014    7       1       0.1850062       48.17066
2014    7       2       0.1687946       44.59146
2014    7       3       0.1377966       37.79101
2014    7       4       0.1415782       38.53574
2014    7       5       0.1591359       42.30003
2014    7       6       0.141241        38.7743
2014    7       7       0.1280451       36.08186
2014    8       0       0.1483344       40.77617
2014    8       1       0.1905673       49.87022
2014    8       2       0.2439242       60.81273
2014    8       3       0.2495896       62.06532
2014    8       4       0.2313417       58.18406
2014    8       5       0.221953        55.75231
2014    8       6       0.1580679       42.13997
2014    8       7       0.1271244       35.59049
2014    9       0       0.1584934       42.78325
2014    9       1       0.1798268       47.31643
2014    9       2       0.185036        48.1956
2014    9       3       0.1865942       48.38664
2014    9       4       0.1840141       47.96264
2014    9       5       0.2559396       62.68894
2014    9       6       0.4442761       97.08282
2014    9       7       0.4165972       92.42216
2014    10      0       0.3540202       80.40016
2014    10      1       0.2910528       69.25706
2014    10      2       0.2225327       55.99558
2014    10      3       0.25566         62.19856
2014    10      4       0.2995189       70.49633
2014    10      5       0.309298        72.90622
2014    10      6       0.3189382       75.03232
2014    10      7       0.2455364       60.3803
2014    11      0       0.1640236       43.32181
2014    11      1       0.09422563      27.89749
2014    11      2       0.1048255       30.3727
2014    11      3       0.1101487       31.72159
2014    11      4       0.14406         39.28222
2014    11      5       0.1831027       47.53445
2014    11      6       0.2104868       53.1697
2014    11      7       0.2380847       58.81218
2014    12      0       0.2006177       51.00742
2014    12      1       0.1662722       43.96748
2014    12      2       0.165753        43.94996
2014    12      3       0.2105619       52.94249
2014    12      4       0.2826          67.03551
2014    12      5       0.2979872       69.90569
2014    12      6       0.3266288       75.02708
2014    12      7       0.454551        97.31928
2014    13      0       0.4687752       100.4736
2014    13      1       0.3154777       74.31531
2014    13      2       0.2167148       55.11967
2014    13      3       0.4263375       93.73456
2014    13      4       0.6190135       123.0645
2014    13      5       0.5833602       118.2044
2014    13      6       0.3904051       87.93465
2014    13      7       0.224101        56.39735
2014    14      0       0.2158779       54.60052
2014    14      1       0.3128387       73.61369
2014    14      2       0.2037858       52.3631
2014    14      3       0.1969868       50.59481
2014    14      4       0.2389586       58.90962
2014    14      5       0.2368053       58.49813
2014    14      6       0.2770244       66.3244
2014    14      7       0.1866933       48.49802
2014    15      0       0.1115891       31.95947
2014    15      1       0.08526442      25.68528
2014    15      2       0.08333578      25.3928
2014    15      3       0.1127017       32.44481
2014    15      4       0.172629        45.82448
2014    15      5       0.1840498       48.25654
2014    15      6       0.1268529       35.57642
2014    15      7       0.07162358      22.53188
2014    16      0       0.05148755      17.52727
2014    16      1       0.04920359      16.94775
2014    16      2       0.05151368      17.50999
2014    16      3       0.05220357      17.66336
2014    16      4       0.05651044      18.76318
2014    16      5       0.05361305      18.03833
2014    16      6       0.05853491      19.17522
2014    16      7       0.07061554      21.94763
2014    17      0       0.08590693      25.34816
2014    17      1       0.1162725       32.10002
2014    17      2       0.1449362       38.28161
2014    17      3       0.1456561       38.83818
2014    17      4       0.2622393       62.96228
2014    17      5       0.2864149       67.79682
2014    17      6       0.3423163       77.95537
2014    17      7       0.4459387       95.31461
2014    18      0       0.3565603       80.54133
2014    18      1       0.2849023       67.47047
2014    18      2       0.2150499       53.57387
2014    18      3       0.2121973       53.05068
2014    18      4       0.3630749       81.72257
2014    18      5       0.397355        87.65279
2014    18      6       0.3484961       79.7127
2014    18      7       0.2773864       66.65236
2014    19      0       0.182168        47.32677
2014    19      1       0.1003492       29.14657
2014    19      2       0.08816535      26.33121
2014    19      3       0.2563211       62.63116
2014    19      4       0.2927742       69.21392
2014    19      5       0.3325799       76.89436
2014    19      6       0.2428895       60.01886
2014    19      7       0.1490562       40.29329
2014    20      0       0.1236199       34.06295
2014    20      1       0.2028327       51.44364
2014    20      2       0.2116003       53.48869
2014    20      3       0.230018        57.52806
2014    20      4       0.2308668       57.93737
2014    20      5       0.19421         50.40408
2014    20      6       0.1497429       40.84388
2014    20      7       0.1271115       35.7651
2014    21      0       0.1327824       37.17603
2014    21      1       0.1129176       32.48442
2014    21      2       0.09609844      28.38954
2014    21      3       0.09767449      28.82473
2014    21      4       0.08439984      25.74634
2014    21      5       0.07629076      23.78255
2014    21      6       0.07483839      23.41996
2014    21      7       0.07723195      24.00607
2014    22      0       0.1002407       29.38017
2014    22      1       0.2262748       56.86313
2014    22      2       0.2505656       62.16974
2014    22      3       0.2257314       57.01228
2014    22      4       0.3316922       76.79041
2014    22      5       0.4489415       96.72249
2014    22      6       0.4949241       105.5245
2014    22      7       0.3043256       71.71223
2014    23      0       0.3315842       77.30785
2014    23      1       0.2171042       54.21448
2014    23      2       0.2385061       58.20706
2014    23      3       0.3617191       81.13962
2014    23      4       0.4165127       91.18219
2014    23      5       0.4665992       98.74233
2014    23      6       0.5046636       104.4522
2014    23      7       0.6156991       121.6677
2014    24      0       0.6728435       129.8088
2014    24      1       0.6105887       121.1478
2014    24      2       0.512996        107.5965
2014    24      3       0.4396875       96.11236
2014    24      4       0.4566742       98.56735
2014    24      5       0.5391316       112.0604
2014    24      6       0.4115045       92.26181
2014    24      7       0.2389054       60.15816
2014    25      0       0.1021055       30.03056
2014    25      1       0.08736221      26.21278
2014    25      2       0.1411218       38.4229
2014    25      3       0.1557816       42.22336
2014    25      4       0.1542639       42.13901
2014    25      5       0.1093127       31.75629
2014    25      6       0.05969295      19.63695
2014    25      7       0.05802742      18.95987
2014    26      0       0.08270058      24.87805
2014    26      1       0.1082119       30.79597
2014    26      2       0.1203286       33.45755
2014    26      3       0.1181059       32.8516
2014    26      4       0.1083917       30.7873
2014    26      5       0.1136408       32.27572
2014    26      6       0.1387514       38.1565
2014    26      7       0.1744744       46.04881
2014    27      0       0.2043637       52.10198
2014    27      1       0.2139095       54.0631
2014    27      2       0.1831076       47.87369
2014    27      3       0.1532614       41.65005
2014    27      4       0.2678145       65.38641
2014    27      5       0.2732311       65.78995
2014    27      6       0.2717124       64.62799
2014    27      7       0.3058189       72.04517
2014    28      0       0.2342035       58.23083
2014    28      1       0.223039        55.99998
2014    28      2       0.2758651       66.54361
2014    28      3       0.4307075       94.67024
2014    28      4       0.3218702       74.96453
2014    28      5       0.5575756       112.7055
2014    28      6       0.5660471       113.5805
2014    28      7       0.379013        84.62799
2014    29      0       0.4816375       102.5405
2014    29      1       0.4562836       97.74952
2014    29      2       0.428348        92.97554
2014    29      3       0.4322756       93.67879
2014    29      4       0.2787113       66.79784
2014    29      5       0.3497442       79.27812
2014    29      6       0.4424555       95.23233
2014    29      7       0.4743806       100.1102
2014    30      0       0.4248069       92.28143
2014    30      1       0.2626565       63.65881
2014    30      2       0.08949642      26.70169
2014    30      3       0.07123859      22.39527
2014    30      4       0.05454787      18.18317
2014    30      5       0.05206651      17.51999
2014    30      6       0.06207619      19.96086
2014    30      7       0.0978125       28.58165
2015    1       0       0.2111369       53.12948
2015    1       1       0.20438         51.80504
2015    1       2       0.1480348       40.09271
2015    1       3       0.1841401       48.02172
2015    1       4       0.3061391       72.68301
2015    1       5       0.3721489       84.58193
2015    1       6       0.4223159       92.35385
2015    1       7       0.4255015       92.40497
2015    2       0       0.3703073       83.98516
2015    2       1       0.2842726       68.57659
2015    2       2       0.242693        60.47299
2015    2       3       0.3399087       78.7576
2015    2       4       0.351608        81.55761
2015    2       5       0.2688885       66.32686
2015    2       6       0.274957        67.68246
2015    2       7       0.2881158       70.28377
2015    3       0       0.277267        68.11029
2015    3       1       0.2762107       67.73943
2015    3       2       0.2859195       69.50164
2015    3       3       0.2958226       71.45835
2015    3       4       0.2920338       70.82254
2015    3       5       0.2623416       64.99131
2015    3       6       0.2320338       58.85276
2015    3       7       0.1981053       51.65185
2015    4       0       0.1724825       46.02451
2015    4       1       0.1594483       43.09958
2015    4       2       0.1536633       41.75811
2015    4       3       0.1548988       41.95872
2015    4       4       0.264968        65.17207
2015    4       5       0.3188871       75.83427
2015    4       6       0.3275628       77.69296
2015    4       7       0.3083503       74.00504
2015    5       0       0.3237974       76.77558
2015    5       1       0.3463819       80.7094
2015    5       2       0.3347309       78.43946
2015    5       3       0.3035913       72.55486
2015    5       4       0.294768        70.91506
2015    5       5       0.2976025       71.19576
2015    5       6       0.291626        70.19992
2015    5       7       0.3074899       73.22605
2015    6       0       0.2787549       66.73978
2015    6       1       0.2711364       65.65824
2015    6       2       0.1540474       41.8476
2015    6       3       0.1758518       46.74986
2015    6       4       0.2655639       65.40164
2015    6       5       0.2450302       60.76662
2015    6       6       0.2543792       62.20628
2015    6       7       0.2731101       65.61411
2015    7       0       0.294034        69.42081
2015    7       1       0.3119689       72.75841
2015    7       2       0.2306039       57.01135
2015    7       3       0.2522111       61.38177
2015    7       4       0.3032269       71.6392
2015    7       5       0.3064284       72.3431
2015    7       6       0.2908648       69.0298
2015    7       7       0.2697999       65.05506
2015    8       0       0.3138909       73.33293
2015    8       1       0.3563242       81.42563
2015    8       2       0.3302957       76.47747
2015    8       3       0.36027         81.3532
2015    8       4       0.5555749       111.9617
2015    8       5       0.5095129       106.0038
2015    8       6       0.4084051       90.63322
2015    8       7       0.2690676       65.04721
2015    9       0       0.2239546       55.85022
2015    9       1       0.1987752       50.73936
2015    9       2       0.1566697       41.93341
2015    9       3       0.1389032       38.05808
2015    9       4       0.1884859       48.70747
2015    9       5       0.228482        56.71007
2015    9       6       0.2827779       67.83889
2015    9       7       0.3583717       81.11499
2015    10      0       0.3399546       78.09727
2015    10      1       0.3148634       73.74577
2015    10      2       0.3116235       73.61643
2015    10      3       0.3703784       84.40034
2015    10      4       0.5983627       120.4661
2015    10      5       0.4911029       103.3972
2015    10      6       0.4038325       89.37531
2015    10      7       0.3140109       73.72125
2015    11      0       0.2498737       61.60433
2015    11      1       0.2629134       64.45499
2015    11      2       0.2886064       69.30551
2015    11      3       0.3717784       84.2412
2015    11      4       0.4389792       95.21371
2015    11      5       0.3568769       80.84903
2015    11      6       0.3109592       72.537
2015    11      7       0.2896833       68.73918
2015    12      0       0.3175981       74.57946
2015    12      1       0.3426333       79.38332
2015    12      2       0.242574        60.23786
2015    12      3       0.2593547       63.39895
2015    12      4       0.4221653       92.7592
2015    12      5       0.4351893       95.34567
2015    12      6       0.3684521       83.70179
2015    12      7       0.5288164       110.896
2015    13      0       0.4258474       93.94181
2015    13      1       0.3398368       78.81302
2015    13      2       0.3156228       74.20042
2015    13      3       0.4336001       95.65462
2015    13      4       0.451855        98.44125
2015    13      5       0.3698148       83.7453
2015    13      6       0.5005553       105.0173
2015    13      7       0.5079121       106.4192
2015    14      0       0.4585975       98.89974
2015    14      1       0.4950831       104.8933
2015    14      2       0.3072235       72.33252
2015    14      3       0.2520998       62.23438
2015    14      4       0.4683536       100.4345
2015    14      5       0.6096395       122.3862
2015    14      6       0.5086567       107.4817
2015    14      7       0.4953496       105.0256
2015    15      0       0.5540843       113.8966
2015    15      1       0.5066802       106.6122
2015    15      2       0.5259701       109.3891
2015    15      3       0.4518624       97.47119
2015    15      4       0.4783196       102.1525
2015    15      5       0.4635796       99.94036
2015    15      6       0.3778872       85.66515
2015    15      7       0.3465921       80.18704
2015    16      0       0.3448007       79.82754
2015    16      1       0.3656354       83.47076
2015    16      2       0.3535173       81.39078
2015    16      3       0.4636628       100.6114
2015    16      4       0.6292361       125.3185
2015    16      5       0.5712572       116.9178
2015    16      6       0.4244255       93.96896
2015    16      7       0.1563484       41.78706
2015    17      0       0.203114        51.90029
2015    17      1       0.145241        39.97926
2015    17      2       0.04857381      16.85098
2015    17      3       0.06473013      20.61718
2015    17      4       0.08837594      26.30571
2015    17      5       0.1041777       30.08716
2015    17      6       0.1396983       38.01023
2015    17      7       0.2306281       57.65061
2015    18      0       0.2290067       57.54241
2015    18      1       0.2083119       53.18142
2015    18      2       0.2688525       65.11564
2015    18      3       0.4059643       90.8499
2015    18      4       0.3716754       85.34789
2015    18      5       0.497527        106.5742
2015    18      6       0.5290312       111.5814
2015    18      7       0.6453126       128.2352
2015    19      0       0.3217781       75.49533
2015    19      1       0.2800961       67.28736
2015    19      2       0.1881044       48.85158
2015    19      3       0.08049557      24.38324
2015    19      4       0.09520253      27.67633
2015    19      5       0.129345        35.51892
2015    19      6       0.1888198       48.5328
2015    19      7       0.2190131       54.99569
2015    20      0       0.1852743       47.7826
2015    20      1       0.1959894       49.98843
2015    20      2       0.2546226       61.99308
2015    20      3       0.1153757       32.69275
2015    20      4       0.08545393      25.76694
2015    20      5       0.07131558      22.39441
2015    20      6       0.0617789       19.8797
2015    20      7       0.102582        29.20067
2015    21      0       0.2663584       63.43621
2015    21      1       0.3902569       86.5127
2015    21      2       0.2096707       53.15964
2015    21      3       0.09337293      27.47926
2015    21      4       0.141384        38.48071
2015    21      5       0.158255        41.81937
2015    21      6       0.1832837       47.21242
2015    21      7       0.5117531       107.3328
2015    22      0       0.3534328       81.42054
2015    22      1       0.2080591       52.86871
2015    22      2       0.2320422       57.71566
2015    22      3       0.273535        66.22008
2015    22      4       0.3477234       80.23022
2015    22      5       0.3119347       72.83315
2015    22      6       0.3438118       78.67018
2015    22      7       0.3560569       81.41828
2015    23      0       0.3310018       76.47874
2015    23      1       0.2828863       67.84383
2015    23      2       0.07159627      22.41092
2015    23      3       0.104238        30.01458
2015    23      4       0.094246        27.62041
2015    23      5       0.1130665       31.82512
2015    23      6       0.076934        23.55862
2015    23      7       0.08238416      24.78955
2015    24      0       0.08594551      25.6415
2015    24      1       0.09760426      28.46737
2015    24      2       0.09106878      26.95947
2015    24      3       0.07381697      22.88168
2015    24      4       0.06632084      20.95624
2015    24      5       0.07386231      22.68366
2015    24      6       0.08830402      26.09544
2015    24      7       0.127141        35.08754
2015    25      0       0.1556078       41.77251
2015    25      1       0.1624238       43.43014
2015    25      2       0.1522421       41.19178
2015    25      3       0.1832441       47.56283
2015    25      4       0.156203        41.69813
2015    25      5       0.149233        40.33822
2015    25      6       0.200916        51.21927
2015    25      7       0.2004678       51.41352
2015    26      0       0.2088801       53.45187
2015    26      1       0.2582557       63.73689
2015    26      2       0.3244187       76.46777
2015    26      3       0.3568359       82.5462
2015    26      4       0.3665464       84.49822
2015    26      5       0.4182151       93.2471
2015    26      6       0.4283244       94.6343
2015    26      7       0.2844108       68.68096
2015    27      0       0.2112115       53.67592
2015    27      1       0.3230446       75.79058
2015    27      2       0.307588        73.14941
2015    27      3       0.2753113       66.43347
2015    27      4       0.3200811       74.70537
2015    27      5       0.2474664       61.35219
2015    27      6       0.2062377       52.6996
2015    27      7       0.1160387       32.79111
2015    28      0       0.1112229       31.62706
2015    28      1       0.135205        37.2373
2015    28      2       0.1282428       35.83178
2015    28      3       0.1371452       37.87479
2015    28      4       0.2042986       52.27842
2015    28      5       0.2865458       69.25218
2015    28      6       0.2932362       71.21531
2015    28      7       0.2584329       64.24542
2015    29      0       0.2758817       67.5335
2015    29      1       0.4176348       93.23652
2015    29      2       0.4316071       94.85681
2015    29      3       0.3398866       78.81041
2015    29      4       0.3521227       81.41515
2015    29      5       0.4135746       92.91972
2015    29      6       0.4754396       103.5519
2015    29      7       0.4474285       99.12237
2015    30      0       0.4181088       94.22429
2015    30      1       0.4078075       92.45945
2015    30      2       0.3625162       84.4998
2015    30      3       0.3242887       77.47329
2015    30      4       0.2971086       72.37974
2015    30      5       0.2646569       66.086
2015    30      6       0.2394728       61.1167
2015    30      7       0.2166545       56.40721
2016    1       0       0.1842443       47.7888
2016    1       1       0.1463671       39.49399
2016    1       2       0.1503882       40.36372
2016    1       3       0.1632956       43.24913
2016    1       4       0.2345453       58.35485
2016    1       5       0.2832113       67.64167
2016    1       6       0.2733903       65.8942
2016    1       7       0.2097145       52.98786
2016    2       0       0.2351995       57.67533
2016    2       1       0.345726        78.35208
2016    2       2       0.4239906       91.91098
2016    2       3       0.3589672       81.31511
2016    2       4       0.3912645       88.05687
2016    2       5       0.3954196       89.11899
2016    2       6       0.296876        70.72309
2016    2       7       0.3023027       71.23613
2016    3       0       0.3185456       73.86354
2016    3       1       0.3415413       78.21977
2016    3       2       0.3311811       76.42153
2016    3       3       0.3511116       80.10556
2016    3       4       0.4818115       102.1884
2016    3       5       0.4917473       104.2047
2016    3       6       0.4878655       103.7866
2016    3       7       0.3761482       85.00576
2016    4       0       0.2602441       63.41129
2016    4       1       0.2344418       58.20299
2016    4       2       0.224578        56.0368
2016    4       3       0.3807723       85.48181
2016    4       4       0.4396169       95.44087
2016    4       5       0.4995197       105.1443
2016    4       6       0.4304088       94.29391
2016    4       7       0.3595517       82.19267
2016    5       0       0.3221231       75.3002
2016    5       1       0.2470792       60.80662
2016    5       2       0.2274325       56.82663
2016    5       3       0.3726588       83.92561
2016    5       4       0.4617851       99.0182
2016    5       5       0.4326876       94.14182
2016    5       6       0.4869545       103.2721
2016    5       7       0.4056054       90.34137
2016    6       0       0.3089341       72.94568
2016    6       1       0.2603177       63.58562
2016    6       2       0.1769816       46.34793
2016    6       3       0.2059341       52.59264
2016    6       4       0.2155442       54.6214
2016    6       5       0.184195        47.88737
2016    6       6       0.2006933       51.31018
2016    6       7       0.2033446       51.82957
2016    7       0       0.2274479       56.8219
2016    7       1       0.193085        49.59063
2016    7       2       0.2253757       56.37456
2016    7       3       0.3463285       78.86261
2016    7       4       0.3256101       75.05841
2016    7       5       0.2822651       66.52535
2016    7       6       0.3409727       76.93948
2016    7       7       0.3741407       82.99894
2016    8       0       0.4117927       89.69181
2016    8       1       0.5502954       111.4685
2016    8       2       0.6381718       124.1973
2016    8       3       0.6469635       125.9548
2016    8       4       0.6061262       120.7804
2016    8       5       0.5310509       108.9168
2016    8       6       0.5247831       108.8917
2016    8       7       0.6582477       127.9269
2016    9       0       0.5162726       107.6901
2016    9       1       0.6319723       124.5224
2016    9       2       0.5537428       113.3401
2016    9       3       0.4182959       91.41276
2016    9       4       0.3171559       73.51072
2016    9       5       0.1349926       36.82036
2016    9       6       0.06036833      19.63183
2016    9       7       0.06116901      19.84459
2016    10      0       0.08428733      25.36988
2016    10      1       0.1042998       30.01934
2016    10      2       0.1266863       35.2557
2016    10      3       0.149376        40.39757
2016    10      4       0.171341        45.13611
2016    10      5       0.1772108       46.21824
2016    10      6       0.1879975       48.25275
2016    10      7       0.3531387       80.15607
2016    11      0       0.4870444       103.0877
2016    11      1       0.4700515       100.3755
2016    11      2       0.3287408       76.29687
2016    11      3       0.323585        74.70426
2016    11      4       0.3002605       70.36188
2016    11      5       0.2057401       52.16112
2016    11      6       0.1865622       48.21659
2016    11      7       0.2390279       59.03295
2016    12      0       0.3127344       73.44429
2016    12      1       0.156322        41.60533
2016    12      2       0.2009597       50.56496
2016    12      3       0.4036992       89.0861
2016    12      4       0.4559577       98.24205
2016    12      5       0.4391058       95.50325
2016    12      6       0.4286015       93.13863
2016    12      7       0.3023749       71.25585
2016    13      0       0.2445073       60.04151
2016    13      1       0.264551        63.70395
2016    13      2       0.3114977       73.01184
2016    13      3       0.3786545       85.30092
2016    13      4       0.2795311       66.98863
2016    13      5       0.398592        88.46966
2016    13      6       0.2472588       60.62306
2016    13      7       0.2257986       56.33036
2016    14      0       0.2197197       55.26509
2016    14      1       0.2745084       66.04317
2016    14      2       0.3574818       81.19429
2016    14      3       0.4383643       94.6812
2016    14      4       0.3839852       85.7601
2016    14      5       0.2450063       59.83624
2016    14      6       0.294972        69.18343
2016    14      7       0.1489179       39.77148
2016    15      0       0.1893438       48.67229
2016    15      1       0.1352083       36.89635
2016    15      2       0.2131685       52.78637
2016    15      3       0.2253708       55.91795
2016    15      4       0.2600635       62.2169
2016    15      5       0.2480078       60.14864
2016    15      6       0.2668653       64.05432
2016    15      7       0.2537451       61.3779
2016    16      0       0.2335876       57.66819
2016    16      1       0.2385083       58.69102
2016    16      2       0.2590767       63.34064
2016    16      3       0.2200875       54.81153
2016    16      4       0.4721759       99.65184
2016    16      5       0.4051975       90.06868
2016    16      6       0.4219349       92.79829
2016    16      7       0.355129        80.34759
2016    17      0       0.2953334       68.73877
2016    17      1       0.238871        57.79643
2016    17      2       0.2209974       54.71946
2016    17      3       0.2293267       56.68217
2016    17      4       0.2924942       68.45922
2016    17      5       0.1728371       44.7057
2016    17      6       0.1770674       45.4416
2016    17      7       0.2325312       57.55295
2016    18      0       0.3330392       76.64845
2016    18      1       0.2354572       58.08117
2016    18      2       0.1857636       47.78468
2016    18      3       0.4041597       88.70463
2016    18      4       0.4130841       90.09924
2016    18      5       0.3884882       85.58775
2016    18      6       0.45986         98.04558
2016    18      7       0.5166698       107.443
2016    19      0       0.3546264       80.79245
2016    19      1       0.2265999       56.44831
2016    19      2       0.1790433       46.37053
2016    19      3       0.2586859       62.64348
2016    19      4       0.3424594       78.70583
2016    19      5       0.2834964       67.83142
2016    19      6       0.1378914       37.75909
2016    19      7       0.09903966      28.85661
2016    20      0       0.07005321      21.9585
2016    20      1       0.06012029      19.47933
2016    20      2       0.06871751      21.46671
2016    20      3       0.09305291      27.22457
2016    20      4       0.1156859       32.47683
2016    20      5       0.2042244       51.724
2016    20      6       0.4289144       93.67305
2016    20      7       0.5596571       115.9079
2016    21      0       0.3342949       79.44878
2016    21      1       0.272511        66.28518
2016    21      2       0.237713        59.05898
2016    21      3       0.2671496       64.83625
2016    21      4       0.4576737       100.0972
2016    21      5       0.4608853       101.0161
2016    21      6       0.2912783       70.97
2016    21      7       0.1371444       38.5382
2016    22      0       0.08925427      27.27209
2016    22      1       0.097522        29.25564
2016    22      2       0.09309012      28.13502
2016    22      3       0.09048661      27.44676
2016    22      4       0.116794        33.30806
2016    22      5       0.1527206       41.18758
2016    22      6       0.1687327       44.67527
2016    22      7       0.1751424       46.19127
2016    23      0       0.1483174       40.53387
2016    23      1       0.127978        36.08658
2016    23      2       0.1155265       33.28346
2016    23      3       0.1460037       39.74975
2016    23      4       0.1393755       38.17193
2016    23      5       0.1313768       36.67018
2016    23      6       0.1584456       42.49099
2016    23      7       0.1677132       44.80837
2016    24      0       0.2793804       67.43597
2016    24      1       0.3326303       77.40617
2016    24      2       0.2816647       68.32942
2016    24      3       0.2780463       67.5901
2016    24      4       0.2782887       67.83425
2016    24      5       0.317459        74.45467
2016    24      6       0.3999524       88.17195
2016    24      7       0.376499        84.76781
2016    25      0       0.4191686       92.02207
2016    25      1       0.4832876       102.6164
2016    25      2       0.5108444       106.1823
2016    25      3       0.396149        88.30865
2016    25      4       0.5039167       106.2678
2016    25      5       0.5202266       108.5812
2016    25      6       0.5106608       107.2505
2016    25      7       0.2203825       56.41495
2016    26      0       0.1065533       31.06835
2016    26      1       0.06110659      19.85984
2016    26      2       0.06632437      21.04077
2016    26      3       0.08622171      25.91127
2016    26      4       0.1244545       34.82519
2016    26      5       0.1622535       43.25763
2016    26      6       0.1380825       37.87357
2016    26      7       0.09023234      26.73172
2016    27      0       0.08363789      25.27192
2016    27      1       0.08824811      26.17004
2016    27      2       0.1287749       35.34535
2016    27      3       0.1284756       35.79775
2016    27      4       0.09675173      28.8077
2016    27      5       0.04350144      15.50824
2016    27      6       0.05121607      17.23384
2016    27      7       0.07847087      23.78679
2016    28      0       0.1172375       32.68535
2016    28      1       0.134491        36.72882
2016    28      2       0.16532         43.45721
2016    28      3       0.2127543       53.6978
2016    28      4       0.2519069       61.96499
2016    28      5       0.222123        56.54293
2016    28      6       0.2113506       54.58032
2016    28      7       0.1866156       49.36505
2016    29      0       0.1510263       41.4356
2016    29      1       0.1629287       44.0378
2016    29      2       0.1436769       39.64557
2016    29      3       0.1709533       45.68585
2016    29      4       0.1761651       46.79189
2016    29      5       0.2117696       54.51376
2016    29      6       0.2598721       63.61238
2016    29      7       0.4369631       95.07477
2016    30      0       0.4567486       98.22827
2016    30      1       0.5444875       111.3668
2016    30      2       0.4832745       103.4209
2016    30      3       0.4304533       93.20169
2016    30      4       0.4177237       91.8934
2016    30      5       0.3983597       88.4859
2016    30      6       0.4211487       92.37603
2016    30      7       0.3105761       74.01881
2017    1       0       0.1751099       46.00379
2017    1       1       0.1830191       47.62007
2017    1       2       0.2459948       61.014
2017    1       3       0.320313        75.13887
2017    1       4       0.3283107       76.16071
2017    1       5       0.3783304       84.71911
2017    1       6       0.4188272       91.32325
2017    1       7       0.4292881       93.42837
2017    2       0       0.4292          93.27742
2017    2       1       0.534967        109.9457
2017    2       2       0.5283942       108.977
2017    2       3       0.6675791       128.4761
2017    2       4       0.7554781       139.7864
2017    2       5       0.6981627       132.5964
2017    2       6       0.6382568       125.4245
2017    2       7       0.5131832       108.295
2017    3       0       0.3567259       82.6222
2017    3       1       0.2350901       59.24153
2017    3       2       0.2725276       66.45051
2017    3       3       0.5035473       106.9906
2017    3       4       0.5553475       114.3576
2017    3       5       0.6139121       123.1717
2017    3       6       0.5740379       117.7045
2017    3       7       0.6362054       125.8819
2017    4       0       0.5717762       116.179
2017    4       1       0.5147048       107.5763
2017    4       2       0.2061595       52.21441
2017    4       3       0.05997457      19.86148
2017    4       4       0.08128436      24.92224
2017    4       5       0.05648204      18.55072
2017    4       6       0.0833011       25.1277
2017    4       7       0.2685662       65.44018
2017    5       0       0.3843487       86.52295
2017    5       1       0.2965532       70.00051
2017    5       2       0.32293         74.90427
2017    5       3       0.4517889       97.68173
2017    5       4       0.4551178       98.06795
2017    5       5       0.4334743       95.07376
2017    5       6       0.3074333       72.82412
2017    5       7       0.2023908       52.22679
2017    6       0       0.1425272       39.22987
2017    6       1       0.1214679       34.1425
2017    6       2       0.1549167       41.34895
2017    6       3       0.4540365       97.15346
2017    6       4       0.4091317       89.34286
2017    6       5       0.07155076      22.3146
2017    6       6       0.04623864      16.0375
2017    6       7       0.1032906       29.73335
2017    7       0       0.1164232       32.80459
2017    7       1       0.07930339      23.91
2017    7       2       0.07381109      22.68988
2017    7       3       0.04219297      14.98754
2017    7       4       0.04990672      16.95031
2017    7       5       0.0418165       14.91438
2017    7       6       0.06415508      20.45789
2017    7       7       0.131653        36.31046
2017    8       0       0.1899601       49.35525
2017    8       1       0.2625655       63.7876
2017    8       2       0.2606581       63.71426
2017    8       3       0.239833        59.63318
2017    8       4       0.1832912       48.04958
2017    8       5       0.1305343       36.54
2017    8       6       0.1277882       35.8983
2017    8       7       0.1279007       35.66461
2017    9       0       0.1135938       32.24223
2017    9       1       0.1527813       41.01276
2017    9       2       0.2002247       51.13724
2017    9       3       0.257229        62.15362
2017    9       4       0.3460164       79.839
2017    9       5       0.2891583       69.96218
2017    9       6       0.3617459       83.31079
2017    9       7       0.3450552       79.75979
2017    10      0       0.2880067       68.64498
2017    10      1       0.3424556       79.39927
2017    10      2       0.3410401       79.8364
2017    10      3       0.375478        86.41696
2017    10      4       0.36732         85.33583
2017    10      5       0.3159835       76.02537
2017    10      6       0.2161176       55.60254
2017    10      7       0.1400931       38.55178
2017    11      0       0.1805189       47.438
2017    11      1       0.2975486       72.38199
2017    11      2       0.306968        74.39088
2017    11      3       0.3196947       77.00984
2017    11      4       0.3243128       77.9268
2017    11      5       0.3165018       76.37479
2017    11      6       0.3386809       80.17794
2017    11      7       0.3551346       82.41547
2017    12      0       0.3727485       86.38347
2017    12      1       0.3962506       91.06727
2017    12      2       0.3023492       73.53422
2017    12      3       0.1462331       40.5794
2017    12      4       0.2363145       60.72467
2017    12      5       0.2038186       53.80201
2017    12      6       0.1097834       32.16681
2017    12      7       0.07556217      23.40933
2017    13      0       0.08650456      25.94592
2017    13      1       0.130734        36.42531
2017    13      2       0.1700648       44.79486
2017    13      3       0.1544377       41.35951
2017    13      4       0.1565754       41.63841
2017    13      5       0.1552355       41.72926
2017    13      6       0.1556395       42.073
2017    13      7       0.2446039       61.1962
2017    14      0       0.3749674       85.42745
2017    14      1       0.3406762       79.53975
2017    14      2       0.3780469       86.0575
2017    14      3       0.3637431       83.67035
2017    14      4       0.4629802       100.3567
2017    14      5       0.4294405       94.99375
2017    14      6       0.4394859       96.75433
2017    14      7       0.3901575       88.24781
2017    15      0       0.469982        101.3159
2017    15      1       0.5045636       106.457
2017    15      2       0.450535        98.91378
2017    15      3       0.4203956       94.081
2017    15      4       0.4483347       98.46547
2017    15      5       0.4079806       91.69594
2017    15      6       0.3322692       78.12563
2017    15      7       0.283036        68.97871
2017    16      0       0.2787535       67.81686
2017    16      1       0.2949373       71.03719
2017    16      2       0.2953566       70.6318
2017    16      3       0.2830989       69.03415
2017    16      4       0.1879198       49.70216
2017    16      5       0.120675        34.0831
2017    16      6       0.164302        43.88351
2017    16      7       0.269789        66.22808
2017    17      0       0.2348833       59.48695
2017    17      1       0.1880527       49.51266
2017    17      2       0.1581552       42.92933
2017    17      3       0.1204511       34.23069
2017    17      4       0.1140097       32.8068
2017    17      5       0.1561268       42.41425
2017    17      6       0.140769        39.01787
2017    17      7       0.1334913       37.37606
2017    18      0       0.1184758       33.76116
2017    18      1       0.107165        31.08444
2017    18      2       0.107357        31.20456
2017    18      3       0.1179594       33.70452
2017    18      4       0.1235007       34.98582
2017    18      5       0.1211933       34.49578
2017    18      6       0.1224024       34.85177
2017    18      7       0.121604        34.73099
2017    19      0       0.1269659       36.03841
2017    19      1       0.1294491       36.64241
2017    19      2       0.122637        35.07711
2017    19      3       0.1151359       33.29908
2017    19      4       0.118911        34.16693
2017    19      5       0.1308785       36.95948
2017    19      6       0.1291197       36.5354
2017    19      7       0.114062        32.98378
2017    20      0       0.1043895       30.69287
2017    20      1       0.09942335      29.45259
2017    20      2       0.08962192      27.00045
2017    20      3       0.0870334       26.3597
2017    20      4       0.1565023       42.7187
2017    20      5       0.1803478       47.92668
2017    20      6       0.1641799       44.29926
2017    20      7       0.1562692       42.52139
2017    21      0       0.1499248       40.78563
2017    21      1       0.1730751       45.60437
2017    21      2       0.1787564       46.8386
2017    21      3       0.2309228       58.35763
2017    21      4       0.248458        61.96208
2017    21      5       0.2587608       63.71763
2017    21      6       0.2839147       68.83308
2017    21      7       0.2695876       66.24989
2017    22      0       0.2070612       53.56491
2017    22      1       0.2007733       52.30154
2017    22      2       0.1880081       49.48895
2017    22      3       0.18538         48.96085
2017    22      4       0.2011255       52.24146
2017    22      5       0.2180911       55.6443
2017    22      6       0.2608063       64.52436
2017    22      7       0.244083        61.58572
2017    23      0       0.1417795       39.14257
2017    23      1       0.1312807       36.70135
2017    23      2       0.2253362       57.49074
2017    23      3       0.2568094       63.09439
2017    23      4       0.2690572       65.98776
2017    23      5       0.1915701       50.16426
2017    23      6       0.1578699       42.59796
2017    23      7       0.141082        38.8723
2017    24      0       0.1726768       45.94837
2017    24      1       0.2777573       67.64287
2017    24      2       0.1938209       50.60496
2017    24      3       0.1207747       34.35676
2017    24      4       0.1751544       46.71403
2017    24      5       0.168422        44.85807
2017    24      6       0.2591785       64.14119
2017    24      7       0.3317788       78.35097
2017    25      0       0.4566057       99.69608
2017    25      1       0.4782891       103.3965
2017    25      2       0.3538968       80.59806
2017    25      3       0.1893053       49.30261
2017    25      4       0.1556352       42.15733
2017    25      5       0.2142285       54.78026
2017    25      6       0.1617257       43.63417
2017    25      7       0.1551046       42.37155
2017    26      0       0.1512544       41.45356
2017    26      1       0.1437957       39.64816
2017    26      2       0.1277428       36.02042
2017    26      3       0.1468986       40.13529
2017    26      4       0.204831        52.39803
2017    26      5       0.4552321       98.45678
2017    26      6       0.5405721       112.8414
2017    26      7       0.4782209       102.5799
2017    27      0       0.4729309       101.0114
2017    27      1       0.4370975       95.66635
2017    27      2       0.3634121       83.55037
2017    27      3       0.491873        105.6976
2017    27      4       0.5879759       120.493
2017    27      5       0.5229509       111.2903
2017    27      6       0.4551356       99.81759
2017    27      7       0.6552938       130.6067
2017    28      0       0.4324345       95.69693
2017    28      1       0.4719869       100.067
2017    28      2       0.6192514       121.6239
2017    28      3       0.5230546       109.1678
2017    28      4       0.5077123       106.8885
2017    28      5       0.4503237       98.24602
2017    28      6       0.4214605       92.76018
2017    28      7       0.5356824       110.5599
2017    29      0       0.5385083       111.3999
2017    29      1       0.5271671       110.0059
2017    29      2       0.2731804       66.22105
2017    29      3       0.1694544       44.71086
2017    29      4       0.3743743       83.69466
2017    29      5       0.2914441       69.06445
2017    29      6       0.3701833       82.72299
2017    29      7       0.3668314       81.82802
2017    30      0       0.4093193       89.21036
2017    30      1       0.3153899       73.27696
2017    30      2       0.1579326       41.87202
2017    30      3       0.1555853       41.55868
2017    30      4       0.1823481       47.18654
2017    30      5       0.216606        54.09251
2017    30      6       0.3084737       72.052
2017    30      7       0.4554075       98.04336
2018    1       0       0.2403862       59.6313
2018    1       1       0.2028236       52.1391
2018    1       2       0.2078971       53.23462
2018    1       3       0.3523104       81.35996
2018    1       4       0.3963939       88.81069
2018    1       5       0.3460229       80.07071
2018    1       6       0.2852868       68.6969
2018    1       7       0.2717282       65.44718
2018    2       0       0.2812624       67.12244
2018    2       1       0.1885158       48.66229
2018    2       2       0.1612926       43.16758
2018    2       3       0.2575615       63.02774
2018    2       4       0.2685264       65.64366
2018    2       5       0.2149669       54.67629
2018    2       6       0.1558682       41.97755
2018    2       7       0.1393522       38.2443
2018    3       0       0.2393959       58.98729
2018    3       1       0.3098319       72.28179
2018    3       2       0.3588863       81.47322
2018    3       3       0.3867918       86.13868
2018    3       4       0.3899589       87.0798
2018    3       5       0.4060647       89.89063
2018    3       6       0.3959182       88.51529
2018    3       7       0.3358638       77.54917
2018    4       0       0.3247336       75.45929
2018    4       1       0.331892        77.08628
2018    4       2       0.3625264       82.78688
2018    4       3       0.4328641       94.51952
2018    4       4       0.5082405       106.1183
2018    4       5       0.4974525       103.714
2018    4       6       0.4726402       100.3659
2018    4       7       0.5451552       112.1553
2018    5       0       0.5406869       112.103
2018    5       1       0.2941673       70.61627
2018    5       2       0.2662762       65.43998
2018    5       3       0.2519892       62.68281
2018    5       4       0.2400733       60.36758
2018    5       5       0.3444945       80.3307
2018    5       6       0.3379845       78.76254
2018    5       7       0.3045842       72.38115
2018    6       0       0.2834872       68.13084
2018    6       1       0.2596596       63.59751
2018    6       2       0.2527174       62.21775
2018    6       3       0.4659378       100.0076
2018    6       4       0.6131984       121.7077
2018    6       5       0.5929934       119.1947
2018    6       6       0.6062372       121.4017
2018    6       7       0.6267587       124.8336
2018    7       0       0.4887701       104.5235
2018    7       1       0.2997367       71.52518
2018    7       2       0.2750975       66.69197
2018    7       3       0.3177027       74.67611
2018    7       4       0.4723024       101.5133
2018    7       5       0.4399694       96.11609
2018    7       6       0.3534612       81.16193
2018    7       7       0.3286186       76.35345
2018    8       0       0.2613822       63.7841
2018    8       1       0.2854826       68.77929
2018    8       2       0.3136535       74.2573
2018    8       3       0.430722        95.13894
2018    8       4       0.4669556       100.677
2018    8       5       0.6238567       122.9382
2018    8       6       0.6065903       121.0769
2018    8       7       0.7483612       140.3865
2018    9       0       0.6129312       122.7416
2018    9       1       0.5797514       118.6345
2018    9       2       0.631579        126.6637
2018    9       3       0.7338082       139.8589
2018    9       4       0.6239158       125.2744
2018    9       5       0.4540948       99.33031
2018    9       6       0.3556197       82.3357
2018    9       7       0.3742736       85.4568
2018    10      0       0.3368997       78.64446
2018    10      1       0.2186252       55.63573
2018    10      2       0.2863845       69.30995
2018    10      3       0.4853782       104.1082
2018    10      4       0.4903337       105.3948
2018    10      5       0.4442751       97.54702
2018    10      6       0.4889433       104.8513
2018    10      7       0.3257206       76.69399
2018    11      0       0.2740827       66.64916
2018    11      1       0.332376        78.02935
2018    11      2       0.3596173       82.30417
2018    11      3       0.3596354       82.57276
2018    11      4       0.4864504       103.8203
2018    11      5       0.4038677       89.67581
2018    11      6       0.5761134       116.9943
2018    11      7       0.4727262       100.1244
2018    12      0       0.426894        94.18456
2018    12      1       0.5681229       116.6425
2018    12      2       0.4929574       104.9987
2018    12      3       0.3852893       87.32472
2018    12      4       0.5543534       114.7634
2018    12      5       0.4789315       102.4622
2018    12      6       0.4966965       104.9608
2018    12      7       0.5719373       115.7566
2018    13      0       0.4733053       101.2003
2018    13      1       0.5007472       105.3494
2018    13      2       0.4600282       99.20835
2018    13      3       0.3718809       84.6414
2018    13      4       0.2062703       52.62963
2018    13      5       0.07990132      24.39637
2018    13      6       0.05795623      19.17333
2018    13      7       0.05363081      18.13794
2018    14      0       0.04960043      17.14377
2018    14      1       0.05292727      17.97806
2018    14      2       0.04768661      16.68294
2018    14      3       0.03866846      14.39315
2018    14      4       0.03916229      14.45737
2018    14      5       0.04199675      15.15897
2018    14      6       0.04449286      15.6253
2018    14      7       0.05766087      18.70421
2018    15      0       0.06583946      20.63953
2018    15      1       0.07489359      22.83471
2018    15      2       0.1282835       35.26236
2018    15      3       0.218305        54.43294
2018    15      4       0.2452071       59.9186
2018    15      5       0.2277234       56.65815
2018    15      6       0.2133619       54.04598
2018    15      7       0.184102        48.05953
2018    16      0       0.1541211       41.43892
2018    16      1       0.1206132       33.93929
2018    16      2       0.09496312      28.1552
2018    16      3       0.08236897      25.13733
2018    16      4       0.09289149      27.55634
2018    16      5       0.1152609       32.63951
2018    16      6       0.1346083       37.06334
2018    16      7       0.1468507       39.99639
2018    17      0       0.1588657       42.8221
2018    17      1       0.1853528       48.83909
2018    17      2       0.177191        47.08256
2018    17      3       0.335473        79.56382
2018    17      4       0.3127353       74.92483
2018    17      5       0.3895351       88.23659
2018    17      6       0.4041269       90.62017
2018    17      7       0.3258819       76.94275
2018    18      0       0.2384495       60.02043
2018    18      1       0.1663062       44.72209
2018    18      2       0.1874939       49.26591
2018    18      3       0.1910606       49.82069
2018    18      4       0.1998117       51.45703
2018    18      5       0.1938761       50.42112
2018    18      6       0.2418619       61.07349
2018    18      7       0.328452        78.70117
2018    19      0       0.3341145       80.04876
2018    19      1       0.2077196       54.55363
2018    19      2       0.09674933      29.28591
2018    19      3       0.04057276      15.05646
2018    19      4       0.03406262      13.31563
2018    19      5       0.0429297       15.70107
2018    19      6       0.04893042      17.21802
2018    19      7       0.05611225      18.97795
2018    20      0       0.08184471      25.33556
2018    20      1       0.1239695       35.31542
2018    20      2       0.1570818       42.8739
2018    20      3       0.1722251       46.35335
2018    20      4       0.1905871       50.44252
2018    20      5       0.2146297       55.64071
2018    20      6       0.2139708       55.49247
2018    20      7       0.2046051       53.51177
2018    21      0       0.1886142       50.0831
2018    21      1       0.1868431       49.60609
2018    21      2       0.1647813       44.69942
2018    21      3       0.1729018       46.14477
2018    21      4       0.2380965       59.84489
2018    21      5       0.3407381       80.1306
2018    21      6       0.5155172       109.8266
2018    21      7       0.360073        83.16683
2018    22      0       0.2296888       57.62874
2018    22      1       0.0287558       11.72835
2018    22      2       0.04765915      16.58969
2018    22      3       0.04267701      15.25666
2018    22      4       0.05467028      18.19201
2018    22      5       0.05903955      19.24271
2018    22      6       0.07088793      22.05164
2018    22      7       0.07373349      22.80476
2018    23      0       0.0724674       22.61549
2018    23      1       0.09291158      27.29902
2018    23      2       0.1445275       39.05707
2018    23      3       0.1802179       47.12003
2018    23      4       0.1676471       44.56312
2018    23      5       0.1311471       36.48013
2018    23      6       0.128319        35.79681
2018    23      7       0.1283088       35.6396
2018    24      0       0.1234838       34.49826
2018    24      1       0.1890769       48.53669
2018    24      2       0.2847112       67.72603
2018    24      3       0.2898902       69.0221
2018    24      4       0.2831777       67.80193
2018    24      5       0.359589        81.79896
2018    24      6       0.3129506       73.55714
2018    24      7       0.2297193       57.19413
2018    25      0       0.2199854       55.1091
2018    25      1       0.2489106       61.02672
2018    25      2       0.2296093       57.59976
2018    25      3       0.09186487      27.34298
2018    25      4       0.05866508      19.25594
2018    25      5       0.07797417      23.89584
2018    25      6       0.09560601      27.93852
2018    25      7       0.1741011       45.86648
2018    26      0       0.1958289       51.0878
2018    26      1       0.1356477       37.9373
2018    26      2       0.1112168       32.24909
2018    26      3       0.1245772       35.19992
2018    26      4       0.1214856       34.39996
2018    26      5       0.1017053       29.93649
2018    26      6       0.1115984       32.37154
2018    26      7       0.1196491       34.15349
2018    27      0       0.0940448       28.08574
2018    27      1       0.08649654      26.23122
2018    27      2       0.09414919      27.99035
2018    27      3       0.09803113      28.86622
2018    27      4       0.100431        29.41033
2018    27      5       0.09791672      28.923
2018    27      6       0.102772        30.02474
2018    27      7       0.0846219       25.5866
2018    28      0       0.06633159      21.09083
2018    28      1       0.06434702      20.61781
2018    28      2       0.1578715       42.16609
2018    28      3       0.2485956       61.33702
2018    28      4       0.3012358       71.6595
2018    28      5       0.3269345       76.72599
2018    28      6       0.3558768       82.02364
2018    28      7       0.3531887       81.93466
2018    29      0       0.3181636       75.39348
2018    29      1       0.2459825       61.57203
2018    29      2       0.267779        66.15218
2018    29      3       0.2695699       66.45353
2018    29      4       0.2713964       66.32817
2018    29      5       0.3297573       77.79388
2018    29      6       0.4394953       97.57331
2018    29      7       0.427379        95.52097
2018    30      0       0.368386        85.34327
2018    30      1       0.3129719       75.10811
2018    30      2       0.2602988       64.92389
2018    30      3       0.2313057       59.13367
2018    30      4       0.3080888       74.65515
2018    30      5       0.2618188       65.47639
2018    30      6       0.1777663       47.73915
2018    30      7       0.1323083       37.47964
