####################################################################################################
# Month: 01Jan                                                                                     #
# Station: SAS                                                                                     #
# Frequency: 345 GHz                                                                               #
# Columns are: year    day     tau     Tb (K)                                                      #
####################################################################################################
2009    1       1.65545475      216.420175
2009    2       1.64182962      216.168825
2009    3       1.15565752      182.1051875
2009    4       0.62802795      126.6307375
2009    5       0.29084757      71.20072375
2009    6       0.40066686      90.51944625
2009    7       0.65554723      127.80842
2009    8       1.23205138      189.7434125
2009    9       1.20234422      186.6551875
2009    10      1.25322612      191.2871625
2009    11      1.19447076      185.7313875
2009    12      1.17157285      181.688625
2009    13      1.452476        204.9770875
2009    14      1.24880269      190.080775
2009    15      1.36385225      198.920625
2009    16      1.33190475      195.9913
2009    17      0.6013883       122.6493
2009    18      0.80777574      148.481425
2009    19      0.6108713       120.50578875
2009    20      1.20942946      185.5099
2009    21      0.7871568       144.9987375
2009    22      0.74331378      138.1815
2009    23      1.10531106      178.514475
2009    24      0.74934973      140.5374
2009    25      0.6794388       129.43427875
2009    26      1.28743075      193.0853
2009    27      1.28577999      192.436175
2009    28      1.2351219       186.68915
2009    29      1.2102815       187.9037375
2009    30      1.11950444      180.0085625
2009    31      0.89214998      155.0784375
2010    1       1.08538651      174.3925375
2010    2       1.53847388      210.4294875
2010    3       1.79404212      223.9492625
2010    4       1.910886        229.544975
2010    5       1.7131995       219.5865375
2010    6       1.37915475      202.56555
2010    7       1.34373189      197.47585
2010    8       1.65999325      216.9381875
2010    9       1.66216762      218.273175
2010    10      1.6684325       218.17145
2010    11      1.815351        224.8953
2010    12      1.4802045       206.626325
2010    13      1.61910088      215.1919375
2010    14      1.5197865       208.7136125
2010    15      1.3920214       199.2353375
2010    16      1.28403105      193.09665
2010    17      1.36137375      199.82795
2010    18      1.51160125      209.3452875
2010    19      1.34343525      196.98375
2010    20      1.09770248      173.8142625
2010    21      1.5292005       208.7801125
2010    22      1.7565115       221.567075
2010    23      1.57304175      211.8082125
2010    24      1.22075484      187.8979625
2010    25      1.23347347      188.76925
2010    26      0.74105484      138.0836
2010    27      0.77491544      144.298225
2010    28      1.05550299      171.370925
2010    29      0.80275761      143.953725
2010    30      1.30692975      191.7565375
2010    31      1.6564725       216.1863625
2011    1       0.35108741      82.09964375
2011    2       0.60352812      123.1455625
2011    3       0.81057112      149.6842375
2011    4       0.89465784      159.2335125
2011    5       1.01033739      170.933875
2011    6       1.484614        206.7307375
2011    7       1.36242688      198.7477625
2011    8       1.31516719      194.6335
2011    9       1.33998888      196.8356375
2011    10      1.392538        200.91845
2011    11      1.72666712      220.220575
2011    12      1.63106738      215.460425
2011    13      1.21599869      185.88985
2011    14      0.89524868      158.8544375
2011    15      1.0296566       170.651325
2011    16      1.2492365       191.16695
2011    17      1.25345562      192.6493
2011    18      0.90149884      156.7194
2011    19      1.11230146      181.029575
2011    20      1.36103475      199.2709375
2011    21      1.31950932      194.5917625
2011    22      1.47094263      206.0095375
2011    23      1.377266        199.3317
2011    24      1.50475688      207.8013375
2011    25      1.38422312      200.1676625
2011    26      1.53870088      210.3362375
2011    27      1.49924425      208.3920125
2011    28      1.37633312      199.3545625
2011    29      1.3728595       199.5366
2011    30      1.36926362      199.0968125
2011    31      1.4747645       205.8379125
2012    1       1.38308512      200.6524375
2012    2       1.501644        207.94965
2012    3       1.43313688      202.840875
2012    4       1.24933785      187.544775
2012    5       1.38558537      200.0746
2012    6       1.4190635       202.033475
2012    7       0.98429379      163.849275
2012    8       1.44235375      203.5694125
2012    9       1.3924115       200.3741625
2012    10      0.82319876      147.8934875
2012    11      0.40639732      92.2885775
2012    12      0.48146758      103.52987875
2012    13      0.47132272      103.92892
2012    14      0.36168534      84.60789875
2012    15      0.21760129      56.12133
2012    16      0.40363832      88.249175
2012    17      0.85194454      152.514225
2012    18      1.24651813      190.0344875
2012    19      1.36696675      197.7676875
2012    20      1.247939        189.1439125
2012    21      1.230386        187.630025
2012    22      1.09876874      176.6922875
2012    23      0.89710331      157.56025
2012    24      0.68707062      126.31036125
2012    25      1.30779875      193.495625
2012    26      1.40802325      201.812675
2012    27      1.38372875      200.334125
2012    28      1.44177712      203.41715
2012    29      1.46022612      205.37105
2012    30      1.45866925      205.3183875
2012    31      1.3581545       198.17955
2013    1       0.69654642      135.1401375
2013    2       0.98115594      168.8022875
2013    3       0.68962311      126.96028375
2013    4       1.34927472      195.9799625
2013    5       1.39156875      199.44415
2013    6       1.30932725      193.820825
2013    7       0.78099026      142.9017875
2013    8       1.35797         196.7613875
2013    9       1.59401488      212.686775
2013    10      1.58736388      212.37645
2013    11      1.546889        210.461175
2013    12      1.4773535       205.0954125
2013    13      1.46079625      204.6236875
2013    14      1.60344112      214.2744125
2013    15      1.54813188      210.2975875
2013    16      1.46646175      205.0446875
2013    17      1.56533875      211.274625
2013    18      1.49321862      207.3137125
2013    19      1.253513        189.942975
2013    20      0.9970834       165.974925
2013    21      0.33517664      77.09993875
2013    22      0.54551672      107.9366775
2013    23      1.0858383       174.7886
2013    24      0.76715969      141.2104875
2013    25      0.64376419      126.1956375
2013    26      1.26905716      190.9803875
2013    27      0.90117106      153.9383375
2013    28      1.30848763      194.988225
2013    29      1.43529462      203.158875
2013    30      1.5399985       209.9301
2013    31      1.23148159      188.9603375
2014    1       1.30151889      191.1675625
2014    2       1.55507         211.4916
2014    3       1.11516771      180.101
2014    4       1.47303912      204.7212875
2014    5       1.32545046      192.2701625
2014    6       1.746049        221.71255
2014    7       1.7953575       223.8654375
2014    8       1.61057163      214.0432625
2014    9       1.32267787      196.1264375
2014    10      0.9489385       163.6534875
2014    11      0.88814092      156.7584625
2014    12      1.09698066      175.624975
2014    13      1.50189388      208.1810375
2014    14      1.25032062      189.2597875
2014    15      1.49821112      207.62075
2014    16      1.50923613      207.93375
2014    17      1.56342375      211.3578875
2014    18      1.52416925      209.1663125
2014    19      1.40649737      202.125175
2014    20      1.549463        211.05175
2014    21      1.35486025      199.4254875
2014    22      1.43297162      203.7174375
2014    23      1.474938        205.9877375
2014    24      0.92594949      162.8082
2014    25      0.68815621      134.204
2014    26      0.87798835      153.4918
2014    27      1.08693649      176.410325
2014    28      0.62953629      123.9641175
2014    29      0.73834976      135.23515
2014    30      0.62598248      125.27951125
2014    31      0.76264355      141.887675
2015    1       0.61487955      119.72103
2015    2       1.23180501      188.035425
2015    3       0.88417989      154.8457375
2015    4       1.23728888      187.3074
2015    5       1.4571595       204.522375
2015    6       1.4131555       201.6485375
2015    7       1.01412514      166.341175
2015    8       1.480104        205.969875
2015    9       1.24487155      189.4953125
2015    10      1.32391625      195.6739625
2015    11      1.40131625      200.6005625
2015    12      1.33948512      195.83885
2015    13      0.66649016      128.27277625
2015    14      0.41469994      91.060845
2015    15      0.64414764      127.6530125
2015    16      0.56283281      116.70717
2015    17      1.15654324      181.22615
2015    18      1.331375        195.1587625
2015    19      1.06360395      172.1844
2015    20      1.3156645       193.98375
2015    21      1.33182662      196.1860625
2015    22      1.31607141      194.761475
2015    23      1.38061988      199.7534625
2015    24      1.1897627       184.2504375
2015    25      1.31624588      195.3943
2015    26      1.45041062      204.6306
2015    27      1.34098162      197.024025
2015    28      1.50601538      207.8328375
2015    29      1.377634        199.6163625
2015    30      1.51125962      208.72635
2015    31      1.3866175       200.4337875
2016    1       0.20202512      52.25510375
2016    5       0.67346981      130.92971
2016    6       1.14570744      182.6021875
2016    7       1.26783212      191.724
2016    8       0.9226642       160.2730875
2016    9       0.53677845      111.32808
2016    10      1.17345764      181.3741375
2016    11      1.42913012      202.353025
2016    12      1.59842425      214.086875
2016    13      1.14362266      176.8669375
2016    14      0.25629046      63.4068825
2016    15      0.28656132      68.50632375
2016    16      0.81433382      142.92420875
2016    17      1.3983415       200.080025
2016    18      1.62895038      214.1537
2016    19      1.71108625      218.9923
2016    20      1.75513788      221.9296125
2016    21      1.39328037      202.4639375
2016    22      0.65143116      126.71288
2016    23      0.72203436      135.01394625
2016    24      0.78941584      144.0818
2016    25      0.7825538       145.5324
2016    26      1.29816925      194.042025
2016    27      1.2229078       188.082325
2016    28      1.1086137       180.5417
2016    29      0.75828375      144.4950625
2016    30      0.42326659      95.71266625
2016    31      0.83200461      144.13918625
2017    1       1.63208812      215.9212375
2017    2       1.646758        215.9512625
2017    3       1.61045425      214.3103125
2017    4       1.86570112      227.64785
2017    5       1.8176855       224.472075
2017    6       1.69531625      219.079425
2017    7       1.68944225      218.4159625
2017    8       1.71225725      219.475175
2017    9       1.62892238      215.0278625
2017    10      1.59624325      214.11455
2017    11      1.6428685       216.601975
2017    12      1.4490485       205.155725
2017    13      1.63526962      215.912275
2017    14      1.57190488      212.0228875
2017    15      1.58632625      213.27155
2017    16      1.580882        212.503525
2017    17      1.52397938      209.4276625
2017    18      1.47153025      206.44405
2017    19      1.52000712      209.2031625
2017    20      0.94710972      163.9130125
2017    21      0.7245089       139.8559125
2017    22      1.01742473      170.4557
2017    23      1.47898063      206.9027125
2017    24      1.13375693      180.61305
2017    25      1.39013412      200.276075
2017    26      1.53115288      209.1222875
2017    27      1.45129688      204.1439875
2017    28      1.2977225       193.8294375
2017    29      0.94997565      159.3081325
2017    30      1.0114371       167.6048375
2017    31      1.01747885      171.6395625
2018    1       1.4177815       200.9066625
2018    2       1.44186625      204.3419125
2018    3       1.17208688      184.9043125
2018    4       1.02628334      170.77225
2018    5       0.79742016      142.05238125
2018    6       0.93334662      160.03095
2018    7       1.40716038      202.676325
2018    8       1.574521        212.03305
2018    9       1.49676012      207.1599375
2018    10      1.4749605       205.95595
2018    11      1.3419175       196.9544875
2018    12      1.50514238      207.471925
2018    13      1.12811663      181.2583125
2018    14      0.54216034      110.2898025
2018    15      1.01357134      168.8636
2018    16      1.48535138      206.833425
2018    17      1.36846125      200.0096875
2018    18      1.382865        200.6528625
2018    19      1.3673385       198.8275875
2018    20      1.49635275      207.2194125
2018    21      1.42772575      203.3875875
2018    22      1.5065285       207.583025
2018    23      1.40007775      200.85925
2018    24      1.47181162      205.4389625
2018    25      1.24408391      188.085725
2018    26      0.77384086      143.15295
2018    27      0.58324931      117.31230875
2018    28      0.63244608      123.6974475
2018    29      0.80774594      143.0762125
2018    30      1.25059575      190.4168375
2018    31      1.22706048      186.5004875
2019    1       1.15150268      180.8457125
