####################################################################################################
# Month: 09Sep                                                                                     #
# Station: HAN                                                                                     #
# Frequency: 230 GHz                                                                               #
# Columns are: year    day     tau     Tb (K)                                                      #
####################################################################################################
2009    1       0.31893476      75.3977025
2009    2       0.16467433      44.35610125
2009    3       0.16364529      43.705395
2009    4       0.12068617      34.05695
2009    5       0.05240581      17.9103075
2009    6       0.06715984      21.58575375
2009    7       0.04912764      17.29171
2009    8       0.16348252      43.6391825
2009    9       0.33943085      79.48977875
2009    10      0.39872314      89.2850425
2009    11      0.44031952      96.90226375
2009    12      0.3719984       81.00916125
2009    13      0.10603254      31.09569125
2009    14      0.1287837       35.8273375
2009    15      0.19075972      49.10689875
2009    16      0.19424452      49.7607675
2009    17      0.12825756      35.82685875
2009    18      0.09908827      29.281885
2009    19      0.10347742      30.40555875
2009    20      0.09339589      28.0575525
2009    21      0.09837871      29.23037125
2009    22      0.1107295       32.25695
2009    23      0.08501072      26.12859625
2009    24      0.08856946      26.92406125
2009    25      0.07152702      22.77567125
2009    26      0.09008064      27.27220125
2009    27      0.07440274      23.52223125
2009    28      0.06158841      20.28913375
2009    29      0.07000165      22.37554125
2009    30      0.06634433      21.58546125
2010    1       0.38522782      88.2510625
2010    2       0.4294124       95.75787
2010    3       0.43395752      95.40363375
2010    4       0.25397801      63.64605625
2010    5       0.24230991      61.2512725
2010    6       0.32897176      76.97617125
2010    7       0.32312371      76.9891675
2010    8       0.27941921      68.2879025
2010    9       0.35480046      82.127945
2010    10      0.34144001      79.78714125
2010    11      0.29142394      70.14581375
2010    12      0.37782606      85.33157
2010    13      0.35524762      82.13669875
2010    14      0.31786471      75.17386625
2010    15      0.21344746      54.2315575
2010    16      0.12025086      34.4603825
2010    17      0.14722074      40.29489125
2010    18      0.27765968      66.8862075
2010    19      0.37771896      86.52062625
2010    20      0.27687514      68.3066425
2010    21      0.33993681      79.99177875
2010    22      0.49370061      106.0801375
2010    23      0.32799497      76.05388125
2010    24      0.11975678      33.9032825
2010    25      0.08546535      25.92613625
2010    26      0.08846564      26.547255
2010    27      0.08245043      25.19873125
2010    28      0.08386374      25.639325
2010    29      0.07759072      24.05129
2010    30      0.06780368      21.58884
2011    1       0.39586614      90.09627625
2011    2       0.44502879      98.4195875
2011    3       0.42581906      94.933335
2011    4       0.49912836      106.83669125
2011    5       0.52537735      110.70343
2011    6       0.33685596      78.986265
2011    7       0.2189429       56.51271625
2011    8       0.33077196      76.39487
2011    9       0.54881086      115.039925
2011    10      0.40794616      92.57280875
2011    11      0.28884984      71.06890875
2011    12      0.25967746      63.978475
2011    13      0.15049532      40.8886725
2011    14      0.38064019      86.50664125
2011    15      0.41804338      92.49623125
2011    16      0.39192004      88.296055
2011    17      0.17923645      47.6909275
2011    18      0.08056167      25.14979875
2011    19      0.06466585      21.19355125
2011    20      0.07369433      23.327035
2011    21      0.05678909      19.14365375
2011    22      0.0541217       18.44141625
2011    23      0.06710796      21.63199375
2011    24      0.06627982      21.476935
2011    25      0.0628172       20.66355375
2011    26      0.1042404       30.25939625
2011    27      0.15359229      41.02800375
2011    28      0.08918859      27.0021325
2011    29      0.09806636      29.20010125
2011    30      0.10121061      29.99486375
2012    1       0.22689304      58.17458125
2012    2       0.40744909      91.50326875
2012    3       0.58789402      120.5126375
2012    4       0.50606589      108.792275
2012    5       0.50074313      106.7692925
2012    6       0.4214934       94.35171625
2012    7       0.41687876      93.212135
2012    8       0.53015249      111.1941825
2012    9       0.4827424       103.9735475
2012    10      0.2886845       70.53408125
2012    11      0.40907066      92.06696
2012    12      0.40995468      92.00046125
2012    13      0.36614026      84.9168925
2012    14      0.32475303      76.56403
2012    15      0.15396811      42.5330575
2012    16      0.2581203       63.98039375
2012    17      0.39546851      89.19371125
2012    18      0.3837667       86.9380675
2012    19      0.23260025      58.04368375
2012    20      0.14226062      39.33642
2012    21      0.1381297       38.6130825
2012    22      0.18614         48.72108625
2012    23      0.15848368      42.13055125
2012    24      0.157006        41.79315375
2012    25      0.11280611      32.322525
2012    26      0.08401452      25.60471625
2012    27      0.10511981      30.3799825
2012    28      0.09696214      28.6504275
2012    29      0.09999222      29.4459625
2012    30      0.08333641      25.46135
2013    1       0.44202092      98.44051
2013    2       0.32353096      77.21375375
2013    3       0.30668116      72.6155825
2013    4       0.36435744      83.31297375
2013    5       0.31696081      74.79988625
2013    6       0.20415056      52.52434875
2013    7       0.09507398      28.49519
2013    8       0.12881896      36.2928775
2013    9       0.22300736      55.95489875
2013    10      0.22226595      56.54213375
2013    11      0.19427769      50.95657
2013    12      0.37889389      86.00848625
2013    13      0.22091238      56.65698
2013    14      0.27514526      66.93689375
2013    15      0.20508197      51.9989225
2013    16      0.15694078      42.1114475
2013    17      0.09986222      29.32567375
2013    18      0.13521589      37.59912625
2013    19      0.11646292      33.492565
2013    20      0.16702964      45.07719875
2013    21      0.24970328      61.48588125
2013    22      0.12816377      36.4080675
2013    23      0.28143205      68.34035875
2013    24      0.22623232      57.57672625
2013    25      0.18849464      49.5941225
2013    26      0.09774864      29.4817425
2013    27      0.19415037      49.7024025
2013    28      0.44670239      97.7366425
2013    29      0.32589112      76.8804425
2013    30      0.390675        87.91039
2014    1       0.44119506      96.61653875
2014    2       0.42805324      96.04479125
2014    3       0.54356425      113.27636625
2014    4       0.3833215       86.8150325
2014    5       0.54357985      113.9873375
2014    6       0.43342746      95.59654375
2014    7       0.39758892      90.33689625
2014    8       0.37233304      86.00460375
2014    9       0.23841575      60.52483
2014    10      0.2455486       61.12484875
2014    11      0.27124864      66.74874875
2014    12      0.39246479      89.36766625
2014    13      0.27799906      67.87389375
2014    14      0.24997576      61.93887875
2014    15      0.12839844      36.088135
2014    16      0.06896759      22.298655
2014    17      0.05588234      19.07385875
2014    18      0.13502203      37.61906875
2014    19      0.25447285      63.27133875
2014    20      0.21367952      54.70738625
2014    21      0.23004805      56.7821525
2014    22      0.08554608      26.20076875
2014    23      0.09311562      28.0853275
2014    24      0.14237118      39.03627625
2014    25      0.20888385      52.66715
2014    26      0.07492211      23.34617625
2014    27      0.10544844      30.56591625
2014    28      0.14476876      39.61557375
2014    29      0.1481891       40.28304125
2014    30      0.18792649      48.50302625
2015    1       0.1696641       45.51589
2015    2       0.19043065      50.15288375
2015    3       0.22737106      57.95422125
2015    4       0.16299541      44.2357075
2015    5       0.11130562      32.5521975
2015    6       0.13993234      38.83624375
2015    7       0.17469621      46.05920375
2015    8       0.09834762      29.077695
2015    9       0.07244537      22.76638125
2015    10      0.05137059      17.66324375
2015    11      0.05568247      18.72431
2015    12      0.07194419      22.81710625
2015    13      0.09438441      28.3185325
2015    14      0.1018424       30.0084
2015    15      0.14919385      40.4443775
2015    16      0.1822977       47.4462425
2015    17      0.12747698      35.81243625
2015    18      0.08961118      27.1146575
2015    19      0.25831615      62.30126375
2015    20      0.37715089      85.80935625
2015    21      0.33197964      77.5240625
2015    22      0.4984162       106.00154875
2015    23      0.24125604      60.502685
2015    24      0.17649144      47.255415
2015    25      0.176982        47.2596225
2015    26      0.23920102      59.7764475
2015    27      0.22016296      55.17912
2015    28      0.11773325      33.26505875
2015    29      0.07107455      22.60142375
2015    30      0.06022962      20.06241125
2016    1       0.39018679      88.59241625
2016    2       0.24583604      61.314885
2016    3       0.16947341      45.57433
2016    4       0.24601729      61.9483225
2016    5       0.30879444      74.0946125
2016    6       0.13969779      38.62432
2016    7       0.0974118       28.872575
2016    8       0.14077448      39.3673675
2016    9       0.14420139      40.02329875
2016    10      0.1633917       44.43093375
2016    11      0.18392518      48.2582875
2016    12      0.21909544      55.415445
2016    13      0.15705129      42.66882125
2016    14      0.16336564      44.1448875
2016    15      0.14062006      39.125685
2016    16      0.18874816      49.41642875
2016    17      0.2290286       57.50004
2016    18      0.22835409      57.6657925
2016    19      0.1729275       46.41914375
2016    20      0.17795616      47.4776025
2016    21      0.22016899      55.88429
2016    22      0.25610931      62.50059875
2016    23      0.22716414      56.63066125
2016    24      0.18142818      46.8001825
2016    25      0.13228988      36.745115
2016    26      0.11669086      33.18361125
2016    27      0.1281759       35.81306125
2016    28      0.11872258      33.95598125
2016    29      0.11400373      33.0560625
2016    30      0.06446737      21.16910125
2017    1       0.48909685      103.82770625
2017    2       0.31736725      75.137945
2017    3       0.27693134      67.21868625
2017    4       0.21552841      55.31852875
2017    5       0.23001144      58.72796125
2017    6       0.2731391       67.28514125
2017    7       0.30204295      71.97174125
2017    8       0.24310621      60.2158775
2017    9       0.1350251       37.97503625
2017    10      0.42239105      93.00009125
2017    11      0.340082        79.05109125
2017    12      0.19158391      49.48141
2017    13      0.15506944      42.13943125
2017    14      0.10602298      30.970365
2017    15      0.08651623      26.44560875
2017    16      0.21789656      54.4135525
2017    17      0.29500262      69.62525625
2017    18      0.10531548      31.118215
2017    19      0.08332223      25.9006075
2017    20      0.06069976      20.28418375
2017    21      0.10276191      30.13108
2017    22      0.32408679      75.18731
2017    23      0.38874694      88.8462875
2017    24      0.19020579      49.99034
2017    25      0.11328011      32.8467125
2017    26      0.1465766       40.73218375
2017    27      0.1279008       36.50612125
2017    28      0.10905936      31.86307
2017    29      0.0876883       26.6798075
2017    30      0.05861848      19.6449225
2018    1       0.16400109      44.36034125
2018    2       0.47461529      102.8385425
2018    3       0.53769319      112.6199825
2018    4       0.49872724      106.41551
2018    5       0.52566311      110.75555375
2018    6       0.46751445      100.9204375
2018    7       0.40113592      90.1863875
2018    8       0.48243304      104.08298875
2018    9       0.50736334      107.85467625
2018    10      0.4135565       92.78089625
2018    11      0.31085851      74.40096125
2018    12      0.16350608      43.75444375
2018    13      0.18120906      47.40624625
2018    14      0.1494367       40.52817
2018    15      0.10615382      30.66822875
2018    16      0.08918557      26.8306375
2018    17      0.10502686      30.28275875
2018    18      0.14295564      38.6784625
2018    19      0.17418158      45.46915125
2018    20      0.20066194      51.61284125
2018    21      0.20463139      52.6919
2018    22      0.43187276      94.73459
2018    23      0.45325229      98.49438625
2018    24      0.38503178      86.67437125
2018    25      0.19541666      49.80303625
2018    26      0.06591298      21.28541375
2018    27      0.07711653      23.8808675
2018    28      0.16465804      43.78063
2018    29      0.13567469      37.665435
2018    30      0.10488604      30.54616125
