####################################################################################################
# Month: 08Aug                                                                                     #
# Station: PAR                                                                                     #
# Frequency: 345 GHz                                                                               #
# Columns are: year    day     segment         tau     Tb (K)                                      #
####################################################################################################
2009    1       0       0.3222717       79.39216
2009    1       1       0.3067157       75.54533
2009    1       2       0.3589835       84.75325
2009    1       3       0.4085126       93.47038
2009    1       4       0.4352013       98.30995
2009    1       5       0.4216594       96.95922
2009    1       6       0.4970832       109.8042
2009    1       7       0.5899177       124.2452
2009    2       0       0.5674775       121.0016
2009    2       1       0.4920084       109.0761
2009    2       2       0.4803462       107.1092
2009    2       3       0.4668161       104.9273
2009    2       4       0.4686253       104.9291
2009    2       5       0.4388227       100.6294
2009    2       6       0.3892007       92.32166
2009    2       7       0.4052046       95.50935
2009    3       0       0.3407966       83.87556
2009    3       1       0.2823571       72.49719
2009    3       2       0.2618967       68.44968
2009    3       3       0.2391039       63.85753
2009    3       4       0.1762007       49.9503
2009    3       5       0.1870329       52.43017
2009    3       6       0.235439        63.32361
2009    3       7       0.2721268       71.28624
2009    4       0       0.2127044       58.65306
2009    4       1       0.1619266       46.55648
2009    4       2       0.1504791       43.05531
2009    4       3       0.1763668       48.45328
2009    4       4       0.1915947       51.92434
2009    4       5       0.208399        55.6884
2009    4       6       0.2544128       65.81183
2009    4       7       0.2987665       75.27627
2009    5       0       0.2515695       65.14178
2009    5       1       0.2496615       64.46945
2009    5       2       0.2397456       62.4354
2009    5       3       0.2026752       54.87331
2009    5       4       0.1660728       46.72902
2009    5       5       0.1835855       50.40776
2009    5       6       0.2493382       64.59336
2009    5       7       0.2994602       75.04849
2009    6       0       0.2764136       70.02029
2009    6       1       0.2498011       64.434
2009    6       2       0.2418061       62.98318
2009    6       3       0.233672        61.58214
2009    6       4       0.2278126       60.42929
2009    6       5       0.2402532       63.18889
2009    6       6       0.2660143       68.68934
2009    6       7       0.2907183       74.02333
2009    7       0       0.2777783       71.21352
2009    7       1       0.2784633       70.76701
2009    7       2       0.3424494       82.59355
2009    7       3       0.3600643       85.70141
2009    7       4       0.3916639       91.17847
2009    7       5       0.4108179       94.77623
2009    7       6       0.4250728       97.34607
2009    7       7       0.4158083       95.31304
2009    8       0       0.4273209       96.54288
2009    8       1       0.504114        109.0252
2009    8       2       0.5396783       114.3946
2009    8       3       0.5947984       122.9124
2009    8       4       0.6280417       127.1504
2009    8       5       0.5839241       121.0667
2009    8       6       0.9653407       166.3649
2009    8       7       0.8177416       149.9849
2009    9       0       0.4474849       99.7579
2009    9       1       0.2783128       69.58645
2009    9       2       0.1700302       47.19058
2009    9       3       0.2692449       67.64636
2009    9       4       0.3387742       80.80669
2009    9       5       0.3521161       82.99685
2009    9       6       0.4233997       95.74703
2009    9       7       0.3061396       76.03607
2009    10      0       0.1956042       54.11789
2009    10      1       0.1938651       53.49695
2009    10      2       0.1859294       51.39879
2009    10      3       0.2040934       54.49433
2009    10      4       0.1819075       49.7512
2009    10      5       0.1680273       46.75209
2009    10      6       0.1834733       50.37626
2009    10      7       0.1981304       53.75992
2009    11      0       0.2181614       57.79969
2009    11      1       0.2300211       60.34077
2009    11      2       0.2481297       63.61407
2009    11      3       0.2590855       65.36218
2009    11      4       0.2900615       71.41051
2009    11      5       0.3789338       87.78688
2009    11      6       0.4103441       94.24382
2009    11      7       0.4158704       96.1905
2009    12      0       0.401771        93.39253
2009    12      1       0.3828535       89.9021
2009    12      2       0.3897752       90.7741
2009    12      3       0.3774812       88.40663
2009    12      4       0.4021363       92.21617
2009    12      5       0.3727299       88.11806
2009    12      6       0.373714        89.30801
2009    12      7       0.3638053       88.02636
2009    13      0       0.3203769       79.60003
2009    13      1       0.3135903       78.01529
2009    13      2       0.317548        78.80242
2009    13      3       0.307776        77.10802
2009    13      4       0.2962201       74.93342
2009    13      5       0.3148505       78.51242
2009    13      6       0.3892958       92.48837
2009    13      7       0.4690686       106.712
2009    14      0       0.4472767       102.5347
2009    14      1       0.4375928       100.7353
2009    14      2       0.4123317       96.22717
2009    14      3       0.3737084       89.05556
2009    14      4       0.318368        78.40401
2009    14      5       0.3051088       76.3254
2009    14      6       0.3559394       85.95615
2009    14      7       0.3222643       79.20214
2009    15      0       0.2347935       60.68386
2009    15      1       0.2133189       56.00131
2009    15      2       0.2330574       60.30677
2009    15      3       0.243122        62.47744
2009    15      4       0.2481674       63.36952
2009    15      5       0.3074869       75.1434
2009    15      6       0.4130236       94.97671
2009    15      7       0.4200811       96.0689
2009    16      0       0.3217548       78.41058
2009    16      1       0.4590643       101.8766
2009    16      2       0.4916464       107.7513
2009    16      3       0.551536        117.25
2009    16      4       0.5640697       118.365
2009    16      5       0.5477351       116.7524
2009    16      6       0.609675        125.5868
2009    16      7       0.6629368       132.6597
2009    17      0       0.7364134       141.6519
2009    17      1       0.6718111       134.2958
2009    17      2       0.6334724       128.7254
2009    17      3       0.7512106       142.8235
2009    17      4       0.7317536       140.9343
2009    17      5       0.7368145       141.7903
2009    17      6       0.787533        148.4439
2009    17      7       0.786482        149.0003
2009    18      0       0.7272264       141.6892
2009    18      1       0.6434761       131.1662
2009    18      2       0.5918808       123.7847
2009    18      3       0.5372902       115.773
2009    18      4       0.5169702       112.7689
2009    18      5       0.5426971       116.7011
2009    18      6       0.5290691       114.9031
2009    18      7       0.4721191       105.742
2009    19      0       0.4303667       98.51677
2009    19      1       0.4409759       100.036
2009    19      2       0.4848599       107.2373
2009    19      3       0.5128632       111.5635
2009    19      4       0.5181089       112.1015
2009    19      5       0.5493655       116.8778
2009    19      6       0.5317232       114.7473
2009    19      7       0.4204114       96.85896
2009    20      0       0.3251093       79.27781
2009    20      1       0.2882488       71.93934
2009    20      2       0.2798324       70.45682
2009    20      3       0.3229423       78.66098
2009    20      4       0.2811596       71.24532
2009    20      5       0.2525302       65.4764
2009    20      6       0.2224592       59.51151
2009    20      7       0.2483813       64.99123
2009    21      0       0.2134264       57.66513
2009    21      1       0.1918003       52.67929
2009    21      2       0.2001207       54.3827
2009    21      3       0.2019612       54.82951
2009    21      4       0.2221885       59.00984
2009    21      5       0.2518918       65.26757
2009    21      6       0.3074887       76.64937
2009    21      7       0.3737119       89.4638
2009    22      0       0.3127575       77.94041
2009    22      1       0.2932476       73.92478
2009    22      2       0.2710218       69.13171
2009    22      3       0.2995294       74.54477
2009    22      4       0.3275213       79.91586
2009    22      5       0.3551439       85.22621
2009    22      6       0.4756059       106.2128
2009    22      7       0.5619561       119.7137
2009    23      0       0.4838502       106.4805
2009    23      1       0.4978922       107.768
2009    23      2       0.535709        113.2554
2009    23      3       0.4965071       107.454
2009    23      4       0.3978705       92.23544
2009    23      5       0.3320665       80.93684
2009    23      6       0.2941469       74.06151
2009    23      7       0.2965292       74.81947
2009    24      0       0.2666218       68.79148
2009    24      1       0.2498508       65.22216
2009    24      2       0.2412759       62.92652
2009    24      3       0.2244395       59.13006
2009    24      4       0.1926968       52.3286
2009    24      5       0.2108872       56.32663
2009    24      6       0.2441072       63.7085
2009    24      7       0.2946972       74.39523
2009    25      0       0.2880065       73.27328
2009    25      1       0.2918423       73.89575
2009    25      2       0.3113067       77.43048
2009    25      3       0.3427432       83.32197
2009    25      4       0.3396447       82.86726
2009    25      5       0.2876361       73.21931
2009    25      6       0.3222738       80.10267
2009    25      7       0.3130326       77.78087
2009    26      0       0.3122738       77.81046
2009    26      1       0.3227646       79.52915
2009    26      2       0.3878563       91.19264
2009    26      3       0.4415933       101.2099
2009    26      4       0.3980813       94.5493
2009    26      5       0.3314325       82.27551
2009    26      6       0.3394297       84.33179
2009    26      7       0.345219        85.62781
2009    27      0       0.2845997       73.40696
2009    27      1       0.2494022       65.8081
2009    27      2       0.2374149       63.0963
2009    27      3       0.2101882       57.31422
2009    27      4       0.1630155       46.54291
2009    27      5       0.160552        46.26574
2009    27      6       0.1742295       49.53263
2009    27      7       0.1465198       42.91046
2009    28      0       0.1158746       35.4026
2009    28      1       0.121399        36.54409
2009    28      2       0.122819        36.68796
2009    28      3       0.1196432       35.80652
2009    28      4       0.1027415       31.7689
2009    28      5       0.117261        35.68791
2009    28      6       0.1811163       50.90743
2009    28      7       0.2373305       63.48067
2009    29      0       0.1840142       51.47857
2009    29      1       0.1612622       46.08494
2009    29      2       0.1480467       42.8828
2009    29      3       0.1458925       42.2593
2009    29      4       0.1321768       38.89389
2009    29      5       0.1531922       44.03926
2009    29      6       0.2240476       60.18608
2009    29      7       0.285252        73.10451
2009    30      0       0.254824        66.69113
2009    30      1       0.2552998       66.82738
2009    30      2       0.2872165       73.18529
2009    30      3       0.3109912       77.5136
2009    30      4       0.2729201       69.72789
2009    30      5       0.2776793       70.51161
2009    30      6       0.3617338       86.4428
2009    30      7       0.5136678       112.3967
2009    31      0       0.5084138       110.9434
2009    31      1       0.6057695       125.9262
2009    31      2       0.7934047       150.7407
2009    31      3       0.8205902       153.9684
2009    31      4       0.8116007       153.1984
2009    31      5       0.7992154       152.0043
2009    31      6       0.8113645       153.7854
2009    31      7       0.8599723       159.3717
2010    1       0       0.4318036       98.17814
2010    1       1       0.3897354       90.67484
2010    1       2       0.4310935       98.10527
2010    1       3       0.437193        99.28192
2010    1       4       0.4203701       96.37295
2010    1       5       0.395367        92.14763
2010    1       6       0.3797008       89.48
2010    1       7       0.3542819       85.33183
2010    2       0       0.3218075       79.22899
2010    2       1       0.3124578       77.42797
2010    2       2       0.3108133       76.91724
2010    2       3       0.3207996       78.84419
2010    2       4       0.339079        82.42751
2010    2       5       0.3370296       81.96003
2010    2       6       0.308702        76.59439
2010    2       7       0.262073        67.41572
2010    3       0       0.1770774       49.35333
2010    3       1       0.1485883       42.7491
2010    3       2       0.1944881       53.11896
2010    3       3       0.2023261       54.70625
2010    3       4       0.2206533       58.43757
2010    3       5       0.2507965       64.91078
2010    3       6       0.2411239       63.20763
2010    3       7       0.2347675       61.94973
2010    4       0       0.20346         55.05603
2010    4       1       0.2194304       58.50591
2010    4       2       0.2280367       60.38709
2010    4       3       0.2248874       59.41694
2010    4       4       0.2208431       58.12554
2010    4       5       0.2811338       70.27413
2010    4       6       0.3379802       81.55861
2010    4       7       0.3696854       87.42189
2010    5       0       0.3627685       86.22379
2010    5       1       0.3089059       75.68318
2010    5       2       0.2438703       62.63034
2010    5       3       0.2250612       59.25565
2010    5       4       0.2091896       56.08801
2010    5       5       0.2011036       54.64804
2010    5       6       0.1829048       50.88463
2010    5       7       0.186666        51.78805
2010    6       0       0.1887111       51.83546
2010    6       1       0.2053853       54.9966
2010    6       2       0.2475658       63.51705
2010    6       3       0.2698168       68.36097
2010    6       4       0.2473299       64.08491
2010    6       5       0.2415722       62.83219
2010    6       6       0.2889573       72.49523
2010    6       7       0.2531957       65.59413
2010    7       0       0.2531602       65.3374
2010    7       1       0.2696758       68.63592
2010    7       2       0.2575401       66.33577
2010    7       3       0.2902172       72.90506
2010    7       4       0.3623705       86.53576
2010    7       5       0.3748329       88.94385
2010    7       6       0.4112659       95.74159
2010    7       7       0.419372        96.78403
2010    8       0       0.3987896       92.58102
2010    8       1       0.440458        98.57714
2010    8       2       0.351664        83.40319
2010    8       3       0.2874869       71.18929
2010    8       4       0.2222259       58.48755
2010    8       5       0.216347        57.42137
2010    8       6       0.2142976       56.9388
2010    8       7       0.2094124       55.75126
2010    9       0       0.220459        57.8125
2010    9       1       0.234819        60.63453
2010    9       2       0.2545418       64.59924
2010    9       3       0.3045189       74.53744
2010    9       4       0.3331329       80.25684
2010    9       5       0.3424995       82.43255
2010    9       6       0.3723226       88.51392
2010    9       7       0.3827937       90.97889
2010    10      0       0.3537631       85.69126
2010    10      1       0.3410438       82.97541
2010    10      2       0.3680596       87.64383
2010    10      3       0.4289069       98.01396
2010    10      4       0.498679        109.106
2010    10      5       0.5142549       111.8366
2010    10      6       0.5771885       121.5625
2010    10      7       0.5849746       122.4421
2010    11      0       0.5935997       122.5278
2010    11      1       0.5842323       119.9566
2010    11      2       1.020295        170.3725
2010    11      3       1.542603        210.9886
2010    11      4       1.281754        194.9334
2010    11      5       1.066611        178.6112
2010    11      6       0.6660826       134.2455
2010    11      7       0.3907433       91.08761
2010    12      0       0.3333929       79.71474
2010    12      1       0.3558442       84.02696
2010    12      2       0.2172855       57.43521
2010    12      3       0.1796707       49.15381
2010    12      4       0.212356        56.04678
2010    12      5       0.2129445       56.56175
2010    12      6       0.2196115       58.24845
2010    12      7       0.2085004       55.97436
2010    13      0       0.1479698       42.45027
2010    13      1       0.1309071       38.44062
2010    13      2       0.1365463       39.88401
2010    13      3       0.146488        41.97575
2010    13      4       0.1574368       44.24456
2010    13      5       0.163705        45.81016
2010    13      6       0.162303        45.64301
2010    13      7       0.1677245       46.97312
2010    14      0       0.1643833       46.07816
2010    14      1       0.1753045       48.64143
2010    14      2       0.1789826       49.53447
2010    14      3       0.1858754       51.05332
2010    14      4       0.1995014       53.92247
2010    14      5       0.2026947       54.54775
2010    14      6       0.2149609       57.31424
2010    14      7       0.2467278       64.33935
2010    15      0       0.2762285       70.33099
2010    15      1       0.3222497       79.45583
2010    15      2       0.3420351       83.13411
2010    15      3       0.3220595       79.24957
2010    15      4       0.3563915       85.54558
2010    15      5       0.4334157       99.35607
2010    15      6       0.5282751       114.9333
2010    15      7       0.7062527       139.8658
2010    16      0       0.9740577       169.5462
2010    16      1       1.107369        181.5743
2010    16      2       0.9387097       165.5116
2010    16      3       0.5164302       112.7871
2010    16      4       0.2900292       73.26264
2010    16      5       0.2261612       60.26731
2010    16      6       0.2281205       60.69028
2010    16      7       0.2686695       69.36226
2010    17      0       0.2918961       74.11936
2010    17      1       0.3046575       76.7814
2010    17      2       0.3536996       86.36019
2010    17      3       0.3469339       85.15579
2010    17      4       0.3436023       84.36983
2010    17      5       0.3025713       76.13347
2010    17      6       0.288654        73.44571
2010    17      7       0.2615856       67.98209
2010    18      0       0.2298225       61.12074
2010    18      1       0.2312645       61.27183
2010    18      2       0.2265309       60.31087
2010    18      3       0.2301998       60.96558
2010    18      4       0.241401        63.29428
2010    18      5       0.2738093       69.72473
2010    18      6       0.3110548       77.30236
2010    18      7       0.310987        77.34296
2010    19      0       0.2974319       74.54844
2010    19      1       0.2852664       72.29092
2010    19      2       0.2739595       70.05794
2010    19      3       0.2733793       69.83282
2010    19      4       0.2731161       69.81053
2010    19      5       0.2835989       72.00632
2010    19      6       0.3003079       75.52055
2010    19      7       0.3035275       76.29643
2010    20      0       0.2903226       73.37724
2010    20      1       0.2960082       74.51845
2010    20      2       0.2940638       74.2347
2010    20      3       0.2952458       74.58132
2010    20      4       0.2764289       71.02635
2010    20      5       0.2687863       69.52837
2010    20      6       0.3104399       78.15127
2010    20      7       0.3398495       84.17761
2010    21      0       0.2460728       65.41954
2010    21      1       0.1847468       51.99429
2010    21      2       0.1667967       47.9648
2010    21      3       0.1567216       45.61863
2010    21      4       0.1510287       44.22909
2010    21      5       0.170992        48.75446
2010    21      6       0.2213524       59.91946
2010    21      7       0.2435151       64.72089
2010    22      0       0.1826389       51.18861
2010    22      1       0.1356653       40.08119
2010    22      2       0.1630071       46.53427
2010    22      3       0.1876507       51.97316
2010    22      4       0.1908832       52.69379
2010    22      5       0.1999131       54.68907
2010    22      6       0.221162        59.30866
2010    22      7       0.2328004       61.91171
2010    23      0       0.2182148       58.59897
2010    23      1       0.2166547       58.19231
2010    23      2       0.2187115       58.35946
2010    23      3       0.2374471       62.26621
2010    23      4       0.2603055       67.13481
2010    23      5       0.2956453       74.40779
2010    23      6       0.3020804       75.79671
2010    23      7       0.2796479       71.2897
2010    24      0       0.2266318       59.82023
2010    24      1       0.2227933       58.91152
2010    24      2       0.238078        62.0973
2010    24      3       0.2746106       69.72734
2010    24      4       0.3127034       77.26964
2010    24      5       0.356531        85.81419
2010    24      6       0.3597349       86.73344
2010    24      7       0.3502096       85.07419
2010    25      0       0.3433883       83.46645
2010    25      1       0.3626778       87.30227
2010    25      2       0.3864928       91.91431
2010    25      3       0.3934004       93.13939
2010    25      4       0.3737214       89.56056
2010    25      5       0.3779183       90.47797
2010    25      6       0.4164569       97.83775
2010    25      7       0.4352707       101.589
2010    26      0       0.347224        85.32594
2010    26      1       0.316032        79.25526
2010    26      2       0.3138028       78.60153
2010    26      3       0.2996392       75.72153
2010    26      4       0.2836938       72.47026
2010    26      5       0.323208        80.51146
2010    26      6       0.3707374       89.69914
2010    26      7       0.4049252       96.04334
2010    27      0       0.3142587       78.69749
2010    27      1       0.2951519       74.61467
2010    27      2       0.314289        78.15795
2010    27      3       0.3003828       75.25819
2010    27      4       0.2514058       65.43057
2010    27      5       0.2456903       64.49806
2010    27      6       0.2732226       70.54888
2010    27      7       0.3175861       79.63252
2010    28      0       0.1969926       54.18614
2010    28      1       0.1485257       43.21872
2010    28      2       0.1490874       43.34226
2010    28      3       0.1563266       44.93967
2010    28      4       0.1474584       42.70931
2010    28      5       0.1688383       47.62116
2010    28      6       0.193908        53.38966
2010    28      7       0.1692115       47.84616
2010    29      0       0.1218981       36.40884
2010    29      1       0.1130555       34.15991
2010    29      2       0.1142223       34.33873
2010    29      3       0.1179488       35.17415
2010    29      4       0.1158768       34.60569
2010    29      5       0.1364638       39.74502
2010    29      6       0.1653717       46.72807
2010    29      7       0.1825645       50.78673
2010    30      0       0.1467669       42.21757
2010    30      1       0.1662797       46.80695
2010    30      2       0.2007003       54.69439
2010    30      3       0.209524        56.81283
2010    30      4       0.2020885       55.08461
2010    30      5       0.238492        62.79226
2010    30      6       0.3394373       83.03772
2010    30      7       0.3530124       85.20458
2010    31      0       0.2740684       69.16753
2010    31      1       0.2945009       72.87603
2010    31      2       0.2819289       71.24925
2010    31      3       0.2688955       68.93718
2010    31      4       0.3076054       76.55773
2010    31      5       0.3639186       87.07672
2010    31      6       0.4381516       100.3993
2010    31      7       0.3924592       92.54075
2011    1       0       0.4735435       103.8835
2011    1       1       0.3223413       77.4503
2011    1       2       0.1855967       50.36961
2011    1       3       0.1507579       42.82987
2011    1       4       0.1202873       36.05621
2011    1       5       0.1402509       40.30954
2011    1       6       0.1736989       47.84189
2011    1       7       0.2438903       61.91431
2011    2       0       0.3759277       87.02086
2011    2       1       0.4382238       98.35504
2011    2       2       0.4546291       101.3777
2011    2       3       0.4520553       101.4148
2011    2       4       0.4872294       108.0589
2011    2       5       0.3745002       89.37166
2011    2       6       0.2924924       73.97726
2011    2       7       0.2232193       59.48506
2011    3       0       0.1695793       47.18567
2011    3       1       0.1321539       38.39438
2011    3       2       0.1175808       35.0122
2011    3       3       0.1281283       37.61936
2011    3       4       0.1466253       41.88957
2011    3       5       0.1609162       45.29377
2011    3       6       0.1776768       49.21178
2011    3       7       0.1934765       52.66171
2011    4       0       0.1787391       49.20192
2011    4       1       0.171302        47.33002
2011    4       2       0.1721191       47.45978
2011    4       3       0.1963857       52.65478
2011    4       4       0.2100751       55.62615
2011    4       5       0.2206485       57.98671
2011    4       6       0.2505512       64.57896
2011    4       7       0.3012331       75.07739
2011    5       0       0.2700598       68.64462
2011    5       1       0.2747016       69.51179
2011    5       2       0.2971903       73.8621
2011    5       3       0.3124291       77.04086
2011    5       4       0.2813298       71.16018
2011    5       5       0.2787347       70.65727
2011    5       6       0.2849656       72.0681
2011    5       7       0.2544271       66.23599
2011    6       0       0.1990362       54.40574
2011    6       1       0.200493        54.39248
2011    6       2       0.2211973       58.67624
2011    6       3       0.2331889       61.24953
2011    6       4       0.2623052       67.16091
2011    6       5       0.2708203       69.20151
2011    6       6       0.2481771       64.76908
2011    6       7       0.2696446       69.27598
2011    7       0       0.3124184       77.67335
2011    7       1       0.3570528       86.08709
2011    7       2       0.4606254       103.6204
2011    7       3       0.4695224       105.0493
2011    7       4       0.4174309       96.22708
2011    7       5       0.5044103       110.8378
2011    7       6       0.699057        139.1552
2011    7       7       0.8111502       152.9803
2011    8       0       0.8034587       151.1379
2011    8       1       0.7870714       149.1023
2011    8       2       0.6977948       138.7703
2011    8       3       0.7252049       143.2427
2011    8       4       0.7272622       143.5302
2011    8       5       0.7176649       142.0019
2011    8       6       0.6608177       135.374
2011    8       7       0.8296476       155.5905
2011    9       0       0.7809045       150.3942
2011    9       1       0.6538217       134.9795
2011    9       2       0.6570295       135.3769
2011    9       3       0.629051        131.7953
2011    9       4       0.5858619       125.9234
2011    9       5       0.5382865       119.0314
2011    9       6       0.496054        112.5126
2011    9       7       0.517669        116.4404
2011    10      0       0.4781998       109.9048
2011    10      1       0.3993161       95.96332
2011    10      2       0.4491802       104.9152
2011    10      3       0.4637437       107.4585
2011    10      4       0.4338512       102.3976
2011    10      5       0.3729759       91.20053
2011    10      6       0.3851442       93.64949
2011    10      7       0.3393149       85.10155
2011    11      0       0.2621406       69.2383
2011    11      1       0.2176827       59.48417
2011    11      2       0.2059141       56.76578
2011    11      3       0.1679714       48.11446
2011    11      4       0.1420578       41.93374
2011    11      5       0.2018382       55.46804
2011    11      6       0.2829364       72.96749
2011    11      7       0.3146857       78.6034
2011    12      0       0.4074621       94.98241
2011    12      1       0.4712416       105.8449
2011    12      2       0.417089        97.12038
2011    12      3       0.4105398       95.78038
2011    12      4       0.4202317       97.52564
2011    12      5       0.4112149       96.26839
2011    12      6       0.3934865       93.51777
2011    12      7       0.285471        73.07287
2011    13      0       0.2088863       56.90367
2011    13      1       0.1987687       54.42265
2011    13      2       0.2522351       66.05698
2011    13      3       0.293975        74.44626
2011    13      4       0.2517905       65.2788
2011    13      5       0.2364771       62.73881
2011    13      6       0.2847056       73.17395
2011    13      7       0.2785752       72.09934
2011    14      0       0.2042458       56.09363
2011    14      1       0.1626959       46.43332
2011    14      2       0.1647509       46.78176
2011    14      3       0.2047749       54.74938
2011    14      4       0.2332313       60.91752
2011    14      5       0.2444805       64.04277
2011    14      6       0.3178572       79.46793
2011    14      7       0.3532802       86.0603
2011    15      0       0.3234452       79.41061
2011    15      1       0.453751        101.5616
2011    15      2       0.5139517       111.094
2011    15      3       0.5213555       112.0354
2011    15      4       0.6771757       132.6979
2011    15      5       0.7800047       147.4291
2011    15      6       0.9222658       164.6656
2011    15      7       0.7996666       150.0575
2011    16      0       0.5910859       122.7862
2011    16      1       0.3403836       82.57495
2011    16      2       0.2401796       62.87882
2011    16      3       0.1790941       49.56616
2011    16      4       0.1381616       40.27273
2011    16      5       0.186033        51.35462
2011    16      6       0.2151885       57.75133
2011    16      7       0.1912198       52.66206
2011    17      0       0.1428846       41.61046
2011    17      1       0.1260327       37.58062
2011    17      2       0.1422979       41.40755
2011    17      3       0.1399729       40.62638
2011    17      4       0.1394084       40.54501
2011    17      5       0.1555735       44.18659
2011    17      6       0.1996094       54.18636
2011    17      7       0.221371        58.94589
2011    18      0       0.1999653       53.93321
2011    18      1       0.2053838       54.78771
2011    18      2       0.236773        61.20786
2011    18      3       0.2847171       70.88522
2011    18      4       0.2956524       73.14731
2011    18      5       0.3020079       74.17651
2011    18      6       0.3221591       78.06991
2011    18      7       0.2999831       73.73548
2011    19      0       0.2524294       63.96985
2011    19      1       0.2566169       64.62453
2011    19      2       0.2523911       63.72116
2011    19      3       0.2452681       62.48279
2011    19      4       0.263837        66.28668
2011    19      5       0.2890044       71.5393
2011    19      6       0.3059188       75.08674
2011    19      7       0.2646485       66.76254
2011    20      0       0.2298373       59.05669
2011    20      1       0.2226156       57.73485
2011    20      2       0.2105148       55.39568
2011    20      3       0.2039077       53.9487
2011    20      4       0.198511        52.8016
2011    20      5       0.2445991       62.96456
2011    20      6       0.2826765       71.01647
2011    20      7       0.2610584       66.72902
2011    21      0       0.2000321       53.75221
2011    21      1       0.189619        51.63277
2011    21      2       0.2367379       61.82377
2011    21      3       0.2528124       65.04614
2011    21      4       0.2568024       65.77679
2011    21      5       0.3392661       82.21612
2011    21      6       0.4387837       99.99139
2011    21      7       0.4209285       96.70073
2011    22      0       0.3305977       79.85183
2011    22      1       0.3342134       79.96823
2011    22      2       0.2948569       72.6143
2011    22      3       0.2787207       68.90694
2011    22      4       0.1869857       50.94736
2011    22      5       0.2178781       58.41982
2011    22      6       0.2315049       61.46492
2011    22      7       0.232812        61.46893
2011    23      0       0.1928015       52.77704
2011    23      1       0.1705571       47.89273
2011    23      2       0.1560276       44.49628
2011    23      3       0.1347848       39.44212
2011    23      4       0.1163937       35.0122
2011    23      5       0.1169825       35.02459
2011    23      6       0.1487565       42.56421
2011    23      7       0.1910628       52.58515
2011    24      0       0.1585465       44.85449
2011    24      1       0.1789655       48.94558
2011    24      2       0.2304408       59.7686
2011    24      3       0.2240037       58.15372
2011    24      4       0.253099        64.14544
2011    24      5       0.2486644       63.75442
2011    24      6       0.2665073       67.61824
2011    24      7       0.2108187       56.63932
2011    25      0       0.1736001       48.44027
2011    25      1       0.1791709       49.73266
2011    25      2       0.1880943       51.72106
2011    25      3       0.1855653       51.17898
2011    25      4       0.1998933       54.04905
2011    25      5       0.2065566       55.64433
2011    25      6       0.1741651       48.90768
2011    25      7       0.1618302       46.25314
2011    26      0       0.1617305       45.67008
2011    26      1       0.1749761       48.54178
2011    26      2       0.1971459       53.45712
2011    26      3       0.2373272       61.35409
2011    26      4       0.2748172       69.14185
2011    26      5       0.3294632       80.16279
2011    26      6       0.4686018       104.2768
2011    26      7       0.5027719       109.888
2011    27      0       0.4494037       100.5321
2011    27      1       0.5261491       113.2087
2011    27      2       0.6168524       127.0598
2011    27      3       0.6591141       132.776
2011    27      4       0.5710239       120.4157
2011    27      5       0.5379325       115.6333
2011    27      6       0.5541456       118.6341
2011    27      7       0.5509335       118.3774
2011    28      0       0.5040324       111.2641
2011    28      1       0.4998987       110.9837
2011    28      2       0.5000742       111.2747
2011    28      3       0.4585556       104.6524
2011    28      4       0.422309        98.63353
2011    28      5       0.4547907       104.3051
2011    28      6       0.5188662       115.0502
2011    28      7       0.565706        122.3837
2011    29      0       0.5102306       113.5204
2011    29      1       0.425704        99.35749
2011    29      2       0.3537506       86.22096
2011    29      3       0.3039554       76.50929
2011    29      4       0.2837364       72.33901
2011    29      5       0.295996        74.6938
2011    29      6       0.2483409       64.89298
2011    29      7       0.2342806       61.83719
2011    30      0       0.191566        52.05149
2011    30      1       0.197854        53.57347
2011    30      2       0.193268        52.7255
2011    30      3       0.2142804       57.32501
2011    30      4       0.2671656       68.15798
2011    30      5       0.3645669       86.95879
2011    30      6       0.4621536       104.8304
2011    30      7       0.3469207       85.03543
2011    31      0       0.2754452       71.1222
2011    31      1       0.1695925       47.79469
2011    31      2       0.148223        42.63951
2011    31      3       0.1418418       41.18804
2011    31      4       0.1459258       42.21203
2011    31      5       0.1513033       43.68331
2011    31      6       0.1467441       42.7862
2011    31      7       0.1442718       42.31358
2012    1       0       0.4292323       97.99826
2012    1       1       0.5408421       115.3843
2012    1       2       0.6177151       126.6255
2012    1       3       0.6850412       135.9154
2012    1       4       0.692217        137.4672
2012    1       5       0.7132336       140.4082
2012    1       6       0.6181487       127.8512
2012    1       7       0.5515763       118.2727
2012    2       0       0.5612919       119.6999
2012    2       1       0.5548209       118.8627
2012    2       2       0.5635041       119.8329
2012    2       3       0.593749        124.0963
2012    2       4       0.6132867       126.9489
2012    2       5       0.655293        132.9111
2012    2       6       0.6920477       138.0491
2012    2       7       0.6753608       135.7176
2012    3       0       0.7629924       147.094
2012    3       1       0.7215672       141.8183
2012    3       2       0.6395838       130.6726
2012    3       3       0.5126206       111.7954
2012    3       4       0.4429902       100.122
2012    3       5       0.3881589       90.72472
2012    3       6       0.401594        93.29166
2012    3       7       0.3568373       85.00357
2012    4       0       0.3304801       79.92853
2012    4       1       0.2865457       71.52329
2012    4       2       0.2477178       63.60011
2012    4       3       0.2124398       55.86496
2012    4       4       0.202817        53.81877
2012    4       5       0.207939        55.1614
2012    4       6       0.2327291       60.81724
2012    4       7       0.2098185       55.67127
2012    5       0       0.2270847       58.67076
2012    5       1       0.3682578       86.45853
2012    5       2       0.4444609       100.2699
2012    5       3       0.4718982       104.9196
2012    5       4       0.6308034       129.2591
2012    5       5       0.6655604       134.5887
2012    5       6       0.6895998       138.8609
2012    5       7       0.6639125       135.8211
2012    6       0       0.6561816       134.8401
2012    6       1       0.7229937       143.4642
2012    6       2       0.7644425       148.2026
2012    6       3       0.8950376       162.7203
2012    6       4       0.9250012       166.2772
2012    6       5       0.8656429       159.9471
2012    6       6       0.6685104       135.9545
2012    6       7       0.35565         85.94751
2012    7       0       0.2344719       62.15327
2012    7       1       0.1742899       49.06096
2012    7       2       0.1601224       45.53813
2012    7       3       0.1584627       45.01811
2012    7       4       0.1750638       48.59684
2012    7       5       0.207002        55.63847
2012    7       6       0.2456203       64.20365
2012    7       7       0.2494875       65.21309
2012    8       0       0.2229976       59.74091
2012    8       1       0.1991549       54.61432
2012    8       2       0.1881852       52.37219
2012    8       3       0.1970299       54.32787
2012    8       4       0.1896923       52.64674
2012    8       5       0.1847821       51.59761
2012    8       6       0.1917981       53.13455
2012    8       7       0.205063        56.11766
2012    9       0       0.1935814       53.15938
2012    9       1       0.3068091       74.11015
2012    9       2       0.5011261       106.9211
2012    9       3       0.7287455       139.2444
2012    9       4       0.8276171       152.4969
2012    9       5       0.9050418       160.5081
2012    9       6       0.8187168       152.8826
2012    9       7       0.7990965       151.8161
2012    10      0       0.7155562       141.4278
2012    10      1       0.6812206       136.7863
2012    10      2       0.6841552       137.86
2012    10      3       0.6494365       133.9096
2012    10      4       0.6234597       130.5289
2012    10      5       0.6469914       134.3998
2012    10      6       0.5907342       126.7045
2012    10      7       0.5416101       119.2177
2012    11      0       0.614826        129.7306
2012    11      1       0.646378        134.0841
2012    11      2       0.6312523       131.6901
2012    11      3       0.5890055       125.4046
2012    11      4       0.5540179       120.007
2012    11      5       0.5212346       115.2115
2012    11      6       0.4433768       102.397
2012    11      7       0.3286299       81.53278
2012    12      0       0.2493349       65.83678
2012    12      1       0.2061725       56.24077
2012    12      2       0.1970526       54.15141
2012    12      3       0.179284        49.64189
2012    12      4       0.2123841       56.7778
2012    12      5       0.2602995       65.53063
2012    12      6       0.2259731       60.80213
2012    12      7       0.270856        69.9564
2012    13      0       0.2061221       55.9804
2012    13      1       0.2194138       57.95995
2012    13      2       0.1908865       52.15897
2012    13      3       0.1773116       49.33181
2012    13      4       0.2018756       54.65546
2012    13      5       0.2094829       56.12876
2012    13      6       0.2731539       69.13497
2012    13      7       0.2829413       70.69099
2012    14      0       0.3142147       75.26674
2012    14      1       0.3937081       89.85398
2012    14      2       0.5047569       108.547
2012    14      3       0.7185636       138.945
2012    14      4       0.9435313       164.9458
2012    14      5       1.022252        173.1125
2012    14      6       1.202249        189.5621
2012    14      7       1.04636         177.9841
2012    15      0       0.8907292       162.4735
2012    15      1       0.7950043       151.5855
2012    15      2       0.7791415       149.5605
2012    15      3       0.7430263       144.7696
2012    15      4       0.7518062       144.9151
2012    15      5       0.7517491       144.1903
2012    15      6       0.7181135       140.2606
2012    15      7       0.7275559       141.7628
2012    16      0       0.863427        157.6312
2012    16      1       0.9763074       170.0383
2012    16      2       1.029729        175.3657
2012    16      3       0.9750867       169.8105
2012    16      4       0.857129        157.1261
2012    16      5       0.8060652       151.3131
2012    16      6       0.8714681       159.1091
2012    16      7       0.880172        160.5293
2012    17      0       0.9438082       166.3028
2012    17      1       1.149976        183.9892
2012    17      2       1.178822        185.9321
2012    17      3       1.062233        176.1823
2012    17      4       0.7940525       149.1925
2012    17      5       0.5511311       117.4647
2012    17      6       0.4475179       101.3322
2012    17      7       0.3044159       75.66498
2012    18      0       0.1610158       45.47451
2012    18      1       0.1505517       42.45583
2012    18      2       0.1763145       47.4163
2012    18      3       0.2138041       54.67414
2012    18      4       0.23067         58.41555
2012    18      5       0.293524        71.24492
2012    18      6       0.3813223       87.39781
2012    18      7       0.3812783       88.81813
2012    19      0       0.2707095       68.60649
2012    19      1       0.2498561       64.39467
2012    19      2       0.2555169       65.41231
2012    19      3       0.2684321       67.87828
2012    19      4       0.2953536       72.75101
2012    19      5       0.3155167       76.51853
2012    19      6       0.3414079       82.03144
2012    19      7       0.4235925       97.19371
2012    20      0       0.4056381       93.8779
2012    20      1       0.3929694       91.91409
2012    20      2       0.3406109       82.51784
2012    20      3       0.3424682       82.14478
2012    20      4       0.3456275       82.4079
2012    20      5       0.3415212       81.8309
2012    20      6       0.3531304       84.47641
2012    20      7       0.3836437       90.5114
2012    21      0       0.313626        77.8017
2012    21      1       0.2858351       72.43041
2012    21      2       0.2714235       69.33153
2012    21      3       0.2851427       71.81162
2012    21      4       0.2763779       70.04346
2012    21      5       0.2568923       66.31915
2012    21      6       0.2826991       71.84494
2012    21      7       0.3052148       76.47973
2012    22      0       0.2541036       65.8615
2012    22      1       0.2369301       62.12746
2012    22      2       0.2410541       62.96147
2012    22      3       0.2510662       65.05209
2012    22      4       0.2828716       71.51998
2012    22      5       0.3162055       78.34927
2012    22      6       0.3676238       88.36261
2012    22      7       0.328276        80.86383
2012    23      0       0.2415542       63.18016
2012    23      1       0.2952538       73.63553
2012    23      2       0.2569639       66.34684
2012    23      3       0.2208895       58.86577
2012    23      4       0.2070635       55.75454
2012    23      5       0.2012126       54.63177
2012    23      6       0.2352865       61.9974
2012    23      7       0.1881286       51.66388
2012    24      0       0.1354821       39.13857
2012    24      1       0.1171349       34.7942
2012    24      2       0.1205031       35.53119
2012    24      3       0.1375027       39.52489
2012    24      4       0.1461842       41.91424
2012    24      5       0.150809        43.34217
2012    24      6       0.1585493       45.50788
2012    24      7       0.1366857       40.53938
2012    25      0       0.1117467       34.39023
2012    25      1       0.08541736      27.56403
2012    25      2       0.09955621      31.00143
2012    25      3       0.1269681       37.56406
2012    25      4       0.1539148       43.53373
2012    25      5       0.1788348       48.78601
2012    25      6       0.2610109       66.657
2012    25      7       0.281397        71.09761
2012    26      0       0.2597072       66.14521
2012    26      1       0.2743485       69.10082
2012    26      2       0.2625287       66.46592
2012    26      3       0.2699183       67.68606
2012    26      4       0.2695508       67.83639
2012    26      5       0.2776855       69.89009
2012    26      6       0.3443277       83.43816
2012    26      7       0.3964862       93.02149
2012    27      0       0.3048436       75.57124
2012    27      1       0.2387194       62.49327
2012    27      2       0.1931358       52.63471
2012    27      3       0.1723248       47.75053
2012    27      4       0.1763907       48.66759
2012    27      5       0.2632934       66.72641
2012    27      6       0.2915145       73.05864
2012    27      7       0.3436036       83.49869
2012    28      0       0.3443463       83.72334
2012    28      1       0.3595269       87.00193
2012    28      2       0.3709301       89.25887
2012    28      3       0.3891498       92.60257
2012    28      4       0.331724        81.55367
2012    28      5       0.3182894       78.96305
2012    28      6       0.3435297       84.21465
2012    28      7       0.31715         79.26293
2012    29      0       0.2848238       72.86913
2012    29      1       0.2726399       70.28568
2012    29      2       0.2726446       70.34078
2012    29      3       0.2653194       68.86841
2012    29      4       0.2339431       62.23637
2012    29      5       0.2278316       60.93669
2012    29      6       0.2944422       75.75425
2012    29      7       0.3537843       87.54098
2012    30      0       0.2987483       76.39555
2012    30      1       0.3022962       77.08129
2012    30      2       0.3474733       85.02233
2012    30      3       0.4046279       94.33473
2012    30      4       0.417044        95.88655
2012    30      5       0.4448651       100.4782
2012    30      6       0.5446926       117.1944
2012    30      7       0.6951701       138.914
2012    31      0       0.5978181       125.6086
2012    31      1       0.4639079       104.9509
2012    31      2       0.4537925       102.8254
2012    31      3       0.4372621       100.0421
2012    31      4       0.4481989       101.8799
2012    31      5       0.6235744       128.0956
2012    31      6       0.7650875       147.7285
2012    31      7       0.8157176       154.5154
2013    1       0       0.6545448       133.0613
2013    1       1       0.6748577       135.4039
2013    1       2       0.6744927       135.0489
2013    1       3       0.6346661       129.3213
2013    1       4       0.5559097       117.8783
2013    1       5       0.4376544       99.32586
2013    1       6       0.3669704       87.45081
2013    1       7       0.3058295       76.08518
2013    2       0       0.213026        57.35906
2013    2       1       0.162892        46.43986
2013    2       2       0.1706482       47.99908
2013    2       3       0.1760015       48.84936
2013    2       4       0.2085459       56.28461
2013    2       5       0.2394748       63.18504
2013    2       6       0.276306        71.05435
2013    2       7       0.232272        61.93089
2013    3       0       0.1975547       53.79836
2013    3       1       0.2151977       57.20535
2013    3       2       0.2394224       61.56632
2013    3       3       0.2854282       70.39465
2013    3       4       0.2360827       61.35257
2013    3       5       0.20915         56.45463
2013    3       6       0.2690883       68.52498
2013    3       7       0.3101413       75.71225
2013    4       0       0.375083        88.0529
2013    4       1       0.4165047       96.34537
2013    4       2       0.4249155       98.00549
2013    4       3       0.4429935       101.4259
2013    4       4       0.4068776       95.96918
2013    4       5       0.3729433       89.98059
2013    4       6       0.3489313       85.60919
2013    4       7       0.3452287       84.90349
2013    5       0       0.3509339       86.07815
2013    5       1       0.3529061       86.65302
2013    5       2       0.3660713       89.02817
2013    5       3       0.4880273       110.4992
2013    5       4       0.4960282       112.177
2013    5       5       0.4047347       96.51922
2013    5       6       0.4015013       95.62799
2013    5       7       0.3649353       88.34722
2013    6       0       0.4007725       94.64235
2013    6       1       0.4162473       97.77429
2013    6       2       0.4164325       97.93461
2013    6       3       0.4488616       103.4408
2013    6       4       0.4869621       109.819
2013    6       5       0.4875163       109.8535
2013    6       6       0.4488145       103.5418
2013    6       7       0.3348615       82.75621
2013    7       0       0.3088911       77.33724
2013    7       1       0.3330226       81.88116
2013    7       2       0.3899011       92.35605
2013    7       3       0.4033363       94.71813
2013    7       4       0.4103308       95.77295
2013    7       5       0.4765109       107.3704
2013    7       6       0.5560814       120.2862
2013    7       7       0.6042219       128.1199
2013    8       0       0.5677648       122.0039
2013    8       1       0.6263725       129.9387
2013    8       2       0.7391269       144.2279
2013    8       3       0.9447398       167.1286
2013    8       4       0.9158883       165.604
2013    8       5       0.9000833       163.9397
2013    8       6       0.8973075       164.1076
2013    8       7       0.8420109       158.485
2013    9       0       0.7592308       148.2061
2013    9       1       0.7909437       151.5611
2013    9       2       0.7433275       145.877
2013    9       3       0.6140952       128.1663
2013    9       4       0.3392744       82.85018
2013    9       5       0.2413862       63.68664
2013    9       6       0.2203983       59.02075
2013    9       7       0.1461634       42.55072
2013    10      0       0.1462349       42.53587
2013    10      1       0.1974858       53.37915
2013    10      2       0.2168794       58.80933
2013    10      3       0.2289534       61.40919
2013    10      4       0.2021789       55.27615
2013    10      5       0.2182683       58.64221
2013    10      6       0.3003755       75.46233
2013    10      7       0.3554545       86.27328
2013    11      0       0.3550479       85.99266
2013    11      1       0.3734848       89.4261
2013    11      2       0.4061964       95.34786
2013    11      3       0.390609        92.60877
2013    11      4       0.3060032       76.77155
2013    11      5       0.256611        66.579
2013    11      6       0.3853646       92.13061
2013    11      7       0.4145754       97.31637
2013    12      0       0.4107388       96.24826
2013    12      1       0.4083165       96.2398
2013    12      2       0.4238191       98.6323
2013    12      3       0.3584017       86.49223
2013    12      4       0.2672998       68.65728
2013    12      5       0.2471154       64.64961
2013    12      6       0.2820325       72.16847
2013    12      7       0.33099         82.07606
2013    13      0       0.3676183       89.01262
2013    13      1       0.4558105       104.1552
2013    13      2       0.5066694       111.9922
2013    13      3       0.402461        94.57409
2013    13      4       0.3202404       79.69457
2013    13      5       0.2834752       72.95938
2013    13      6       0.3025532       76.78286
2013    13      7       0.3157098       79.58767
2013    14      0       0.1873131       52.15277
2013    14      1       0.1792398       50.60113
2013    14      2       0.1916469       53.90939
2013    14      3       0.2000362       55.88776
2013    14      4       0.1978268       55.36535
2013    14      5       0.1928162       53.98928
2013    14      6       0.2108462       58.12126
2013    14      7       0.2137669       59.0243
2013    15      0       0.1680309       48.50277
2013    15      1       0.1602132       46.58859
2013    15      2       0.1499816       44.06822
2013    15      3       0.1460757       42.92734
2013    15      4       0.1573272       45.49371
2013    15      5       0.1736555       49.26157
2013    15      6       0.1926557       53.67985
2013    15      7       0.2258882       61.31962
2013    16      0       0.2113231       58.07971
2013    16      1       0.2072186       57.05315
2013    16      2       0.1966226       54.52752
2013    16      3       0.1980909       54.81082
2013    16      4       0.1886523       52.67109
2013    16      5       0.1808268       50.77385
2013    16      6       0.1979444       54.59797
2013    16      7       0.2426776       64.92118
2013    17      0       0.2324302       62.57782
2013    17      1       0.2042938       56.19515
2013    17      2       0.1724221       48.98584
2013    17      3       0.1575467       45.39041
2013    17      4       0.1392186       41.08093
2013    17      5       0.1247054       37.57067
2013    17      6       0.1554869       45.13772
2013    17      7       0.2341943       63.12509
2013    18      0       0.189324        53.1205
2013    18      1       0.1785105       50.51072
2013    18      2       0.1805791       50.8538
2013    18      3       0.184967        51.83369
2013    18      4       0.1977409       54.797
2013    18      5       0.2308616       62.22265
2013    18      6       0.2751811       71.73112
2013    18      7       0.3312767       83.19807
2013    19      0       0.3115505       78.90854
2013    19      1       0.2977987       75.88651
2013    19      2       0.379159        91.09469
2013    19      3       0.4648486       105.4969
2013    19      4       0.4736558       106.9815
2013    19      5       0.4767995       108.07
2013    19      6       0.5019645       112.4582
2013    19      7       0.5542699       121.0554
2013    20      0       0.5269318       116.1102
2013    20      1       0.6305222       130.8157
2013    20      2       0.7640876       148.6691
2013    20      3       0.7952368       152.6418
2013    20      4       0.751236        147.4733
2013    20      5       0.616244        129.6937
2013    20      6       0.6099608       129.2624
2013    20      7       0.6072577       129.4061
2013    21      0       0.4914945       111.1112
2013    21      1       0.4678116       107.0151
2013    21      2       0.4585253       105.1519
2013    21      3       0.4513015       103.4431
2013    21      4       0.405303        95.59881
2013    21      5       0.3523981       86.29482
2013    21      6       0.38553         92.84167
2013    21      7       0.4031822       96.19529
2013    22      0       0.3175164       79.88324
2013    22      1       0.2545087       66.97862
2013    22      2       0.2619557       68.16465
2013    22      3       0.2723562       69.79312
2013    22      4       0.3087754       76.58453
2013    22      5       0.3543215       84.9395
2013    22      6       0.3939713       92.73011
2013    22      7       0.3870531       92.11654
2013    23      0       0.3031898       75.72961
2013    23      1       0.2942339       73.6885
2013    23      2       0.3415314       82.63358
2013    23      3       0.3972844       92.51494
2013    23      4       0.4023677       93.42561
2013    23      5       0.4918923       108.2049
2013    23      6       0.5725608       120.7376
2013    23      7       0.5913556       123.9767
2013    24      0       0.582569        122.0582
2013    24      1       0.7023394       138.3774
2013    24      2       0.7598031       143.9151
2013    24      3       0.6923868       135.4748
2013    24      4       0.9911831       170.3141
2013    24      5       1.065474        178.1963
2013    24      6       1.089394        179.5674
2013    24      7       1.13747         183.5868
2013    25      0       0.9805406       169.0856
2013    25      1       0.8137789       151.6773
2013    25      2       0.7842836       148.2467
2013    25      3       0.7870805       148.2915
2013    25      4       0.6099741       125.1655
2013    25      5       0.6490642       130.1382
2013    25      6       0.7764122       145.6051
2013    25      7       0.6860492       134.8795
2013    26      0       0.5076376       109.6986
2013    26      1       0.3815768       89.11491
2013    26      2       0.2822179       70.69791
2013    26      3       0.2136849       55.66063
2013    26      4       0.240442        61.19735
2013    26      5       0.2362633       61.10051
2013    26      6       0.2659549       67.60452
2013    26      7       0.2533498       65.86065
2013    27      0       0.2350712       62.29339
2013    27      1       0.1932982       52.83583
2013    27      2       0.191538        52.40949
2013    27      3       0.2129718       56.94574
2013    27      4       0.2453934       63.83998
2013    27      5       0.2089294       56.80584
2013    27      6       0.1895804       52.73988
2013    27      7       0.1891425       52.74435
2013    28      0       0.1639177       46.96698
2013    28      1       0.1513198       44.04851
2013    28      2       0.1566506       45.34621
2013    28      3       0.1640871       47.12613
2013    28      4       0.1682677       48.08253
2013    28      5       0.1848019       51.77493
2013    28      6       0.2179919       59.12146
2013    28      7       0.2679787       69.52424
2013    29      0       0.2328496       61.13893
2013    29      1       0.2907405       71.14293
2013    29      2       0.3562113       82.68924
2013    29      3       0.2323334       60.05866
2013    29      4       0.34147         80.18089
2013    29      5       0.4962294       106.6944
2013    29      6       0.8694677       157.2842
2013    29      7       1.353276        201.3462
2013    30      0       0.9556204       169.1126
2013    30      1       0.4640264       104.4385
2013    30      2       0.3701007       87.44426
2013    30      3       0.3679788       87.38472
2013    30      4       0.4114586       95.96958
2013    30      5       0.4611601       105.5085
2013    30      6       0.4495794       103.7705
2013    30      7       0.4196192       98.33886
2013    31      0       0.2432132       63.9118
2013    31      1       0.2431346       63.14315
2013    31      2       0.2844753       71.4252
2013    31      3       0.2521847       65.13131
2013    31      4       0.2313646       60.83362
2013    31      5       0.2739027       69.71459
2013    31      6       0.2991901       75.15591
2013    31      7       0.3622318       87.86201
2014    1       0       0.3756947       89.60573
2014    1       1       0.278471        71.39796
2014    1       2       0.2056435       55.81769
2014    1       3       0.1726044       48.17712
2014    1       4       0.1513723       43.13821
2014    1       5       0.1878097       51.50745
2014    1       6       0.2187964       58.5046
2014    1       7       0.2312484       60.94593
2014    2       0       0.2379367       62.38031
2014    2       1       0.2511093       65.04898
2014    2       2       0.2603339       66.93096
2014    2       3       0.2685994       69.01743
2014    2       4       0.3139418       78.30367
2014    2       5       0.3840927       91.81214
2014    2       6       0.4003185       95.05064
2014    2       7       0.3789562       91.04256
2014    3       0       0.392106        93.54063
2014    3       1       0.39626         94.38436
2014    3       2       0.3926687       93.84303
2014    3       3       0.4006658       95.29061
2014    3       4       0.3929984       94.00228
2014    3       5       0.3842432       92.41625
2014    3       6       0.3399183       84.14549
2014    3       7       0.2856685       73.41793
2014    4       0       0.2821188       72.45912
2014    4       1       0.2210786       59.45098
2014    4       2       0.2048302       55.76225
2014    4       3       0.2025573       55.24158
2014    4       4       0.1951619       53.84327
2014    4       5       0.1885431       52.56862
2014    4       6       0.1829865       51.39852
2014    4       7       0.184166        51.65162
2014    5       0       0.1831623       51.29366
2014    5       1       0.1865518       52.05051
2014    5       2       0.1811073       50.75662
2014    5       3       0.1718429       48.66296
2014    5       4       0.1804852       50.76195
2014    5       5       0.2050932       56.37988
2014    5       6       0.2409149       64.26207
2014    5       7       0.264011        69.05367
2014    6       0       0.2462429       64.56805
2014    6       1       0.2442448       64.03099
2014    6       2       0.2820012       71.84362
2014    6       3       0.361534        86.94069
2014    6       4       0.4649341       104.4109
2014    6       5       0.5009834       110.5427
2014    6       6       0.5493109       117.7631
2014    6       7       0.6327649       128.8867
2014    7       0       0.6792521       134.0062
2014    7       1       0.6917473       135.7015
2014    7       2       0.6594707       132.034
2014    7       3       0.6974964       137.2269
2014    7       4       0.6855919       135.7492
2014    7       5       0.7154377       139.5091
2014    7       6       0.7430457       143.0996
2014    7       7       0.6748122       134.4347
2014    8       0       0.6381948       128.6868
2014    8       1       0.6284568       127.5469
2014    8       2       0.6173306       126.2531
2014    8       3       0.5961859       123.6012
2014    8       4       0.6150698       126.3652
2014    8       5       0.6672658       133.9489
2014    8       6       0.7633879       146.6581
2014    8       7       0.8084999       152.1391
2014    9       0       0.8011149       150.6602
2014    9       1       0.7774499       148.051
2014    9       2       0.7470622       143.5309
2014    9       3       0.9767938       168.7309
2014    9       4       0.8372561       154.8673
2014    9       5       0.677087        135.9781
2014    9       6       0.6617075       134.7795
2014    9       7       0.5802929       123.2152
2014    10      0       0.5467138       117.9635
2014    10      1       0.4747572       106.848
2014    10      2       0.4422267       101.6309
2014    10      3       0.489491        109.4802
2014    10      4       0.4387304       101.3076
2014    10      5       0.4305754       100.0949
2014    10      6       0.5054823       112.74
2014    10      7       0.5594029       121.337
2014    11      0       0.5330823       117.3748
2014    11      1       0.5062206       113.1082
2014    11      2       0.4418782       102.3446
2014    11      3       0.4157782       97.64566
2014    11      4       0.4106763       96.95506
2014    11      5       0.3863836       92.57412
2014    11      6       0.4137526       97.38048
2014    11      7       0.3961395       94.31801
2014    12      0       0.3050315       76.85603
2014    12      1       0.3135593       78.49993
2014    12      2       0.3467773       84.62006
2014    12      3       0.3193436       78.96416
2014    12      4       0.2910872       73.37302
2014    12      5       0.321615        79.39669
2014    12      6       0.3523128       85.49756
2014    12      7       0.3235536       80.28713
2014    13      0       0.2666861       68.71972
2014    13      1       0.2486397       64.65266
2014    13      2       0.2191938       58.44759
2014    13      3       0.1927395       52.78287
2014    13      4       0.1888136       52.00688
2014    13      5       0.2090643       56.44051
2014    13      6       0.2168691       58.24342
2014    13      7       0.2410309       63.22617
2014    14      0       0.2527011       64.99046
2014    14      1       0.4551981       99.88444
2014    14      2       0.6073854       123.1941
2014    14      3       0.7554325       142.2333
2014    14      4       0.9737793       166.0241
2014    14      5       1.501235        208.1946
2014    14      6       1.584902        215.0246
2014    14      7       1.25648         195.4723
2014    15      0       1.065066        179.806
2014    15      1       0.9380368       167.4806
2014    15      2       0.7811514       149.4923
2014    15      3       0.7974838       151.1391
2014    15      4       0.7835          150.373
2014    15      5       0.7796777       149.8073
2014    15      6       0.8335558       155.943
2014    15      7       0.8679713       159.2691
2014    16      0       0.7856243       149.1786
2014    16      1       0.7680309       146.3043
2014    16      2       0.7325561       142.3698
2014    16      3       1.015437        172.3709
2014    16      4       0.885556        161.5092
2014    16      5       0.7814567       150.0176
2014    16      6       0.7218582       143.366
2014    16      7       0.6159835       129.7147
2014    17      0       0.4976178       111.6967
2014    17      1       0.4505949       103.894
2014    17      2       0.424255        99.30481
2014    17      3       0.3877616       92.82038
2014    17      4       0.3648943       88.59626
2014    17      5       0.3884516       92.90725
2014    17      6       0.5054671       112.6252
2014    17      7       0.5887854       125.585
2014    18      0       0.5895931       125.854
2014    18      1       0.5581344       121.6618
2014    18      2       0.5488516       120.3693
2014    18      3       0.5196618       115.9327
2014    18      4       0.4359396       102.1479
2014    18      5       0.3730197       90.67944
2014    18      6       0.4546322       105.2714
2014    18      7       0.467599        107.3639
2014    19      0       0.4301958       100.5974
2014    19      1       0.418707        98.78456
2014    19      2       0.4047333       96.38183
2014    19      3       0.4019946       96.03714
2014    19      4       0.4045845       97.02402
2014    19      5       0.4058145       97.07789
2014    19      6       0.4423281       103.4096
2014    19      7       0.4813889       109.6987
2014    20      0       0.4597714       105.4476
2014    20      1       0.423238        98.15634
2014    20      2       0.514103        112.4518
2014    20      3       0.3237437       79.90676
2014    20      4       0.2421767       63.8409
2014    20      5       0.2751922       70.96095
2014    20      6       0.3410114       84.19287
2014    20      7       0.5160587       114.344
2014    21      0       0.5382987       118.0707
2014    21      1       0.5730114       123.2331
2014    21      2       0.5364419       117.687
2014    21      3       0.5018933       112.4307
2014    21      4       0.5117037       113.9922
2014    21      5       0.5450905       119.2036
2014    21      6       0.5600011       121.8222
2014    21      7       0.6285714       131.8174
2014    22      0       0.6268138       131.2046
2014    22      1       0.6637911       136.1459
2014    22      2       0.777452        150.3428
2014    22      3       0.7511242       146.972
2014    22      4       0.6541885       134.4543
2014    22      5       0.5651829       122.02
2014    22      6       0.4383825       101.8694
2014    22      7       0.3543328       86.48982
2014    23      0       0.285226        72.7695
2014    23      1       0.2875425       72.99302
2014    23      2       0.2523934       66.00292
2014    23      3       0.2407115       63.46039
2014    23      4       0.2326067       61.67122
2014    23      5       0.2856412       72.56922
2014    23      6       0.2958979       74.46187
2014    23      7       0.2596748       67.12251
2014    24      0       0.2524519       65.03928
2014    24      1       0.2979686       73.98241
2014    24      2       0.3130183       77.02284
2014    24      3       0.2993948       74.58796
2014    24      4       0.2888703       72.15561
2014    24      5       0.2845271       71.51788
2014    24      6       0.2652048       67.83159
2014    24      7       0.2319264       61.09064
2014    25      0       0.1888715       51.16719
2014    25      1       0.2138734       56.34828
2014    25      2       0.2529617       64.55614
2014    25      3       0.2780969       69.79198
2014    25      4       0.2915179       72.8541
2014    25      5       0.3068648       75.96086
2014    25      6       0.3018421       75.36686
2014    25      7       0.3140009       78.08173
2014    26      0       0.289923        73.18734
2014    26      1       0.2820055       71.69824
2014    26      2       0.2651859       68.50131
2014    26      3       0.2535796       66.18299
2014    26      4       0.2598858       67.21603
2014    26      5       0.2725637       69.53963
2014    26      6       0.277926        70.60206
2014    26      7       0.3367776       81.99434
2014    27      0       0.418989        96.37086
2014    27      1       0.5566922       118.8126
2014    27      2       0.6463743       132.0039
2014    27      3       0.6641325       134.4142
2014    27      4       0.6105188       126.893
2014    27      5       0.6157962       127.9241
2014    27      6       0.6543207       133.9674
2014    27      7       0.5971834       125.5587
2014    28      0       0.6095042       126.8682
2014    28      1       0.6466921       131.6483
2014    28      2       0.6386273       130.7278
2014    28      3       0.6276749       129.4857
2014    28      4       0.6258307       129.1449
2014    28      5       0.6450521       132.0423
2014    28      6       0.6406834       132.0082
2014    28      7       0.6133205       128.4051
2014    29      0       0.5304923       115.6981
2014    29      1       0.4980524       110.7654
2014    29      2       0.5222561       115.0762
2014    29      3       0.5708643       122.6267
2014    29      4       0.5786245       123.7316
2014    29      5       0.5411727       118.2138
2014    29      6       0.4866345       109.7067
2014    29      7       0.4188307       98.33649
2014    30      0       0.29414         74.37503
2014    30      1       0.2576327       66.67599
2014    30      2       0.3250119       79.64998
2014    30      3       0.3936384       91.50451
2014    30      4       0.4725977       104.388
2014    30      5       0.5665692       120.1347
2014    30      6       0.6055467       126.4525
2014    30      7       0.5977447       125.5372
2014    31      0       0.5390164       116.4626
2014    31      1       0.4640016       104.3577
2014    31      2       0.4245234       97.59837
2014    31      3       0.4926054       108.9206
2014    31      4       0.5766411       121.4954
2014    31      5       0.6787395       136.4262
2014    31      6       0.654875        133.9261
2014    31      7       0.545179        117.4497
2015    1       0       0.2758142       69.96029
2015    1       1       0.2619723       67.25559
2015    1       2       0.2666123       67.99898
2015    1       3       0.2460158       63.93165
2015    1       4       0.2352917       61.86017
2015    1       5       0.2644444       67.91305
2015    1       6       0.2764981       70.59034
2015    1       7       0.284883        72.3039
2015    2       0       0.2699688       68.7467
2015    2       1       0.2915867       72.97915
2015    2       2       0.3007645       75.02161
2015    2       3       0.3224016       79.31687
2015    2       4       0.3013018       75.70502
2015    2       5       0.318549        78.69449
2015    2       6       0.3659071       87.04383
2015    2       7       0.4790521       105.8883
2015    3       0       0.5229406       112.384
2015    3       1       0.5552481       117.6674
2015    3       2       0.5486152       117.0634
2015    3       3       0.537049        116.0538
2015    3       4       0.5717926       122.0834
2015    3       5       0.5381943       117.3151
2015    3       6       0.4451265       102.4124
2015    3       7       0.3948522       93.90963
2015    4       0       0.3767263       90.62769
2015    4       1       0.3719867       89.65325
2015    4       2       0.3664645       88.47055
2015    4       3       0.3723902       89.52341
2015    4       4       0.3954105       92.74839
2015    4       5       0.4704205       105.0128
2015    4       6       0.4756411       105.6859
2015    4       7       0.5921079       121.8681
2015    5       0       0.6721894       132.8205
2015    5       1       0.8457013       154.2968
2015    5       2       1.162026        185.2086
2015    5       3       1.544018        210.9672
2015    5       4       1.65622         219.2927
2015    5       5       1.415417        204.7055
2015    5       6       1.300809        197.4168
2015    5       7       1.252382        193.4347
2015    6       0       1.369331        200.9639
2015    6       1       1.223734        192.3468
2015    6       2       1.172331        188.3919
2015    6       3       1.092874        182.5914
2015    6       4       1.045323        179.493
2015    6       5       0.8950226       164.4353
2015    6       6       0.8582444       160.4089
2015    6       7       0.762153        149.2455
2015    7       0       0.688686        139.2546
2015    7       1       0.6805609       138.0566
2015    7       2       0.5833008       124.2529
2015    7       3       0.6283166       129.5263
2015    7       4       0.7267574       142.5119
2015    7       5       0.8940232       162.0477
2015    7       6       0.9214744       165.6787
2015    7       7       0.7541476       147.1561
2015    8       0       0.6291813       129.9895
2015    8       1       0.5747641       121.6864
2015    8       2       0.5593833       118.9721
2015    8       3       0.674727        135.4368
2015    8       4       0.7537036       145.8328
2015    8       5       0.8819343       160.8306
2015    8       6       0.9962553       172.3216
2015    8       7       1.092336        181.2111
2015    9       0       1.154297        185.5704
2015    9       1       1.20575         188.9455
2015    9       2       1.30231         195.5285
2015    9       3       1.430705        202.9927
2015    9       4       1.394071        200.8837
2015    9       5       1.418752        201.819
2015    9       6       1.537361        207.568
2015    9       7       1.294318        193.5828
2015    10      0       0.6547243       131.3961
2015    10      1       0.4396877       97.84576
2015    10      2       0.2921093       70.95078
2015    10      3       0.3425016       80.77275
2015    10      4       0.4602519       100.5735
2015    10      5       0.4897414       105.3116
2015    10      6       0.5752085       119.3707
2015    10      7       0.6734398       133.4164
2015    11      0       0.8543604       155.2334
2015    11      1       0.9317078       164.0421
2015    11      2       0.9222062       163.3281
2015    11      3       0.8712719       157.8088
2015    11      4       0.869319        157.927
2015    11      5       0.8278581       153.3724
2015    11      6       0.8890047       160.2186
2015    11      7       0.9024852       161.4355
2015    12      0       0.9167017       162.1948
2015    12      1       0.8589292       155.93
2015    12      2       0.7552137       143.8959
2015    12      3       0.6963521       136.7725
2015    12      4       0.5391202       115.1606
2015    12      5       0.512216        111.1441
2015    12      6       0.5113959       111.3
2015    12      7       0.3083742       76.29389
2015    13      0       0.1261892       37.45915
2015    13      1       0.1155503       34.77822
2015    13      2       0.1343846       39.12913
2015    13      3       0.1618614       45.34346
2015    13      4       0.1901532       51.60588
2015    13      5       0.2264602       59.517
2015    13      6       0.2420563       62.78966
2015    13      7       0.2266561       59.47699
2015    14      0       0.2242412       58.79241
2015    14      1       0.2853107       71.29999
2015    14      2       0.3065642       75.56013
2015    14      3       0.2978298       74.04486
2015    14      4       0.2961229       73.77838
2015    14      5       0.2495475       64.71179
2015    14      6       0.2360628       61.38662
2015    14      7       0.2298157       60.3009
2015    15      0       0.1613671       44.87844
2015    15      1       0.1646114       45.6582
2015    15      2       0.1690228       46.05713
2015    15      3       0.2037322       53.39615
2015    15      4       0.262991        65.01975
2015    15      5       0.3312516       78.11657
2015    15      6       0.4166852       93.78966
2015    15      7       0.4170695       94.14708
2015    16      0       0.3269512       78.01082
2015    16      1       0.297475        71.75443
2015    16      2       0.3193706       75.41786
2015    16      3       0.3240468       76.37221
2015    16      4       0.3682368       84.72862
2015    16      5       0.3614397       85.00762
2015    16      6       0.3243125       79.29003
2015    16      7       0.2675206       68.38082
2015    17      0       0.1839592       50.66492
2015    17      1       0.204363        54.4659
2015    17      2       0.2309558       59.89263
2015    17      3       0.1215473       36.28647
2015    17      4       0.0965429       30.21513
2015    17      5       0.1253847       37.13902
2015    17      6       0.1934823       52.77026
2015    17      7       0.1940132       53.09016
2015    18      0       0.1573833       45.05911
2015    18      1       0.1396374       40.93379
2015    18      2       0.1694169       47.6908
2015    18      3       0.2024896       54.90324
2015    18      4       0.2388539       62.44113
2015    18      5       0.3058279       75.50955
2015    18      6       0.3811029       88.70169
2015    18      7       0.3569671       83.94068
2015    19      0       0.3913914       90.55196
2015    19      1       0.5119333       111.5673
2015    19      2       0.5550471       119.0664
2015    19      3       0.5962708       124.5013
2015    19      4       0.8699179       157.242
2015    19      5       1.272425        193.6944
2015    19      6       1.215461        192.2056
2015    19      7       1.315587        198.9349
2015    20      0       1.060054        178.7894
2015    20      1       0.876497        160.9608
2015    20      2       0.5301346       115.9745
2015    20      3       0.3411342       83.34396
2015    20      4       0.3618793       86.45515
2015    20      5       0.4790796       106.5996
2015    20      6       0.5654284       119.7762
2015    20      7       0.4782471       106.8187
2015    21      0       0.3604917       86.24773
2015    21      1       0.3322154       81.24655
2015    21      2       0.3191772       78.57487
2015    21      3       0.2920713       73.13049
2015    21      4       0.3187945       78.4509
2015    21      5       0.3774957       89.44506
2015    21      6       0.4278685       97.90071
2015    21      7       0.4513066       100.6188
2015    22      0       0.5830363       118.8788
2015    22      1       0.6256901       125.469
2015    22      2       0.6770838       133.0762
2015    22      3       0.7551066       144.1792
2015    22      4       0.8246777       152.8781
2015    22      5       0.9288484       165.3147
2015    22      6       0.9987659       173.42
2015    22      7       1.024588        176.7234
2015    23      0       0.8968893       164.4861
2015    23      1       0.7975435       153.1187
2015    23      2       0.7341562       144.9819
2015    23      3       0.6262293       130.4751
2015    23      4       0.557883        120.5781
2015    23      5       0.5409947       118.3792
2015    23      6       0.5317186       117.3137
2015    23      7       0.5137201       114.5814
2015    24      0       0.3890247       93.08406
2015    24      1       0.369352        89.16004
2015    24      2       0.3767337       90.28868
2015    24      3       0.4291055       99.34095
2015    24      4       0.4981342       110.4838
2015    24      5       0.5405468       117.3124
2015    24      6       0.5610446       120.8905
2015    24      7       0.5389824       117.5974
2015    25      0       0.431234        99.75617
2015    25      1       0.3424644       83.54411
2015    25      2       0.2881528       72.81818
2015    25      3       0.2666648       68.49571
2015    25      4       0.3104681       77.29078
2015    25      5       0.3997713       94.14334
2015    25      6       0.4478243       102.4063
2015    25      7       0.4734328       106.5859
2015    26      0       0.4669642       105.205
2015    26      1       0.4968542       110.2614
2015    26      2       0.4721425       106.3996
2015    26      3       0.3510846       85.04007
2015    26      4       0.3222675       79.22684
2015    26      5       0.3011747       74.99423
2015    26      6       0.3057116       76.36838
2015    26      7       0.247384        64.71912
2015    27      0       0.1993683       54.0857
2015    27      1       0.1915944       52.26603
2015    27      2       0.205845        54.55877
2015    27      3       0.1825763       50.0074
2015    27      4       0.232911        60.49163
2015    27      5       0.459058        102.8098
2015    27      6       0.6764932       135.7825
2015    27      7       0.8523045       158.069
2015    28      0       0.9785965       173.0559
2015    28      1       1.013167        176.4018
2015    28      2       0.8898118       163.4481
2015    28      3       0.8377466       157.5292
2015    28      4       0.6896801       138.869
2015    28      5       0.5970936       126.0381
2015    28      6       0.6216502       129.6626
2015    28      7       0.6192437       129.1819
2015    29      0       0.5541943       120.3598
2015    29      1       0.5405866       118.7422
2015    29      2       0.5017048       112.2296
2015    29      3       0.410071        96.39872
2015    29      4       0.349965        85.42969
2015    29      5       0.3400461       83.86762
2015    29      6       0.3916797       94.18479
2015    29      7       0.4041362       96.61657
2015    30      0       0.3711058       90.1617
2015    30      1       0.366162        89.15868
2015    30      2       0.3618719       88.22052
2015    30      3       0.3741556       90.33325
2015    30      4       0.3881084       92.95572
2015    30      5       0.4221214       99.31712
2015    30      6       0.4784198       109.4119
2015    30      7       0.4503068       104.6903
2015    31      0       0.4121913       97.62983
2015    31      1       0.3701007       89.99498
2015    31      2       0.3370444       83.61253
2015    31      3       0.3180755       79.56164
2015    31      4       0.3155758       79.31806
2015    31      5       0.3048997       77.56576
2015    31      6       0.2836276       73.64807
2015    31      7       0.2571246       68.23662
2016    1       0       0.3577158       86.85859
2016    1       1       0.3413774       83.55488
2016    1       2       0.3254757       80.65814
2016    1       3       0.3108987       77.78199
2016    1       4       0.313653        78.20851
2016    1       5       0.2961303       74.89462
2016    1       6       0.2761291       71.03419
2016    1       7       0.223557        60.15665
2016    2       0       0.1877874       52.33564
2016    2       1       0.1871678       52.29018
2016    2       2       0.2153098       58.70075
2016    2       3       0.1930955       53.57773
2016    2       4       0.1919495       53.2718
2016    2       5       0.2002206       55.1257
2016    2       6       0.1986472       54.79118
2016    2       7       0.1983067       54.77575
2016    3       0       0.1557485       44.8366
2016    3       1       0.1401699       40.95605
2016    3       2       0.1539937       44.06807
2016    3       3       0.181191        50.21592
2016    3       4       0.1955731       53.39829
2016    3       5       0.1900587       52.09048
2016    3       6       0.1821811       50.30944
2016    3       7       0.198578        54.49237
2016    4       0       0.1926774       53.05151
2016    4       1       0.1926551       52.79714
2016    4       2       0.2064894       56.04491
2016    4       3       0.2291158       61.10704
2016    4       4       0.2663333       68.99321
2016    4       5       0.296975        75.34675
2016    4       6       0.3630411       87.94764
2016    4       7       0.4545253       103.6405
2016    5       0       0.5580057       119.9901
2016    5       1       0.7827204       150.047
2016    5       2       1.059213        179.4141
2016    5       3       1.193578        190.9299
2016    5       4       1.182314        189.8217
2016    5       5       1.301593        198.0895
2016    5       6       1.623768        217.0937
2016    5       7       2.150738        239.4367
2016    6       0       2.415035        247.8107
2016    6       1       2.442632        248.8075
2016    6       2       2.278793        244.5418
2016    6       3       1.899636        232.2444
2016    6       4       2.027932        236.4884
2016    6       5       1.842187        229.2201
2016    6       6       1.525694        214.5415
2016    6       7       1.547883        216.0183
2016    7       0       1.436556        209.7998
2016    7       1       1.213179        194.379
2016    7       2       1.075402        182.6585
2016    7       3       1.031233        178.2315
2016    7       4       0.9328979       168.4553
2016    7       5       0.7883596       151.9964
2016    7       6       0.7547008       148.1228
2016    7       7       0.8429312       159.0857
2016    8       0       0.7431236       147.2843
2016    8       1       0.6651901       136.7727
2016    8       2       0.680693        138.3407
2016    8       3       0.6735895       137.2484
2016    8       4       0.5908369       125.5442
2016    8       5       0.5794336       124.1306
2016    8       6       0.5658213       122.4928
2016    8       7       0.5765291       124.3083
2016    9       0       0.4359532       101.3827
2016    9       1       0.418836        98.34911
2016    9       2       0.4224687       99.00931
2016    9       3       0.4002799       94.93262
2016    9       4       0.3148156       79.06305
2016    9       5       0.2830484       72.82257
2016    9       6       0.3195177       80.02003
2016    9       7       0.3415874       84.54136
2016    10      0       0.2705033       70.69318
2016    10      1       0.2056375       56.7315
2016    10      2       0.1842231       51.78548
2016    10      3       0.1860584       51.97378
2016    10      4       0.1746773       49.21146
2016    10      5       0.1836381       51.1507
2016    10      6       0.1978402       54.4314
2016    10      7       0.1985901       54.64772
2016    11      0       0.1789963       49.98273
2016    11      1       0.1752848       49.1367
2016    11      2       0.1915634       52.45383
2016    11      3       0.233356        61.4613
2016    11      4       0.2626282       67.41336
2016    11      5       0.2917657       73.39023
2016    11      6       0.3203292       79.66778
2016    11      7       0.3484037       85.34614
2016    12      0       0.3335702       82.14914
2016    12      1       0.3061063       77.01001
2016    12      2       0.3004279       75.8152
2016    12      3       0.3290677       81.36986
2016    12      4       0.3830611       90.9173
2016    12      5       0.4350555       99.54092
2016    12      6       0.4598189       104.6825
2016    12      7       0.4842632       109.8943
2016    13      0       0.4510865       103.9957
2016    13      1       0.4134533       97.1457
2016    13      2       0.3873039       92.21384
2016    13      3       0.3875564       91.95551
2016    13      4       0.3871595       91.47116
2016    13      5       0.4139009       96.13418
2016    13      6       0.4769268       107.3568
2016    13      7       0.5343584       117.5391
2016    14      0       0.4945559       111.3529
2016    14      1       0.4668659       106.2221
2016    14      2       0.4890611       109.6889
2016    14      3       0.5030101       111.9056
2016    14      4       0.4751563       107.2811
2016    14      5       0.4342809       100.5549
2016    14      6       0.3712567       89.61952
2016    14      7       0.3433477       84.48992
2016    15      0       0.3354489       82.57889
2016    15      1       0.3295726       81.47791
2016    15      2       0.318223        78.94334
2016    15      3       0.313185        77.73805
2016    15      4       0.3494458       84.95194
2016    15      5       0.4214815       98.86066
2016    15      6       0.3942602       94.4434
2016    15      7       0.283362        73.25028
2016    16      0       0.3107163       78.7233
2016    16      1       0.3460367       85.55949
2016    16      2       0.3583399       87.71354
2016    16      3       0.3523969       86.4695
2016    16      4       0.3464418       85.47389
2016    16      5       0.354317        86.9872
2016    16      6       0.3676712       89.36726
2016    16      7       0.3399703       83.97353
2016    17      0       0.2911578       74.32289
2016    17      1       0.2239371       60.1658
2016    17      2       0.1848861       51.483
2016    17      3       0.1875635       52.02311
2016    17      4       0.2010832       55.15551
2016    17      5       0.211959        57.56534
2016    17      6       0.2048288       56.00205
2016    17      7       0.176536        49.64022
2016    18      0       0.1798404       50.23745
2016    18      1       0.178883        49.98998
2016    18      2       0.1687678       47.64463
2016    18      3       0.1658251       46.86935
2016    18      4       0.1703484       47.88595
2016    18      5       0.1769736       49.33959
2016    18      6       0.2143844       57.49482
2016    18      7       0.2251041       59.55769
2016    19      0       0.1944482       52.63112
2016    19      1       0.1830997       50.16882
2016    19      2       0.1917484       52.10805
2016    19      3       0.1755097       48.84857
2016    19      4       0.1427859       40.82996
2016    19      5       0.1978755       52.84888
2016    19      6       0.1933841       52.89411
2016    19      7       0.2581531       66.14593
2016    20      0       0.3496892       84.78974
2016    20      1       0.3285045       80.55701
2016    20      2       0.4252165       98.41199
2016    20      3       0.5121466       113.088
2016    20      4       0.4160942       96.89331
2016    20      5       0.32963         81.06712
2016    20      6       0.2624441       67.44282
2016    20      7       0.227083        60.07902
2016    21      0       0.1690151       47.52955
2016    21      1       0.2367047       61.99701
2016    21      2       0.2421756       64.14873
2016    21      3       0.2790571       71.89939
2016    21      4       0.2460282       65.31258
2016    21      5       0.1991755       55.39791
2016    21      6       0.1293476       39.15507
2016    21      7       0.1578662       45.79256
2016    22      0       0.1360503       40.95738
2016    22      1       0.1445266       42.79563
2016    22      2       0.1421003       41.95377
2016    22      3       0.1365243       40.58441
2016    22      4       0.1386466       41.15238
2016    22      5       0.1495303       43.99283
2016    22      6       0.2117595       57.94719
2016    22      7       0.2945451       74.7166
2016    23      0       0.3420418       82.27571
2016    23      1       0.3630844       86.47642
2016    23      2       0.5256374       112.436
2016    23      3       0.557689        117.9286
2016    23      4       0.5371175       115.2066
2016    23      5       0.464673        104.1608
2016    23      6       0.5281146       115.233
2016    23      7       0.5677033       122.0615
2016    24      0       0.4892553       109.5595
2016    24      1       0.4683982       106.1925
2016    24      2       0.5967049       126.2644
2016    24      3       0.5969661       126.6415
2016    24      4       0.5579182       121.3287
2016    24      5       0.4312006       100.3143
2016    24      6       0.378573        91.06821
2016    24      7       0.351043        86.05098
2016    25      0       0.3117914       78.38828
2016    25      1       0.2764544       71.40043
2016    25      2       0.2653794       69.13835
2016    25      3       0.2837359       72.82723
2016    25      4       0.2646275       68.9162
2016    25      5       0.2455466       65.02805
2016    25      6       0.295394        75.57342
2016    25      7       0.341452        84.91907
2016    26      0       0.3171009       79.82716
2016    26      1       0.2955487       75.25676
2016    26      2       0.2980719       75.30187
2016    26      3       0.2951913       74.31566
2016    26      4       0.4367669       98.94952
2016    26      5       0.5176235       112.2934
2016    26      6       0.6630226       133.545
2016    26      7       0.7321412       141.7724
2016    27      0       0.91964         162.3149
2016    27      1       1.139403        182.4259
2016    27      2       1.461398        205.2232
2016    27      3       2.201014        240.7254
2016    27      4       1.637784        218.1611
2016    27      5       0.8710013       158.3907
2016    27      6       0.5514636       118.6745
2016    27      7       0.426541        98.50147
2016    28      0       0.3310962       79.40479
2016    28      1       0.350867        82.53502
2016    28      2       0.381567        87.91434
2016    28      3       0.46279         101.7097
2016    28      4       0.5992937       122.2312
2016    28      5       0.7002048       136.3175
2016    28      6       0.7395893       141.3441
2016    28      7       0.7204536       138.4382
2016    29      0       0.5682024       118.1751
2016    29      1       0.5085918       109.2258
2016    29      2       0.3459413       81.69327
2016    29      3       0.4689677       102.1032
2016    29      4       0.5074616       108.9259
2016    29      5       0.4890417       106.8842
2016    29      6       0.5564425       118.0674
2016    29      7       0.6016414       125.398
2016    30      0       0.5336751       115.5855
2016    30      1       0.4027732       94.49583
2016    30      2       0.3544419       85.64327
2016    30      3       0.2813271       71.48777
2016    30      4       0.2469605       64.19239
2016    30      5       0.2947473       73.30521
2016    30      6       0.2982922       74.33671
2016    30      7       0.2795281       70.97153
2016    31      0       0.2368292       61.85063
2016    31      1       0.2233545       58.98554
2016    31      2       0.2490446       64.39954
2016    31      3       0.2663374       68.11096
2016    31      4       0.2868026       72.06316
2016    31      5       0.3319401       80.69235
2016    31      6       0.3885619       91.33276
2016    31      7       0.4167866       96.4924
2017    1       0       0.4265601       98.28009
2017    1       1       0.4805605       107.303
2017    1       2       0.5304737       115.3268
2017    1       3       0.5395063       116.8351
2017    1       4       0.5048959       111.4744
2017    1       5       0.4351217       99.88839
2017    1       6       0.4156924       96.75298
2017    1       7       0.3158843       78.41687
2017    2       0       0.2580543       66.73108
2017    2       1       0.2289055       60.67315
2017    2       2       0.1930961       52.92129
2017    2       3       0.1625549       46.1717
2017    2       4       0.1345851       39.61216
2017    2       5       0.1454595       42.27178
2017    2       6       0.1783157       49.98448
2017    2       7       0.187939        51.69079
2017    3       0       0.1544438       43.76955
2017    3       1       0.1355621       39.21986
2017    3       2       0.1444117       41.28986
2017    3       3       0.169529        46.61101
2017    3       4       0.1930016       51.67377
2017    3       5       0.2374332       61.33127
2017    3       6       0.305829        75.68333
2017    3       7       0.3057753       75.92434
2017    4       0       0.2733361       69.19684
2017    4       1       0.2806268       70.77884
2017    4       2       0.2816683       71.0024
2017    4       3       0.3060107       75.74479
2017    4       4       0.3206586       78.72107
2017    4       5       0.323813        79.26704
2017    4       6       0.327675        80.13737
2017    4       7       0.301176        75.23951
2017    5       0       0.2738189       69.74705
2017    5       1       0.252382        65.95414
2017    5       2       0.2586036       67.36913
2017    5       3       0.2701285       69.76578
2017    5       4       0.2694848       69.43162
2017    5       5       0.2804874       71.49186
2017    5       6       0.3239463       80.10468
2017    5       7       0.3518391       85.69354
2017    6       0       0.3318956       81.8673
2017    6       1       0.313872        78.36857
2017    6       2       0.3106313       77.55969
2017    6       3       0.3300712       81.07804
2017    6       4       0.3381702       82.67325
2017    6       5       0.3479744       84.41304
2017    6       6       0.3911172       92.70365
2017    6       7       0.4348658       100.3619
2017    7       0       0.4506742       102.5437
2017    7       1       0.420839        97.43497
2017    7       2       0.3967963       93.38224
2017    7       3       0.4208843       97.80648
2017    7       4       0.3595856       86.761
2017    7       5       0.3871349       91.58168
2017    7       6       0.4145994       96.80831
2017    7       7       0.395792        93.54832
2017    8       0       0.3608672       86.44445
2017    8       1       0.3510239       84.77036
2017    8       2       0.3459296       84.32006
2017    8       3       0.2964758       74.99118
2017    8       4       0.2860885       72.76864
2017    8       5       0.254769        66.37617
2017    8       6       0.223646        59.98395
2017    8       7       0.2655509       69.11166
2017    9       0       0.3264155       80.85636
2017    9       1       0.3739159       89.95023
2017    9       2       0.413581        96.84173
2017    9       3       0.429077        99.93639
2017    9       4       0.3580589       87.07546
2017    9       5       0.3209046       79.84215
2017    9       6       0.3218462       79.96787
2017    9       7       0.3135581       77.75827
2017    10      0       0.3368026       81.98672
2017    10      1       0.4094771       94.99567
2017    10      2       0.4716469       105.2059
2017    10      3       0.5280892       113.9546
2017    10      4       0.5333721       114.7903
2017    10      5       0.533076        114.1615
2017    10      6       0.6322398       128.3482
2017    10      7       0.7498707       143.3199
2017    11      0       0.8062314       149.7437
2017    11      1       0.7854466       147.059
2017    11      2       0.8245273       150.5342
2017    11      3       0.8532573       153.2463
2017    11      4       0.7270359       139.0017
2017    11      5       0.6367974       127.7878
2017    11      6       0.6511118       130.2056
2017    11      7       0.5321849       113.033
2017    12      0       0.4115097       92.8962
2017    12      1       0.3399504       80.41369
2017    12      2       0.2896718       71.23402
2017    12      3       0.2740433       68.11723
2017    12      4       0.2796637       69.06854
2017    12      5       0.4059624       92.06979
2017    12      6       0.4037647       91.94056
2017    12      7       0.3247414       78.09105
2017    13      0       0.1501605       42.26925
2017    13      1       0.1470708       41.42376
2017    13      2       0.1813147       49.20573
2017    13      3       0.2120425       55.9979
2017    13      4       0.215413        56.81207
2017    13      5       0.2486775       63.24435
2017    13      6       0.2914891       71.72571
2017    13      7       0.3275426       79.1147
2017    14      0       0.3466995       83.2307
2017    14      1       0.3594406       86.09161
2017    14      2       0.3684688       87.87849
2017    14      3       0.3853304       90.81114
2017    14      4       0.4063294       94.55588
2017    14      5       0.3797668       89.77017
2017    14      6       0.3673287       87.5572
2017    14      7       0.4042185       94.43337
2017    15      0       0.3799684       90.3955
2017    15      1       0.351783        85.46708
2017    15      2       0.3549156       86.18552
2017    15      3       0.3543018       86.11946
2017    15      4       0.3276132       81.12465
2017    15      5       0.3288058       81.14538
2017    15      6       0.336225        82.73113
2017    15      7       0.3369474       82.94688
2017    16      0       0.2615618       67.60753
2017    16      1       0.2391813       62.9549
2017    16      2       0.2209421       59.09302
2017    16      3       0.223159        59.45191
2017    16      4       0.2346287       61.92064
2017    16      5       0.3180831       78.78069
2017    16      6       0.3545543       85.93753
2017    16      7       0.3056947       76.94886
2017    17      0       0.2415903       63.85198
2017    17      1       0.2379204       63.13578
2017    17      2       0.2594973       67.37894
2017    17      3       0.2563406       66.59261
2017    17      4       0.2463584       64.33202
2017    17      5       0.2940877       73.61894
2017    17      6       0.3024129       75.57907
2017    17      7       0.3154849       78.58286
2017    18      0       0.2813222       71.68534
2017    18      1       0.2722141       69.90229
2017    18      2       0.2512762       65.53327
2017    18      3       0.2533308       65.83047
2017    18      4       0.2909991       72.96785
2017    18      5       0.3382843       81.62823
2017    18      6       0.3762827       88.61831
2017    18      7       0.3905288       92.04838
2017    19      0       0.345065        83.00522
2017    19      1       0.327673        79.67263
2017    19      2       0.3147959       77.63377
2017    19      3       0.3526895       84.06121
2017    19      4       0.357585        85.15779
2017    19      5       0.423332        96.49938
2017    19      6       0.5070692       111.5985
2017    19      7       0.4645732       103.7828
2017    20      0       0.486221        106.7291
2017    20      1       0.5205822       113.2769
2017    20      2       0.5089442       112.3143
2017    20      3       0.4628362       103.3118
2017    20      4       0.381443        89.63341
2017    20      5       0.2922611       73.64902
2017    20      6       0.2938642       73.89559
2017    20      7       0.3401749       82.96605
2017    21      0       0.3513215       85.08876
2017    21      1       0.3375568       82.38774
2017    21      2       0.3082037       77.41451
2017    21      3       0.2977032       75.60221
2017    21      4       0.2758699       71.43166
2017    21      5       0.2652013       69.24222
2017    21      6       0.2950164       75.35179
2017    21      7       0.2861674       73.26319
2017    22      0       0.2437412       64.30315
2017    22      1       0.2187884       59.052
2017    22      2       0.2345128       62.30791
2017    22      3       0.234293        62.24245
2017    22      4       0.2325738       61.90091
2017    22      5       0.2711379       70.38696
2017    22      6       0.334806        83.44757
2017    22      7       0.448198        103.9651
2017    23      0       0.3143866       78.70924
2017    23      1       0.2425174       63.83339
2017    23      2       0.2544435       66.16338
2017    23      3       0.2642599       67.82742
2017    23      4       0.2632322       67.82958
2017    23      5       0.2733125       70.19954
2017    23      6       0.3142342       78.66034
2017    23      7       0.2771858       71.05425
2017    24      0       0.2871962       72.56573
2017    24      1       0.3151724       78.34657
2017    24      2       0.3604202       87.18448
2017    24      3       0.3647675       87.90928
2017    24      4       0.3425388       83.58991
2017    24      5       0.3227626       79.75914
2017    24      6       0.3286092       80.95585
2017    24      7       0.3396582       83.10634
2017    25      0       0.2918294       73.51432
2017    25      1       0.3041059       75.87937
2017    25      2       0.3131222       77.42669
2017    25      3       0.3275261       79.90774
2017    25      4       0.3467432       83.51575
2017    25      5       0.3703005       87.95985
2017    25      6       0.3433861       83.26246
2017    25      7       0.2978768       74.85117
2017    26      0       0.2289072       60.64516
2017    26      1       0.1966902       53.81336
2017    26      2       0.1985004       54.14019
2017    26      3       0.1878954       51.76152
2017    26      4       0.184602        50.79149
2017    26      5       0.2208611       58.22934
2017    26      6       0.2284103       59.87699
2017    26      7       0.2451499       62.92936
2017    27      0       0.2038285       54.20513
2017    27      1       0.1979722       52.78872
2017    27      2       0.2018123       53.83607
2017    27      3       0.1947063       52.56843
2017    27      4       0.1925552       52.29014
2017    27      5       0.198223        53.87897
2017    27      6       0.2075459       56.08422
2017    27      7       0.1991189       54.28939
2017    28      0       0.1682425       47.127
2017    28      1       0.1685396       47.27527
2017    28      2       0.1645208       46.4709
2017    28      3       0.1537905       44.08996
2017    28      4       0.1698429       47.66702
2017    28      5       0.2785569       70.08912
2017    28      6       0.4537448       101.8868
2017    28      7       0.4234294       97.09912
2017    29      0       0.3111014       76.34388
2017    29      1       0.2644677       66.98621
2017    29      2       0.2408052       61.88701
2017    29      3       0.2049696       54.30101
2017    29      4       0.2007684       53.02213
2017    29      5       0.2318646       59.6841
2017    29      6       0.2985787       73.37329
2017    29      7       0.3275866       79.45592
2017    30      0       0.3631268       85.22111
2017    30      1       0.4261216       95.95738
2017    30      2       0.4963514       107.7648
2017    30      3       0.5963125       122.7497
2017    30      4       0.6556198       131.6157
2017    30      5       0.7284291       141.5343
2017    30      6       0.7279593       142.2741
2017    30      7       0.6768137       135.7464
2017    31      0       0.6641491       133.906
2017    31      1       0.6841132       137.1647
2017    31      2       0.7335474       144.1997
2017    31      3       0.7900473       151.5318
2017    31      4       0.8497831       158.6314
2017    31      5       0.8552528       159.092
2017    31      6       0.8476078       158.3965
2017    31      7       0.8229802       155.4079
2018    1       0       0.612113        123.4249
2018    1       1       0.6857813       133.6075
2018    1       2       0.613781        125.0935
2018    1       3       0.5370471       114.4077
2018    1       4       0.493061        107.7025
2018    1       5       0.5064143       110.161
2018    1       6       0.4938866       108.2814
2018    1       7       0.6050188       124.0297
2018    2       0       0.8272745       150.9899
2018    2       1       1.124527        180.5924
2018    2       2       1.591852        213.8233
2018    2       3       2.02084         233.6503
2018    2       4       1.824641        225.3207
2018    2       5       1.622259        215.9415
2018    2       6       1.346176        199.9553
2018    2       7       1.205585        190.6418
2018    3       0       0.8673674       159.7023
2018    3       1       0.591028        124.8732
2018    3       2       0.4842543       108.4898
2018    3       3       0.4588168       104.1202
2018    3       4       0.4550198       102.8797
2018    3       5       0.5606153       119.2564
2018    3       6       0.5939137       124.1551
2018    3       7       0.6152184       127.0567
2018    4       0       0.556117        118.7164
2018    4       1       0.5891353       123.9158
2018    4       2       0.6049291       126.2823
2018    4       3       0.6644043       134.5495
2018    4       4       0.7348252       143.5483
2018    4       5       0.7429008       144.8296
2018    4       6       0.7590044       147.0597
2018    4       7       0.7642255       147.8802
2018    5       0       0.7867662       151.0598
2018    5       1       0.7546091       146.3233
2018    5       2       0.7380036       143.6462
2018    5       3       0.7019699       139.1736
2018    5       4       0.7207178       141.781
2018    5       5       0.6787774       136.2713
2018    5       6       0.6565559       133.8098
2018    5       7       0.6072482       126.9751
2018    6       0       0.5240064       113.9062
2018    6       1       0.4991794       110.1334
2018    6       2       0.5270879       114.5597
2018    6       3       0.5577105       119.4035
2018    6       4       0.5624349       120.0193
2018    6       5       0.5945724       124.8058
2018    6       6       0.5438128       118.1241
2018    6       7       0.4624966       105.4375
2018    7       0       0.3500272       85.27002
2018    7       1       0.3405245       82.77115
2018    7       2       0.4227653       97.56194
2018    7       3       0.4545462       103.1134
2018    7       4       0.4834689       108.2056
2018    7       5       0.5630714       120.5809
2018    7       6       0.5933026       125.3589
2018    7       7       0.5649693       121.3852
2018    8       0       0.5326072       115.6733
2018    8       1       0.5083281       111.9654
2018    8       2       0.5065976       111.6122
2018    8       3       0.5596888       120.0365
2018    8       4       0.5809327       123.2345
2018    8       5       0.6111333       127.4142
2018    8       6       0.6192434       128.0092
2018    8       7       0.6318985       129.6482
2018    9       0       0.5957279       124.1863
2018    9       1       0.4443728       101.8897
2018    9       2       0.3994225       94.59219
2018    9       3       0.3936035       93.87364
2018    9       4       0.3868732       92.89729
2018    9       5       0.3913326       93.85847
2018    9       6       0.346431        85.41269
2018    9       7       0.3588622       87.522
2018    10      0       0.3313867       82.2759
2018    10      1       0.3160568       79.09448
2018    10      2       0.2998394       75.72948
2018    10      3       0.274769        70.55276
2018    10      4       0.2632852       68.39094
2018    10      5       0.2658981       69.08669
2018    10      6       0.2785046       71.86796
2018    10      7       0.3119906       78.77729
2018    11      0       0.2978323       75.78973
2018    11      1       0.2596334       67.80548
2018    11      2       0.1888091       52.14592
2018    11      3       0.1776012       49.51144
2018    11      4       0.1717983       48.25919
2018    11      5       0.205566        56.17928
2018    11      6       0.2176414       59.17528
2018    11      7       0.2075513       57.09437
2018    12      0       0.1818994       51.01662
2018    12      1       0.1758884       49.6453
2018    12      2       0.2053057       56.13606
2018    12      3       0.227358        60.77899
2018    12      4       0.2319035       61.88728
2018    12      5       0.2419775       64.19152
2018    12      6       0.284869        73.15198
2018    12      7       0.3335065       82.85184
2018    13      0       0.285235        73.024
2018    13      1       0.2755826       70.96507
2018    13      2       0.2981073       75.28361
2018    13      3       0.3270081       80.45956
2018    13      4       0.3749618       89.07571
2018    13      5       0.4034946       93.85892
2018    13      6       0.4938708       109.4472
2018    13      7       0.5135578       113.2193
2018    14      0       0.4775373       106.8545
2018    14      1       0.4738063       106.4836
2018    14      2       0.4774228       107.3025
2018    14      3       0.4845525       108.5488
2018    14      4       0.436013        100.5302
2018    14      5       0.4111744       96.73154
2018    14      6       0.4107417       96.45216
2018    14      7       0.4926428       110.4658
2018    15      0       0.4041825       95.59433
2018    15      1       0.3138127       78.70281
2018    15      2       0.2818051       72.16066
2018    15      3       0.2377413       62.92335
2018    15      4       0.2059438       55.66193
2018    15      5       0.2042175       55.23
2018    15      6       0.2329245       61.06242
2018    15      7       0.2711426       68.91565
2018    16      0       0.2305023       59.44312
2018    16      1       0.2048989       53.95422
2018    16      2       0.197127        52.37112
2018    16      3       0.1951093       52.06584
2018    16      4       0.2268906       58.77768
2018    16      5       0.306887        75.70095
2018    16      6       0.3588583       86.47802
2018    16      7       0.3566307       86.42857
2018    17      0       0.3268024       80.78058
2018    17      1       0.312448        78.18685
2018    17      2       0.2898137       73.67802
2018    17      3       0.3061748       76.94363
2018    17      4       0.3238814       80.53584
2018    17      5       0.3158819       78.97113
2018    17      6       0.3188785       79.69213
2018    17      7       0.2569317       66.88613
2018    18      0       0.2392115       62.82732
2018    18      1       0.2691973       69.17893
2018    18      2       0.279209        71.26503
2018    18      3       0.2636021       68.12508
2018    18      4       0.258176        66.61009
2018    18      5       0.2751714       69.68181
2018    18      6       0.2895237       72.34226
2018    18      7       0.2266795       59.35295
2018    19      0       0.2050434       54.85123
2018    19      1       0.2442985       62.93409
2018    19      2       0.2972177       73.6366
2018    19      3       0.3144283       77.17449
2018    19      4       0.3354624       81.47001
2018    19      5       0.4338746       99.37164
2018    19      6       0.4277167       98.66332
2018    19      7       0.3908379       92.57238
2018    20      0       0.3518448       85.22726
2018    20      1       0.3667294       87.86847
2018    20      2       0.3726826       89.01771
2018    20      3       0.4121542       95.91847
2018    20      4       0.4086168       95.09256
2018    20      5       0.4166695       96.47687
2018    20      6       0.4129549       95.97062
2018    20      7       0.4115126       95.74998
2018    21      0       0.3499188       84.33326
2018    21      1       0.3002294       74.74556
2018    21      2       0.3173649       78.04885
2018    21      3       0.3696468       87.71613
2018    21      4       0.3777037       89.14738
2018    21      5       0.3943409       92.06384
2018    21      6       0.3929026       91.97204
2018    21      7       0.3354011       81.77646
2018    22      0       0.2604862       67.01257
2018    22      1       0.2411717       62.79042
2018    22      2       0.2494051       64.42772
2018    22      3       0.282505        71.10455
2018    22      4       0.3409226       81.90156
2018    22      5       0.4360846       98.96492
2018    22      6       0.4478829       101.6948
2018    22      7       0.4515863       102.7797
2018    23      0       0.4080528       94.3363
2018    23      1       0.4369998       99.27089
2018    23      2       0.4390838       99.39985
2018    23      3       0.437085        99.39831
2018    23      4       0.4114498       95.48565
2018    23      5       0.4591986       104.0012
2018    23      6       0.5791461       123.5138
2018    23      7       0.5498281       118.1143
2018    24      0       0.6403654       130.93
2018    24      1       0.6993611       139.0257
2018    24      2       0.6199471       129.0361
2018    24      3       0.5128398       113.3945
2018    24      4       0.4103258       96.39964
2018    24      5       0.3407583       83.78853
2018    24      6       0.3357011       82.84514
2018    24      7       0.2805549       71.78305
2018    25      0       0.2296836       60.73097
2018    25      1       0.210902        56.96188
2018    25      2       0.212951        56.91186
2018    25      3       0.2276701       60.30408
2018    25      4       0.2658331       68.25623
2018    25      5       0.3148564       77.88808
2018    25      6       0.3589331       86.79763
2018    25      7       0.41216         96.95558
2018    26      0       0.3765321       90.54367
2018    26      1       0.3299535       81.7323
2018    26      2       0.3302153       81.79157
2018    26      3       0.327555        81.45557
2018    26      4       0.2805145       72.4197
2018    26      5       0.2636836       69.04446
2018    26      6       0.2891821       74.34675
2018    26      7       0.3686761       89.9278
2018    27      0       0.3424153       84.45302
2018    27      1       0.3063035       77.35295
2018    27      2       0.2289983       61.5805
2018    27      3       0.1857958       52.10869
2018    27      4       0.1630979       46.85931
2018    27      5       0.1916443       53.32289
2018    27      6       0.1921826       53.44686
2018    27      7       0.1972176       54.57941
2018    28      0       0.1619525       46.50109
2018    28      1       0.1416791       41.69014
2018    28      2       0.1496477       43.42935
2018    28      3       0.1804977       50.41029
2018    28      4       0.2075957       56.46443
2018    28      5       0.2441297       64.32009
2018    28      6       0.2875837       73.36518
2018    28      7       0.3181457       79.44617
2018    29      0       0.3735479       89.11761
2018    29      1       0.6622125       134.2776
2018    29      2       0.7479092       145.9111
2018    29      3       0.7351154       144.5393
2018    29      4       0.6415574       132.6056
2018    29      5       0.5083072       112.8676
2018    29      6       0.458989        104.7476
2018    29      7       0.4181074       97.77963
2018    30      0       0.3745491       90.09036
2018    30      1       0.3198633       79.74222
2018    30      2       0.307506        77.29316
2018    30      3       0.3172951       78.84424
2018    30      4       0.3963823       93.60688
2018    30      5       0.4096345       95.48146
2018    30      6       0.4357583       99.99158
2018    30      7       0.4098764       95.00145
2018    31      0       0.4504855       101.628
2018    31      1       0.4857561       108.1848
2018    31      2       0.4808154       107.6564
2018    31      3       0.5453337       117.3643
2018    31      4       0.5228245       114.0599
2018    31      5       0.5108281       111.9948
2018    31      6       0.4988142       109.7315
2018    31      7       0.4653136       104.172
