####################################################################################################
# Month: 10Oct                                                                                     #
# Station: VLA                                                                                     #
# Frequency: 230 GHz                                                                               #
# Columns are: year    day     segment         tau     Tb (K)                                      #
####################################################################################################
2009    1       0       0.557055        122.3226
2009    1       1       0.440034        102.6863
2009    1       2       0.1971719       53.70232
2009    1       3       0.128098        37.59455
2009    1       4       0.1239693       36.54054
2009    1       5       0.1004472       30.76926
2009    1       6       0.1059863       32.01641
2009    1       7       0.1119161       33.30473
2009    2       0       0.1192319       35.0881
2009    2       1       0.1230386       35.89999
2009    2       2       0.1181669       34.69128
2009    2       3       0.1102153       32.87628
2009    2       4       0.106052        31.87931
2009    2       5       0.1129577       33.52266
2009    2       6       0.132135        38.08956
2009    2       7       0.1718084       47.22799
2009    3       0       0.2126454       55.97237
2009    3       1       0.2952902       72.23471
2009    3       2       0.3333372       79.29732
2009    3       3       0.4007279       91.16482
2009    3       4       0.4323791       97.70393
2009    3       5       0.4958128       109.7118
2009    3       6       0.5574023       120.3294
2009    3       7       0.5127163       113.1772
2009    4       0       0.430279        99.78109
2009    4       1       0.3651388       88.18061
2009    4       2       0.4701014       107.1221
2009    4       3       0.6069955       129.0683
2009    4       4       0.6184794       132.225
2009    4       5       0.5244948       116.7821
2009    4       6       0.4846909       110.1059
2009    4       7       0.5051942       113.7642
2009    5       0       0.4585317       105.8478
2009    5       1       0.3874674       93.13552
2009    5       2       0.4447524       103.0659
2009    5       3       0.426659        100.4051
2009    5       4       0.3983361       94.82111
2009    5       5       0.4169387       97.80986
2009    5       6       0.4255547       98.78967
2009    5       7       0.5161653       114.0249
2009    6       0       0.5594648       120.2985
2009    6       1       0.4188255       96.86081
2009    6       2       0.3842498       89.44582
2009    6       3       0.426518        96.61514
2009    6       4       0.4663382       103.4383
2009    6       5       0.5424036       115.7758
2009    6       6       0.6678611       134.4819
2009    6       7       0.7320804       144.0085
2009    7       0       0.8608093       159.8949
2009    7       1       0.8818723       162.3927
2009    7       2       1.028437        177.967
2009    7       3       1.125784        187.3415
2009    7       4       1.016409        177.8033
2009    7       5       0.8662887       161.9503
2009    7       6       0.8396723       159.0379
2009    7       7       0.6619945       136.736
2009    8       0       0.5591699       121.5199
2009    8       1       0.6057288       127.8596
2009    8       2       0.6141195       128.3943
2009    8       3       0.3904551       91.91717
2009    8       4       0.2922386       72.85961
2009    8       5       0.3351722       80.85619
2009    8       6       0.303243        74.49005
2009    8       7       0.2678633       67.45292
2009    9       0       0.2699075       67.37146
2009    9       1       0.2830036       69.72948
2009    9       2       0.3295342       79.08608
2009    9       3       0.2485607       63.46076
2009    9       4       0.2047811       54.13374
2009    9       5       0.2008968       53.53897
2009    9       6       0.1987883       53.35602
2009    9       7       0.1963298       53.00854
2009    10      0       0.1786511       49.26419
2009    10      1       0.168798        47.02096
2009    10      2       0.1648848       45.96985
2009    10      3       0.1770491       48.45793
2009    10      4       0.2068562       54.87957
2009    10      5       0.2417569       62.05461
2009    10      6       0.263988        66.59528
2009    10      7       0.2904823       71.86523
2009    11      0       0.3160891       76.57743
2009    11      1       0.3065101       74.70989
2009    11      2       0.2822937       69.87569
2009    11      3       0.3576871       83.52786
2009    11      4       0.3210571       77.59816
2009    11      5       0.356695        84.62243
2009    11      6       0.3569802       85.30172
2009    11      7       0.3727037       88.72111
2009    12      0       0.3456794       83.96494
2009    12      1       0.3069884       76.78618
2009    12      2       0.313576        78.1451
2009    12      3       0.3186781       79.10671
2009    12      4       0.3341567       82.17286
2009    12      5       0.337968        82.96181
2009    12      6       0.2629082       67.60214
2009    12      7       0.270403        69.25369
2009    13      0       0.4643138       105.9592
2009    13      1       0.7747553       151.5087
2009    13      2       1.101143        185.4957
2009    13      3       0.7584602       148.5963
2009    13      4       0.5159682       113.4182
2009    13      5       0.3771542       89.52172
2009    13      6       0.4681113       103.2916
2009    13      7       0.3837455       90.33267
2009    14      0       0.4877818       108.5951
2009    14      1       0.5461952       118.1659
2009    14      2       0.5458342       118.5504
2009    14      3       0.5519782       119.7833
2009    14      4       0.4947006       110.9517
2009    14      5       0.4494305       103.5435
2009    14      6       0.4387294       102.1391
2009    14      7       0.4497424       104.2388
2009    15      0       0.4849692       110.3012
2009    15      1       0.5030412       113.4531
2009    15      2       0.5338869       118.5793
2009    15      3       0.5288241       117.5682
2009    15      4       0.5042106       113.9996
2009    15      5       0.4627873       106.9924
2009    15      6       0.397683        95.06563
2009    15      7       0.3669837       89.27397
2009    16      0       0.3497244       85.7043
2009    16      1       0.3326094       82.15413
2009    16      2       0.3081865       77.24467
2009    16      3       0.2999145       75.41738
2009    16      4       0.2781792       70.84677
2009    16      5       0.2583214       66.57036
2009    16      6       0.2601102       67.03125
2009    16      7       0.2926346       73.86302
2009    17      0       0.3035931       76.18582
2009    17      1       0.3082491       77.23607
2009    17      2       0.3294729       81.46707
2009    17      3       0.3668489       88.67485
2009    17      4       0.3857229       92.099
2009    17      5       0.3997049       94.3997
2009    17      6       0.4221756       98.49575
2009    17      7       0.4572103       104.7186
2009    18      0       0.4854514       109.7066
2009    18      1       0.48138         109.2934
2009    18      2       0.4709361       107.3208
2009    18      3       0.560542        122.1623
2009    18      4       0.5924818       127.576
2009    18      5       0.6747703       139.067
2009    18      6       1.113021        185.6761
2009    18      7       1.210677        194.1024
2009    19      0       0.8637091       161.6382
2009    19      1       0.7089578       143.299
2009    19      2       0.6564737       135.938
2009    19      3       0.8474592       160.2028
2009    19      4       0.8380966       158.6763
2009    19      5       0.6153219       129.5353
2009    19      6       0.4433373       102.1482
2009    19      7       0.4314377       100.3087
2009    20      0       0.422223        98.96882
2009    20      1       0.3605782       87.53247
2009    20      2       0.3875279       92.27521
2009    20      3       0.4763597       107.7498
2009    20      4       0.5034919       111.9304
2009    20      5       0.4571017       103.7921
2009    20      6       0.7885472       151.2053
2009    20      7       1.027221        176.4985
2009    21      0       0.5995182       124.9049
2009    21      1       0.3179977       77.57316
2009    21      2       0.3673768       85.834
2009    21      3       0.4233856       95.62911
2009    21      4       0.5068521       109.6866
2009    21      5       0.5589807       118.0239
2009    21      6       0.5862179       122.4423
2009    21      7       0.7341341       142.1923
2009    22      0       0.586549        122.7332
2009    22      1       0.4623467       103.7569
2009    22      2       0.3919452       91.66782
2009    22      3       0.3854279       90.07229
2009    22      4       0.3566265       84.6523
2009    22      5       0.3426953       81.74296
2009    22      6       0.3636582       85.57201
2009    22      7       0.3703627       87.10285
2009    23      0       0.3512597       83.53305
2009    23      1       0.3494772       83.01433
2009    23      2       0.3346326       80.29827
2009    23      3       0.2976601       73.55232
2009    23      4       0.2657841       67.29847
2009    23      5       0.240067        61.9077
2009    23      6       0.2493665       63.45211
2009    23      7       0.3039909       74.31513
2009    24      0       0.3249625       78.48964
2009    24      1       0.358059        84.73932
2009    24      2       0.3391421       81.80148
2009    24      3       0.332106        80.59095
2009    24      4       0.3635215       85.81674
2009    24      5       0.4326022       97.99746
2009    24      6       0.4769282       106.6275
2009    24      7       0.4521621       102.8252
2009    25      0       0.3792945       90.09046
2009    25      1       0.3448584       83.51957
2009    25      2       0.367881        87.43861
2009    25      3       0.3935009       91.42627
2009    25      4       0.3736631       87.85968
2009    25      5       0.376736        88.77874
2009    25      6       0.3916273       90.78866
2009    25      7       0.4453953       99.68394
2009    26      0       0.2932219       72.08262
2009    26      1       0.1395965       39.58411
2009    26      2       0.1060658       31.58524
2009    26      3       0.1239661       35.5773
2009    26      4       0.1657378       44.9828
2009    26      5       0.1777053       47.49329
2009    26      6       0.1793448       48.2801
2009    26      7       0.2160846       55.96108
2009    27      0       0.2074667       54.37639
2009    27      1       0.2097136       54.65885
2009    27      2       0.2619777       65.79343
2009    27      3       0.2482394       63.01549
2009    27      4       0.2049914       54.04475
2009    27      5       0.2371789       60.38506
2009    27      6       0.2924807       71.17509
2009    27      7       0.3137387       76.01647
2009    28      0       0.2949649       72.12013
2009    28      1       0.4508777       100.8707
2009    28      2       0.7844669       148.8305
2009    28      3       0.8536305       156.1045
2009    28      4       0.6814803       133.1879
2009    28      5       0.2858266       68.82179
2009    28      6       0.1688818       44.48064
2009    28      7       0.1251701       34.8042
2009    29      0       0.1043994       29.99112
2009    29      1       0.1050364       30.11791
2009    29      2       0.125162        34.64949
2009    29      3       0.1635953       43.00183
2009    29      4       0.2712376       64.96353
2009    29      5       0.2973695       69.85994
2009    29      6       0.4347882       93.43596
2009    29      7       0.3357746       76.68481
2009    30      0       0.3467496       78.71408
2009    30      1       0.2889385       68.46179
2009    30      2       0.1828177       47.43695
2009    30      3       0.1659631       43.8973
2009    30      4       0.1851593       48.02339
2009    30      5       0.2290957       57.40811
2009    30      6       0.3025136       73.07349
2009    30      7       0.3306271       79.58608
2009    31      0       0.3450552       82.8638
2009    31      1       0.3550422       84.62213
2009    31      2       0.3454988       83.65398
2009    31      3       0.3191512       78.75721
2009    31      4       0.2958979       74.32025
2009    31      5       0.2557566       66.27595
2009    31      6       0.2117831       56.98484
2009    31      7       0.2201265       58.61032
2010    1       0       0.6647368       138.3356
2010    1       1       0.6450116       135.5525
2010    1       2       0.6155165       131.1543
2010    1       3       0.5757711       124.843
2010    1       4       0.5447227       119.8353
2010    1       5       0.5216945       116.0542
2010    1       6       0.539989        119.0506
2010    1       7       0.5749131       124.632
2010    2       0       0.6248158       131.7415
2010    2       1       0.6531162       135.7401
2010    2       2       0.6922904       141.3157
2010    2       3       0.720442        144.9949
2010    2       4       0.7143432       144.0474
2010    2       5       0.7389876       147.1518
2010    2       6       0.7700721       151.2296
2010    2       7       0.9495735       171.185
2010    3       0       1.22379         195.6098
2010    3       1       1.099182        184.3174
2010    3       2       0.8566531       159.1752
2010    3       3       0.7864389       152.1216
2010    3       4       0.684865        139.2911
2010    3       5       0.6683067       137.1329
2010    3       6       0.8497674       159.2759
2010    3       7       0.9800738       172.6723
2010    4       0       1.051464        179.779
2010    4       1       0.9824371       173.7752
2010    4       2       0.8032028       154.6844
2010    4       3       0.823956        156.6874
2010    4       4       0.6757837       138.2977
2010    4       5       0.6690785       137.15
2010    4       6       0.9735362       170.6709
2010    4       7       1.055042        179.3929
2010    5       0       1.027684        177.4738
2010    5       1       0.9443275       169.407
2010    5       2       1.154887        189.1234
2010    5       3       0.8870532       163.9192
2010    5       4       0.825429        157.1136
2010    5       5       0.796952        152.8908
2010    5       6       0.8405315       157.2635
2010    5       7       1.045645        178.5746
2010    6       0       1.128325        186.2233
2010    6       1       0.8503865       159.8929
2010    6       2       0.9057936       166.0158
2010    6       3       1.028622        178.2666
2010    6       4       0.9378483       169.077
2010    6       5       0.9193661       167.4506
2010    6       6       1.080613        182.9717
2010    6       7       0.8702769       162.0093
2010    7       0       0.6784694       139.0986
2010    7       1       0.6286694       132.0918
2010    7       2       0.6595291       136.5027
2010    7       3       0.6519853       135.7212
2010    7       4       0.5880213       126.4153
2010    7       5       0.5475042       120.1215
2010    7       6       0.5702517       123.6823
2010    7       7       0.6003173       127.9966
2010    8       0       0.6054238       128.4177
2010    8       1       0.6128529       129.3624
2010    8       2       0.638008        132.6787
2010    8       3       0.6386611       132.6993
2010    8       4       0.5392201       118.1971
2010    8       5       0.4264078       99.38727
2010    8       6       0.3116454       77.67221
2010    8       7       0.254961        65.94138
2010    9       0       0.2647337       67.86647
2010    9       1       0.2561005       66.18097
2010    9       2       0.2312372       60.9046
2010    9       3       0.1981627       53.70273
2010    9       4       0.1881526       51.36623
2010    9       5       0.1994768       53.7717
2010    9       6       0.2207471       58.21499
2010    9       7       0.2374068       61.87836
2010    10      0       0.2599576       66.78677
2010    10      1       0.339291        82.47297
2010    10      2       0.3741533       88.13063
2010    10      3       0.3896373       90.54628
2010    10      4       0.3171721       77.65483
2010    10      5       0.2588962       66.14321
2010    10      6       0.26946         68.22867
2010    10      7       0.2983372       74.14896
2010    11      0       0.3152848       77.5507
2010    11      1       0.3502284       84.3203
2010    11      2       0.3770991       89.45285
2010    11      3       0.3603056       86.51118
2010    11      4       0.3342172       81.5103
2010    11      5       0.3300354       80.47145
2010    11      6       0.3260076       79.56221
2010    11      7       0.3250394       79.54946
2010    12      0       0.3215886       78.99237
2010    12      1       0.3070669       76.33201
2010    12      2       0.318228        78.52665
2010    12      3       0.3263529       80.0579
2010    12      4       0.3346971       81.76033
2010    12      5       0.3489005       84.52776
2010    12      6       0.3888691       91.9264
2010    12      7       0.4556506       103.5973
2010    13      0       0.4957733       110.0601
2010    13      1       0.5101054       112.1781
2010    13      2       0.4649837       104.9874
2010    13      3       0.4978862       110.3825
2010    13      4       0.4946879       110.2145
2010    13      5       0.4607677       104.6307
2010    13      6       0.453493        103.5464
2010    13      7       0.4806784       108.0369
2010    14      0       0.5392626       117.2052
2010    14      1       0.5287744       115.8891
2010    14      2       0.4919797       110.2227
2010    14      3       0.4518124       103.6018
2010    14      4       0.4693365       106.3346
2010    14      5       0.4680073       106.0917
2010    14      6       0.4528294       103.5991
2010    14      7       0.4405306       101.6306
2010    15      0       0.4776587       107.6325
2010    15      1       0.4659784       105.7896
2010    15      2       0.4221449       98.54548
2010    15      3       0.3971271       94.0195
2010    15      4       0.433357        100.08
2010    15      5       0.4357015       100.3889
2010    15      6       0.4787014       107.6251
2010    15      7       0.5931626       125.1356
2010    16      0       0.6998236       139.8593
2010    16      1       0.7116817       141.3959
2010    16      2       0.6226656       129.3948
2010    16      3       0.5657479       120.8016
2010    16      4       0.5754474       121.7979
2010    16      5       0.5724135       120.7669
2010    16      6       0.5924021       123.8215
2010    16      7       0.6917551       137.2349
2010    17      0       0.7278495       142.508
2010    17      1       0.710429        140.798
2010    17      2       0.673266        135.8062
2010    17      3       0.6739626       135.9327
2010    17      4       0.6132857       127.6872
2010    17      5       0.5605557       120.0092
2010    17      6       0.6830004       136.5512
2010    17      7       0.5954576       124.679
2010    18      0       0.5008018       110.6679
2010    18      1       0.5490776       118.215
2010    18      2       0.5703789       121.4641
2010    18      3       0.5736346       121.7413
2010    18      4       0.5552466       118.5969
2010    18      5       0.6086434       125.5724
2010    18      6       0.6045984       125.0246
2010    18      7       0.5402132       116.2808
2010    19      0       0.5519073       118.0998
2010    19      1       0.6136469       127.4696
2010    19      2       0.5710731       121.553
2010    19      3       0.5092957       112.1703
2010    19      4       0.4082926       95.3856
2010    19      5       0.3554159       85.78662
2010    19      6       0.3862386       91.31069
2010    19      7       0.4952545       110.125
2010    20      0       0.6252794       129.7485
2010    20      1       0.5654724       121.1831
2010    20      2       0.5092171       112.3321
2010    20      3       0.5271949       115.0051
2010    20      4       0.7110386       141.0168
2010    20      5       0.8459972       158.1473
2010    20      6       1.157736        189.584
2010    20      7       1.077132        182.2317
2010    21      0       0.9447163       168.6563
2010    21      1       0.7286141       143.9516
2010    21      2       0.7251137       143.7259
2010    21      3       0.5822588       123.4451
2010    21      4       0.4393009       100.5025
2010    21      5       0.4895364       108.4627
2010    21      6       0.4099283       93.94396
2010    21      7       0.5094218       109.8913
2010    22      0       0.6148746       125.5366
2010    22      1       0.5921112       122.4647
2010    22      2       0.5641268       119.0465
2010    22      3       0.5807671       121.8326
2010    22      4       0.5664053       119.6996
2010    22      5       0.507705        110.3358
2010    22      6       0.5894725       122.6511
2010    22      7       0.7228282       140.3356
2010    23      0       0.6554588       131.3534
2010    23      1       0.5520021       116.3712
2010    23      2       0.4734912       104.5325
2010    23      3       0.478864        105.8003
2010    23      4       0.5163991       111.8105
2010    23      5       0.5143138       111.7833
2010    23      6       0.4167492       95.90053
2010    23      7       0.5160779       111.9358
2010    24      0       0.66296         132.6024
2010    24      1       0.5432155       116.1335
2010    24      2       0.5354346       115.0795
2010    24      3       0.5055751       110.3628
2010    24      4       0.5426349       116.5578
2010    24      5       0.5501923       117.8142
2010    24      6       0.5710563       120.954
2010    24      7       0.631495        130.0403
2010    25      0       0.6299347       130.3329
2010    25      1       0.61096         128.0116
2010    25      2       0.5980731       126.4399
2010    25      3       0.6813564       139.4144
2010    25      4       0.6809702       139.6902
2010    25      5       0.6089664       128.8021
2010    25      6       0.6604327       135.7346
2010    25      7       0.635188        131.7529
2010    26      0       0.6228086       129.4972
2010    26      1       0.6611267       134.339
2010    26      2       0.3415564       82.01829
2010    26      3       0.2828257       70.68608
2010    26      4       0.3077013       75.43598
2010    26      5       0.3341154       80.39928
2010    26      6       0.3425624       82.2285
2010    26      7       0.3780145       89.51122
2010    27      0       0.4519462       102.9036
2010    27      1       0.3830107       90.91506
2010    27      2       0.3294879       80.6105
2010    27      3       0.2461733       63.62176
2010    27      4       0.1901434       51.37548
2010    27      5       0.1659731       45.78498
2010    27      6       0.1430221       40.68745
2010    27      7       0.1097367       32.7757
2010    28      0       0.1025543       31.04121
2010    28      1       0.1005492       30.54148
2010    28      2       0.1076278       32.43745
2010    28      3       0.1122544       33.48209
2010    28      4       0.1075347       32.03388
2010    28      5       0.1596135       44.45081
2010    28      6       0.2345158       61.42572
2010    28      7       0.2671891       68.64896
2010    29      0       0.270409        69.45561
2010    29      1       0.2420059       63.67589
2010    29      2       0.2472033       64.49793
2010    29      3       0.2866592       72.84499
2010    29      4       0.2864457       73.14531
2010    29      5       0.2802068       72.08519
2010    29      6       0.2414202       63.85972
2010    29      7       0.2752895       70.9627
2010    30      0       0.2813033       72.28479
2010    30      1       0.3015286       76.50409
2010    30      2       0.3542047       86.78011
2010    30      3       0.3589137       87.60981
2010    30      4       0.3337495       82.3555
2010    30      5       0.3309975       81.45276
2010    30      6       0.288795        73.05607
2010    30      7       0.2390275       62.49299
2010    31      0       0.2187525       58.21702
2010    31      1       0.2155244       57.4275
2010    31      2       0.2595728       67.03
2010    31      3       0.267068        68.42194
2010    31      4       0.2205701       58.33945
2010    31      5       0.2254806       59.37542
2010    31      6       0.2550899       65.81711
2010    31      7       0.2578562       66.02787
2011    1       0       0.6438654       133.9316
2011    1       1       0.586399        125.6706
2011    1       2       0.5621294       121.768
2011    1       3       0.6163492       129.4644
2011    1       4       0.6527214       134.2838
2011    1       5       0.6662948       135.8119
2011    1       6       0.6529529       134.0188
2011    1       7       0.6791577       137.8666
2011    2       0       0.7201939       143.6444
2011    2       1       0.7245688       144.5383
2011    2       2       0.7826174       151.8684
2011    2       3       0.8998181       165.0011
2011    2       4       0.93029         168.5987
2011    2       5       0.9565389       171.3993
2011    2       6       1.168764        191.0882
2011    2       7       1.453152        211.2662
2011    3       0       1.296114        200.5208
2011    3       1       0.9511095       171.4769
2011    3       2       0.9189676       168.2188
2011    3       3       1.009994        177.3327
2011    3       4       0.890323        165.0743
2011    3       5       0.8633191       161.8307
2011    3       6       1.118022        186.5851
2011    3       7       1.244561        196.9759
2011    4       0       1.181295        192.2135
2011    4       1       1.126002        187.6423
2011    4       2       1.283582        199.8538
2011    4       3       1.314088        201.8295
2011    4       4       0.9869551       174.2776
2011    4       5       1.036452        178.6601
2011    4       6       1.409469        209.0129
2011    4       7       1.451758        212.1341
2011    5       0       0.9708845       172.6031
2011    5       1       1.309582        201.5808
2011    5       2       1.029266        178.126
2011    5       3       0.6998128       140.5881
2011    5       4       0.6288589       130.5906
2011    5       5       0.5826151       123.5021
2011    5       6       0.5694033       121.4266
2011    5       7       0.8765715       161.526
2011    6       0       0.6846832       138.9253
2011    6       1       0.4984861       111.513
2011    6       2       0.4839911       109.0381
2011    6       3       0.572299        122.7209
2011    6       4       0.5986146       126.8491
2011    6       5       0.5706597       122.5019
2011    6       6       0.6270872       131.0274
2011    6       7       0.7055215       141.962
2011    7       0       0.7192834       143.2569
2011    7       1       0.7134653       141.7304
2011    7       2       0.6754127       136.2141
2011    7       3       0.6151588       127.6686
2011    7       4       0.4770289       106.1971
2011    7       5       0.4009405       92.58629
2011    7       6       0.3491393       82.72104
2011    7       7       0.395626        91.08345
2011    8       0       0.4623884       101.754
2011    8       1       0.4267398       95.09086
2011    8       2       0.3332688       78.84246
2011    8       3       0.2695361       66.84041
2011    8       4       0.2840859       69.83962
2011    8       5       0.3154368       75.7709
2011    8       6       0.3450937       81.1937
2011    8       7       0.4261244       95.39421
2011    9       0       0.5935089       121.1279
2011    9       1       0.4873392       105.9125
2011    9       2       0.4277156       96.20126
2011    9       3       0.3900099       89.7055
2011    9       4       0.3443323       81.68646
2011    9       5       0.3105829       75.53312
2011    9       6       0.3137906       76.31553
2011    9       7       0.3165042       77.32393
2011    10      0       0.3468093       83.23945
2011    10      1       0.368168        87.01564
2011    10      2       0.4510911       102.1866
2011    10      3       0.2905784       72.09557
2011    10      4       0.2711092       68.01964
2011    10      5       0.2521818       64.27094
2011    10      6       0.2506197       64.13526
2011    10      7       0.2669123       67.80432
2011    11      0       0.3080849       75.9665
2011    11      1       0.2962885       73.71428
2011    11      2       0.2960123       73.26152
2011    11      3       0.3570427       84.06449
2011    11      4       0.3371435       80.76946
2011    11      5       0.2905113       72.27559
2011    11      6       0.2615906       66.95798
2011    11      7       0.2702767       69.1212
2011    12      0       0.2609835       67.35834
2011    12      1       0.2557029       66.3276
2011    12      2       0.2730411       70.04804
2011    12      3       0.2780293       71.6983
2011    12      4       0.2216702       59.62748
2011    12      5       0.1629222       46.05408
2011    12      6       0.1929009       53.02206
2011    12      7       0.2254977       59.90343
2011    13      0       0.2339345       61.76689
2011    13      1       0.2140472       57.50904
2011    13      2       0.2200973       58.76651
2011    13      3       0.2282939       60.45222
2011    13      4       0.2255706       59.86825
2011    13      5       0.2254616       59.78071
2011    13      6       0.2336753       61.7032
2011    13      7       0.2607635       67.56732
2011    14      0       0.2570368       66.80664
2011    14      1       0.2263471       60.07784
2011    14      2       0.2143869       57.32076
2011    14      3       0.2195206       58.48096
2011    14      4       0.2191592       58.51239
2011    14      5       0.2177528       58.27002
2011    14      6       0.2431579       63.87532
2011    14      7       0.2825117       72.26805
2011    15      0       0.2883583       73.49764
2011    15      1       0.2496533       65.50712
2011    15      2       0.236571        62.68929
2011    15      3       0.2424301       63.83242
2011    15      4       0.2436619       63.98431
2011    15      5       0.2411271       63.37358
2011    15      6       0.2526058       65.74756
2011    15      7       0.2869399       72.96876
2011    16      0       0.3192361       79.45847
2011    16      1       0.3482902       85.10473
2011    16      2       0.3313495       82.05432
2011    16      3       0.2862265       73.19231
2011    16      4       0.3066991       77.59019
2011    16      5       0.2056015       55.73108
2011    16      6       0.2517816       65.69668
2011    16      7       0.3262145       80.92645
2011    17      0       0.3599143       87.44689
2011    17      1       0.3375589       83.11134
2011    17      2       0.2881974       73.25531
2011    17      3       0.261674        67.79044
2011    17      4       0.2713528       69.83275
2011    17      5       0.2997728       75.78984
2011    17      6       0.2972135       75.39019
2011    17      7       0.2782154       71.56425
2011    18      0       0.1862103       51.50958
2011    18      1       0.1233106       36.73136
2011    18      2       0.127574        37.63455
2011    18      3       0.1520143       43.3003
2011    18      4       0.1689034       46.99611
2011    18      5       0.1849088       50.61651
2011    18      6       0.215186        57.23447
2011    18      7       0.1970511       53.63345
2011    19      0       0.1909951       52.343
2011    19      1       0.1740198       48.43533
2011    19      2       0.1836272       50.56991
2011    19      3       0.2050626       55.40392
2011    19      4       0.2109168       57.02258
2011    19      5       0.202746        55.15318
2011    19      6       0.1875829       51.72663
2011    19      7       0.2169746       58.31077
2011    20      0       0.2631446       68.20232
2011    20      1       0.2482728       65.15865
2011    20      2       0.2024296       55.11295
2011    20      3       0.1999332       54.48249
2011    20      4       0.1930783       52.85385
2011    20      5       0.1799839       49.86678
2011    20      6       0.1847666       50.8991
2011    20      7       0.2026783       54.92866
2011    21      0       0.2237333       59.55909
2011    21      1       0.231014        61.01498
2011    21      2       0.210832        56.553
2011    21      3       0.1968632       53.35778
2011    21      4       0.1907507       51.84522
2011    21      5       0.193638        52.3863
2011    21      6       0.2054869       54.9381
2011    21      7       0.2448254       63.58084
2011    22      0       0.2783183       70.79632
2011    22      1       0.2854098       72.30572
2011    22      2       0.2598226       67.01908
2011    22      3       0.2004483       54.22162
2011    22      4       0.1524907       43.15296
2011    22      5       0.1587566       44.35043
2011    22      6       0.2246465       59.06177
2011    22      7       0.2719058       69.09616
2011    23      0       0.2826275       71.33985
2011    23      1       0.2731319       69.49666
2011    23      2       0.2624701       67.45096
2011    23      3       0.2535744       65.62458
2011    23      4       0.2490864       64.73468
2011    23      5       0.2406305       63.02642
2011    23      6       0.2388525       62.74982
2011    23      7       0.2585106       66.89094
2011    24      0       0.2703383       69.28629
2011    24      1       0.2831694       71.88945
2011    24      2       0.2915066       73.60108
2011    24      3       0.2707081       69.43379
2011    24      4       0.2528589       65.67336
2011    24      5       0.3756194       89.09973
2011    24      6       0.6212746       127.7525
2011    24      7       0.7322295       144.409
2011    25      0       0.8934593       164.503
2011    25      1       0.9670234       171.5701
2011    25      2       0.8416778       158.6657
2011    25      3       0.6916232       140.1563
2011    25      4       0.6599503       135.333
2011    25      5       0.607453        127.8631
2011    25      6       0.7612181       148.2679
2011    25      7       0.6655516       135.9249
2011    26      0       0.5911171       125.2552
2011    26      1       0.5021318       111.5534
2011    26      2       0.5614222       120.9585
2011    26      3       0.6571589       134.7285
2011    26      4       0.6051219       127.4063
2011    26      5       0.7064706       141.2878
2011    26      6       0.6435699       132.4575
2011    26      7       0.4129944       96.13826
2011    27      0       0.3745686       88.77109
2011    27      1       0.4096708       94.71012
2011    27      2       0.5052496       110.3688
2011    27      3       0.6629329       133.2393
2011    27      4       0.5565826       117.575
2011    27      5       0.4304259       97.68408
2011    27      6       0.3294324       79.89216
2011    27      7       0.3320452       80.51862
2011    28      0       0.3429206       82.577
2011    28      1       0.3561005       84.84909
2011    28      2       0.3762259       88.48956
2011    28      3       0.3427106       82.25918
2011    28      4       0.2944593       73.55176
2011    28      5       0.1980776       53.27661
2011    28      6       0.1536193       43.19595
2011    28      7       0.1662135       46.00158
2011    29      0       0.2043087       54.63142
2011    29      1       0.2494359       64.33459
2011    29      2       0.2979064       74.46745
2011    29      3       0.2950873       74.07159
2011    29      4       0.2602575       66.93795
2011    29      5       0.2347897       61.49899
2011    29      6       0.2229045       58.96081
2011    29      7       0.2388942       62.39759
2011    30      0       0.2197472       58.43097
2011    30      1       0.2068409       55.35407
2011    30      2       0.2314532       60.25943
2011    30      3       0.2406868       62.14081
2011    30      4       0.2562598       65.47886
2011    30      5       0.260729        66.50539
2011    30      6       0.257477        66.23359
2011    30      7       0.2605852       67.12703
2011    31      0       0.2627932       67.69305
2011    31      1       0.2577159       66.6756
2011    31      2       0.2502954       65.10154
2011    31      3       0.263408        67.56987
2011    31      4       0.2680342       68.32426
2011    31      5       0.2854094       71.12575
2011    31      6       0.3295518       79.28284
2011    31      7       0.3642749       85.9312
2012    1       0       0.4745124       107.1916
2012    1       1       0.364131        87.63927
2012    1       2       0.34475         84.10061
2012    1       3       0.4001784       94.6199
2012    1       4       0.4529246       104.2387
2012    1       5       0.4779582       108.2753
2012    1       6       0.4803953       108.4595
2012    1       7       0.4738528       107.5965
2012    2       0       0.4517881       103.9399
2012    2       1       0.4553714       104.4815
2012    2       2       0.4706158       107.1296
2012    2       3       0.4645732       106.2109
2012    2       4       0.3977359       94.43693
2012    2       5       0.3134386       78.31606
2012    2       6       0.2945958       74.5636
2012    2       7       0.3154048       78.75442
2012    3       0       0.3246417       80.6842
2012    3       1       0.2989019       75.58565
2012    3       2       0.3031191       76.44078
2012    3       3       0.2923478       74.27948
2012    3       4       0.2728024       70.13935
2012    3       5       0.2543622       66.26574
2012    3       6       0.2843603       72.31416
2012    3       7       0.3120161       77.71849
2012    4       0       0.2906251       73.62115
2012    4       1       0.2866609       72.74455
2012    4       2       0.3152561       78.57565
2012    4       3       0.3407692       83.50824
2012    4       4       0.3407784       83.33905
2012    4       5       0.3281242       80.85521
2012    4       6       0.3428975       83.70312
2012    4       7       0.3384175       83.01189
2012    5       0       0.3249041       80.5797
2012    5       1       0.2938576       74.24171
2012    5       2       0.2558723       66.50483
2012    5       3       0.2878066       72.74315
2012    5       4       0.2850713       71.85804
2012    5       5       0.2460642       63.69862
2012    5       6       0.2406394       62.79671
2012    5       7       0.2761832       70.13203
2012    6       0       0.3108381       76.92201
2012    6       1       0.3175687       78.29757
2012    6       2       0.3081859       76.36467
2012    6       3       0.3137759       76.8548
2012    6       4       0.3078398       75.51912
2012    6       5       0.3666955       85.90706
2012    6       6       0.3349752       80.71278
2012    6       7       0.3865062       90.51745
2012    7       0       0.4265803       97.94671
2012    7       1       0.4373142       99.90189
2012    7       2       0.4250344       97.58354
2012    7       3       0.4426756       99.6594
2012    7       4       0.4431459       99.33873
2012    7       5       0.3614204       85.73348
2012    7       6       0.3541542       84.66807
2012    7       7       0.3735517       88.51899
2012    8       0       0.3187441       78.39561
2012    8       1       0.2788654       70.36795
2012    8       2       0.2716955       68.62142
2012    8       3       0.2732135       68.86552
2012    8       4       0.2866688       71.73504
2012    8       5       0.3367895       81.64298
2012    8       6       0.3510926       84.64443
2012    8       7       0.3865843       91.32468
2012    9       0       0.4061486       94.93111
2012    9       1       0.3504952       84.86721
2012    9       2       0.2969565       74.43477
2012    9       3       0.2741864       69.68607
2012    9       4       0.2827519       71.38871
2012    9       5       0.3106894       77.04403
2012    9       6       0.3328795       81.37852
2012    9       7       0.3810917       90.54802
2012    10      0       0.4133079       96.48592
2012    10      1       0.4336108       100.1033
2012    10      2       0.4434766       101.9548
2012    10      3       0.40312         94.99597
2012    10      4       0.3586389       86.8215
2012    10      5       0.3082895       77.11302
2012    10      6       0.3500889       85.21192
2012    10      7       0.4057655       95.56252
2012    11      0       0.4173352       97.67485
2012    11      1       0.4192313       97.57548
2012    11      2       0.521165        114.4378
2012    11      3       0.5394659       117.307
2012    11      4       0.5401006       117.2809
2012    11      5       0.5767754       123.1953
2012    11      6       1.036344        177.5758
2012    11      7       1.050473        180.7266
2012    12      0       1.055072        180.7964
2012    12      1       0.8015361       153.8714
2012    12      2       0.7021108       141.0426
2012    12      3       0.9722946       170.9998
2012    12      4       1.016469        175.5472
2012    12      5       0.751011        147.5073
2012    12      6       0.6205897       129.517
2012    12      7       0.4405637       101.2302
2012    13      0       0.3360765       81.80484
2012    13      1       0.2531379       65.02591
2012    13      2       0.2529574       64.6866
2012    13      3       0.3029195       74.70143
2012    13      4       0.2556994       64.84631
2012    13      5       0.3046606       74.49558
2012    13      6       0.3280567       79.59459
2012    13      7       0.3284226       80.03401
2012    14      0       0.3172026       78.20062
2012    14      1       0.3213875       79.39949
2012    14      2       0.3436564       83.77503
2012    14      3       0.3478171       84.39489
2012    14      4       0.330526        80.91041
2012    14      5       0.3064674       76.17366
2012    14      6       0.3084442       76.4776
2012    14      7       0.3542201       85.25306
2012    15      0       0.3406384       82.88481
2012    15      1       0.3267397       80.33992
2012    15      2       0.3153904       78.12173
2012    15      3       0.2920515       73.52567
2012    15      4       0.2719805       69.51274
2012    15      5       0.2558913       66.04463
2012    15      6       0.2566564       66.16523
2012    15      7       0.2808572       71.04749
2012    16      0       0.3099492       77.22221
2012    16      1       0.3272619       80.80162
2012    16      2       0.3084426       77.19198
2012    16      3       0.2494458       65.22511
2012    16      4       0.2450799       63.96832
2012    16      5       0.2259467       60.03648
2012    16      6       0.2022188       54.98769
2012    16      7       0.2089743       56.59229
2012    17      0       0.2072882       56.26806
2012    17      1       0.2619865       67.77086
2012    17      2       0.2831493       72.86389
2012    17      3       0.3016393       76.49262
2012    17      4       0.3871179       92.89766
2012    17      5       0.3889082       93.84479
2012    17      6       0.2666422       69.7805
2012    17      7       0.2173165       58.5935
2012    18      0       0.1599803       45.48396
2012    18      1       0.1398825       40.33907
2012    18      2       0.1597191       44.60688
2012    18      3       0.1709763       47.18589
2012    18      4       0.1705857       47.15828
2012    18      5       0.1660567       46.2113
2012    18      6       0.1780325       49.09904
2012    18      7       0.1975667       53.56568
2012    19      0       0.2049911       55.28761
2012    19      1       0.2060062       55.45071
2012    19      2       0.2071391       55.89059
2012    19      3       0.1878546       51.73631
2012    19      4       0.1685459       47.36836
2012    19      5       0.1683277       47.14154
2012    19      6       0.1579382       44.8078
2012    19      7       0.1536972       43.91103
2012    20      0       0.1602816       45.57187
2012    20      1       0.1625818       46.18337
2012    20      2       0.160517        45.72995
2012    20      3       0.1728802       48.28458
2012    20      4       0.208896        55.98534
2012    20      5       0.3230249       78.99717
2012    20      6       0.4477241       102.5813
2012    20      7       0.5276813       116.4233
2012    21      0       0.5126959       114.1579
2012    21      1       0.4376823       101.5066
2012    21      2       0.4079227       96.45204
2012    21      3       0.4770056       108.7175
2012    21      4       0.4804387       109.185
2012    21      5       0.4811845       109.1928
2012    21      6       0.4049754       95.59348
2012    21      7       0.3730614       89.55209
2012    22      0       0.376278        89.26152
2012    22      1       0.4237687       96.64512
2012    22      2       0.4033912       93.9098
2012    22      3       0.4209529       97.38331
2012    22      4       0.4144006       96.71033
2012    22      5       0.3923348       92.78418
2012    22      6       0.3320278       81.42249
2012    22      7       0.3646097       87.44766
2012    23      0       0.4004828       94.29481
2012    23      1       0.4104281       96.32945
2012    23      2       0.3761814       89.8914
2012    23      3       0.3320966       81.78553
2012    23      4       0.3367032       82.70985
2012    23      5       0.3142561       78.297
2012    23      6       0.2758405       70.68751
2012    23      7       0.291008        73.71947
2012    24      0       0.3031801       76.12043
2012    24      1       0.3287289       81.1441
2012    24      2       0.3736476       88.53513
2012    24      3       0.4219355       96.61115
2012    24      4       0.39146         91.67834
2012    24      5       0.3328715       81.09587
2012    24      6       0.2617555       67.2554
2012    24      7       0.2272397       60.37102
2012    25      0       0.2872967       72.84318
2012    25      1       0.2628506       67.70703
2012    25      2       0.2036072       54.51821
2012    25      3       0.1747691       48.00585
2012    25      4       0.1975205       52.8874
2012    25      5       0.20021         53.05202
2012    25      6       0.232355        59.79554
2012    25      7       0.2681966       66.91346
2012    26      0       0.2422629       62.24396
2012    26      1       0.1937847       52.16814
2012    26      2       0.1791588       48.95776
2012    26      3       0.1682558       46.48871
2012    26      4       0.1713814       47.14645
2012    26      5       0.1741807       47.71104
2012    26      6       0.170444        46.96159
2012    26      7       0.1761313       48.12254
2012    27      0       0.1824828       49.62191
2012    27      1       0.1846754       50.06521
2012    27      2       0.2007449       54.11047
2012    27      3       0.2073483       55.62484
2012    27      4       0.2095012       55.61173
2012    27      5       0.2080582       55.01868
2012    27      6       0.1902894       51.44084
2012    27      7       0.1928183       52.00269
2012    28      0       0.1962595       52.76659
2012    28      1       0.1814244       49.42948
2012    28      2       0.1803312       48.99416
2012    28      3       0.185463        49.87726
2012    28      4       0.1906685       50.93047
2012    28      5       0.2009875       53.19648
2012    28      6       0.203958        53.84165
2012    28      7       0.1926359       51.69819
2012    29      0       0.1882804       50.87701
2012    29      1       0.1866976       50.60273
2012    29      2       0.1810836       49.38029
2012    29      3       0.1762821       48.39642
2012    29      4       0.1697735       46.92454
2012    29      5       0.1746861       48.04496
2012    29      6       0.1758589       48.37948
2012    29      7       0.1803033       49.38544
2012    30      0       0.1772525       48.81067
2012    30      1       0.1548184       43.66539
2012    30      2       0.1405543       40.25454
2012    30      3       0.1485027       42.01751
2012    30      4       0.1945291       52.28472
2012    30      5       0.2706227       68.70258
2012    30      6       0.2848865       71.66095
2012    30      7       0.2878461       72.26321
2012    31      0       0.2698951       68.68956
2012    31      1       0.2429546       63.06529
2012    31      2       0.2386994       61.99994
2012    31      3       0.2415144       62.51284
2012    31      4       0.2409815       62.44323
2012    31      5       0.2216888       58.4549
2012    31      6       0.195405        52.78529
2012    31      7       0.2098439       56.01974
2013    1       0       0.236198        62.97353
2013    1       1       0.2007834       55.19295
2013    1       2       0.1723043       48.64398
2013    1       3       0.1592825       45.49385
2013    1       4       0.1617301       46.06321
2013    1       5       0.1778253       49.781
2013    1       6       0.188548        52.2703
2013    1       7       0.2047455       55.92231
2013    2       0       0.2147245       58.10856
2013    2       1       0.2086532       56.67349
2013    2       2       0.2038651       55.53608
2013    2       3       0.2093749       56.76433
2013    2       4       0.2134386       57.58247
2013    2       5       0.2007923       54.69356
2013    2       6       0.2146943       57.86486
2013    2       7       0.2453646       64.53944
2013    3       0       0.2915319       74.19037
2013    3       1       0.3376549       83.69143
2013    3       2       0.2993599       76.16946
2013    3       3       0.2984084       75.93903
2013    3       4       0.3030734       76.7778
2013    3       5       0.2948093       74.97646
2013    3       6       0.2534261       66.13331
2013    3       7       0.3040496       76.65655
2013    4       0       0.3115005       78.14102
2013    4       1       0.2542686       66.35042
2013    4       2       0.3582332       86.79521
2013    4       3       0.4592526       105.3122
2013    4       4       0.4501518       103.5135
2013    4       5       0.423636        98.3972
2013    4       6       0.3486491       84.42339
2013    4       7       0.3217001       79.36793
2013    5       0       0.3005538       74.88609
2013    5       1       0.2437851       62.64741
2013    5       2       0.277405        69.4627
2013    5       3       0.2501713       63.75274
2013    5       4       0.1198171       34.90965
2013    5       5       0.147051        41.15832
2013    5       6       0.1933606       51.7481
2013    5       7       0.2463319       63.18421
2013    6       0       0.2584897       65.85348
2013    6       1       0.2530205       64.79724
2013    6       2       0.2303152       60.46375
2013    6       3       0.1841579       50.30245
2013    6       4       0.1485025       42.37746
2013    6       5       0.1731485       47.74757
2013    6       6       0.1701297       47.05042
2013    6       7       0.1677918       46.62198
2013    7       0       0.1786799       49.21017
2013    7       1       0.1816154       50.00373
2013    7       2       0.1865023       51.15895
2013    7       3       0.1907881       52.13644
2013    7       4       0.196616        53.34252
2013    7       5       0.1927124       52.36461
2013    7       6       0.2074489       55.9612
2013    7       7       0.2529065       66.01156
2013    8       0       0.2869381       73.11619
2013    8       1       0.2753345       70.72051
2013    8       2       0.2445338       64.06667
2013    8       3       0.2602488       67.0132
2013    8       4       0.3241526       80.32426
2013    8       5       0.3113319       77.97428
2013    8       6       0.3346412       82.45316
2013    8       7       0.3734254       89.78577
2013    9       0       0.4494804       103.4083
2013    9       1       0.4294673       100.0601
2013    9       2       0.3917541       93.13319
2013    9       3       0.3260996       80.44326
2013    9       4       0.2464567       64.22438
2013    9       5       0.2526465       65.37031
2013    9       6       0.3369302       81.7937
2013    9       7       0.4739254       106.2862
2013    10      0       0.5562856       119.5139
2013    10      1       0.566387        121.4037
2013    10      2       0.6501916       134.2992
2013    10      3       0.6232498       130.5907
2013    10      4       0.5373991       116.85
2013    10      5       0.6967675       138.6959
2013    10      6       0.7590108       145.3909
2013    10      7       0.4041312       93.25065
2013    11      0       0.2732717       68.48499
2013    11      1       0.24907         63.40778
2013    11      2       0.2266558       58.81618
2013    11      3       0.209977        55.16233
2013    11      4       0.2032019       53.79899
2013    11      5       0.1910008       51.07571
2013    11      6       0.1768521       48.15989
2013    11      7       0.1774913       48.56477
2013    12      0       0.1959355       52.77721
2013    12      1       0.2125228       56.42712
2013    12      2       0.2267549       59.52873
2013    12      3       0.2171137       57.46542
2013    12      4       0.2057933       55.07775
2013    12      5       0.2436971       63.43105
2013    12      6       0.3267763       80.24965
2013    12      7       0.4362194       100.5283
2013    13      0       0.4453265       102.2378
2013    13      1       0.4400557       101.4423
2013    13      2       0.4244326       98.79357
2013    13      3       0.4348745       100.472
2013    13      4       0.4976978       111.4111
2013    13      5       0.4646226       106.1869
2013    13      6       0.4111288       96.82485
2013    13      7       0.4253719       99.43762
2013    14      0       0.4332876       100.6959
2013    14      1       0.4145232       97.44055
2013    14      2       0.3431638       83.99783
2013    14      3       0.3209984       79.42556
2013    14      4       0.3347296       81.77034
2013    14      5       0.3155591       77.92772
2013    14      6       0.255235        65.80545
2013    14      7       0.2532948       65.50109
2013    15      0       0.2679221       68.52849
2013    15      1       0.2375256       61.91485
2013    15      2       0.1796245       49.2044
2013    15      3       0.1801452       49.29141
2013    15      4       0.2164437       57.29287
2013    15      5       0.3035205       75.53663
2013    15      6       0.3683429       87.90742
2013    15      7       0.4249654       98.32336
2013    16      0       0.4125037       96.1831
2013    16      1       0.3460157       83.91349
2013    16      2       0.2413489       62.72318
2013    16      3       0.1989231       53.4462
2013    16      4       0.2007448       53.57683
2013    16      5       0.2309378       59.68471
2013    16      6       0.165651        45.66208
2013    16      7       0.1411059       40.14246
2013    17      0       0.1396574       39.86355
2013    17      1       0.1315722       37.91745
2013    17      2       0.1278786       36.88754
2013    17      3       0.1348669       38.40827
2013    17      4       0.1436523       40.33509
2013    17      5       0.1359308       38.49287
2013    17      6       0.1320865       37.55461
2013    17      7       0.1689063       45.91274
2013    18      0       0.2074658       54.30353
2013    18      1       0.215052        55.99072
2013    18      2       0.2016418       53.23869
2013    18      3       0.239139        61.50123
2013    18      4       0.2163183       56.47907
2013    18      5       0.1840138       49.51047
2013    18      6       0.1309632       37.76604
2013    18      7       0.1514301       42.33407
2013    19      0       0.1598824       44.2597
2013    19      1       0.131771        37.95813
2013    19      2       0.1301589       37.5338
2013    19      3       0.135679        38.70888
2013    19      4       0.1438794       40.49882
2013    19      5       0.1389611       39.40685
2013    19      6       0.1468359       41.32869
2013    19      7       0.1634647       45.17268
2013    20      0       0.1702353       46.68403
2013    20      1       0.1540562       43.09086
2013    20      2       0.1481286       41.71234
2013    20      3       0.1432351       40.55059
2013    20      4       0.1417727       40.15263
2013    20      5       0.1432601       40.4625
2013    20      6       0.1597704       44.32027
2013    20      7       0.1797158       48.82693
2013    21      0       0.1774488       48.36524
2013    21      1       0.1725523       47.04007
2013    21      2       0.2090061       54.81988
2013    21      3       0.2445864       62.16438
2013    21      4       0.2712771       67.5708
2013    21      5       0.2820651       69.76794
2013    21      6       0.2916358       71.77296
2013    21      7       0.2918085       72.14181
2013    22      0       0.2724321       68.55295
2013    22      1       0.2521557       64.53003
2013    22      2       0.2576748       65.62106
2013    22      3       0.2486283       63.77781
2013    22      4       0.2462897       63.34626
2013    22      5       0.2376888       61.56128
2013    22      6       0.2379182       61.59069
2013    22      7       0.2491287       64.01937
2013    23      0       0.2607415       66.53199
2013    23      1       0.2704011       68.73119
2013    23      2       0.2630618       67.33402
2013    23      3       0.2570734       66.02821
2013    23      4       0.2275963       59.6305
2013    23      5       0.1905805       51.40944
2013    23      6       0.186726        50.75147
2013    23      7       0.2248232       59.01723
2013    24      0       0.30093         74.45053
2013    24      1       0.3952406       91.95205
2013    24      2       0.3942108       91.96253
2013    24      3       0.3786284       88.94323
2013    24      4       0.4138297       94.97755
2013    24      5       0.5101773       111.3226
2013    24      6       0.5927659       124.2802
2013    24      7       0.7556981       146.0353
2013    25      0       0.8502302       157.0554
2013    25      1       0.6845387       137.6244
2013    25      2       0.7508226       146.2407
2013    25      3       0.8629598       160.2073
2013    25      4       0.8377095       156.9343
2013    25      5       0.6534444       133.2528
2013    25      6       0.6406024       130.7437
2013    25      7       0.6352111       129.5736
2013    26      0       0.5783071       121.7007
2013    26      1       0.4838366       106.9315
2013    26      2       0.3837259       90.12621
2013    26      3       0.3464514       83.39516
2013    26      4       0.3858151       90.74618
2013    26      5       0.3878734       90.91753
2013    26      6       0.4056504       94.20929
2013    26      7       0.4523917       102.3237
2013    27      0       0.477726        106.6436
2013    27      1       0.4571748       103.3713
2013    27      2       0.4075395       94.72822
2013    27      3       0.3933589       91.9107
2013    27      4       0.4032023       93.50251
2013    27      5       0.4055987       93.98248
2013    27      6       0.3548182       85.25081
2013    27      7       0.3814533       90.60444
2013    28      0       0.4087401       95.77521
2013    28      1       0.3887036       92.26371
2013    28      2       0.4402689       101.3493
2013    28      3       0.3947471       92.83586
2013    28      4       0.2832864       71.00364
2013    28      5       0.2742361       69.09864
2013    28      6       0.2859245       71.36624
2013    28      7       0.3014662       74.33305
2013    29      0       0.2938794       72.7141
2013    29      1       0.2999287       73.86161
2013    29      2       0.3386749       81.53005
2013    29      3       0.3280911       79.38957
2013    29      4       0.3593692       85.50028
2013    29      5       0.3778894       89.17034
2013    29      6       0.3342242       80.9333
2013    29      7       0.4529895       101.7085
2013    30      0       0.6714463       135.3782
2013    30      1       0.6832516       137.1714
2013    30      2       0.4127847       95.52931
2013    30      3       0.3287787       80.16403
2013    30      4       0.3456237       83.10226
2013    30      5       0.3563986       84.96867
2013    30      6       0.3478504       83.03372
2013    30      7       0.5128024       110.487
2013    31      0       0.4849838       105.3698
2013    31      1       0.2953777       72.09565
2013    31      2       0.2569373       64.59153
2013    31      3       0.2451396       62.39721
2013    31      4       0.2400556       61.5062
2013    31      5       0.2373739       61.13412
2013    31      6       0.2339613       60.21856
2013    31      7       0.2661188       66.68825
2014    1       0       0.4170374       97.39767
2014    1       1       0.411992        96.971
2014    1       2       0.3945025       93.5953
2014    1       3       0.3750431       89.95409
2014    1       4       0.356358        86.54686
2014    1       5       0.3309799       81.73156
2014    1       6       0.3099244       77.1881
2014    1       7       0.3798346       90.47954
2014    2       0       0.4969424       110.4094
2014    2       1       0.5261257       114.9129
2014    2       2       0.4708715       106.0933
2014    2       3       0.3388216       82.69022
2014    2       4       0.2347163       61.62655
2014    2       5       0.1309279       38.23902
2014    2       6       0.1207219       35.65904
2014    2       7       0.1490491       42.33948
2014    3       0       0.1671959       46.66015
2014    3       1       0.1591127       44.96741
2014    3       2       0.1582798       44.90367
2014    3       3       0.1705638       47.69965
2014    3       4       0.1757033       48.93422
2014    3       5       0.1840711       50.90085
2014    3       6       0.1964821       53.98678
2014    3       7       0.223262        59.99624
2014    4       0       0.2396006       63.54096
2014    4       1       0.245864        64.86495
2014    4       2       0.2247626       60.36151
2014    4       3       0.2128722       57.68312
2014    4       4       0.2034318       55.52557
2014    4       5       0.1982769       54.28312
2014    4       6       0.1881068       51.99198
2014    4       7       0.2052407       55.79861
2014    5       0       0.2179352       58.56223
2014    5       1       0.2047901       55.64802
2014    5       2       0.2012723       54.79286
2014    5       3       0.1911032       52.50309
2014    5       4       0.1851191       51.10768
2014    5       5       0.1990451       54.13513
2014    5       6       0.2137082       57.34361
2014    5       7       0.2127988       57.22582
2014    6       0       0.2168482       58.1414
2014    6       1       0.2312333       61.18872
2014    6       2       0.2718434       70.13728
2014    6       3       0.2313396       61.52458
2014    6       4       0.1520726       43.35944
2014    6       5       0.1689932       47.3368
2014    6       6       0.1721682       48.27771
2014    6       7       0.1963377       53.82506
2014    7       0       0.2048522       55.76288
2014    7       1       0.1920803       52.99347
2014    7       2       0.1737092       48.81552
2014    7       3       0.1595841       45.37803
2014    7       4       0.1581847       44.89315
2014    7       5       0.1604288       45.16278
2014    7       6       0.2047595       55.0292
2014    7       7       0.2744114       69.44855
2014    8       0       0.3842183       89.80356
2014    8       1       0.4871697       107.0537
2014    8       2       0.5578673       118.4046
2014    8       3       0.5952832       124.113
2014    8       4       0.7078774       140.1058
2014    8       5       0.8897757       162.4996
2014    8       6       1.205965        192.7325
2014    8       7       1.435833        209.8482
2014    9       0       1.32228         203.0845
2014    9       1       1.187411        193.1026
2014    9       2       1.011962        178.1009
2014    9       3       1.053145        181.7147
2014    9       4       1.133862        189.2957
2014    9       5       0.6968771       141.7336
2014    9       6       0.9132991       166.2014
2014    9       7       1.078717        181.7883
2014    10      0       1.260341        197.0478
2014    10      1       1.158977        189.0925
2014    10      2       0.9350696       167.5025
2014    10      3       0.6836595       137.5433
2014    10      4       0.6301321       130.1626
2014    10      5       0.6917052       138.4111
2014    10      6       1.069642        178.6218
2014    10      7       1.035355        175.2694
2014    11      0       0.8920162       161.7632
2014    11      1       0.6593827       134.5213
2014    11      2       0.5320366       116.1188
2014    11      3       0.4540529       103.3596
2014    11      4       0.4292561       98.83439
2014    11      5       0.4235647       97.32694
2014    11      6       0.4982608       109.1961
2014    11      7       0.5222749       113.42
2014    12      0       0.5746378       121.806
2014    12      1       0.551176        118.6312
2014    12      2       0.4352817       100.0157
2014    12      3       0.4639448       104.7215
2014    12      4       0.4739181       106.5741
2014    12      5       0.4528293       102.9936
2014    12      6       0.3857812       91.2035
2014    12      7       0.4609653       104.4173
2014    13      0       0.2164224       57.03531
2014    13      1       0.1799042       48.91608
2014    13      2       0.2133726       56.07159
2014    13      3       0.1972173       52.36664
2014    13      4       0.1945838       51.99615
2014    13      5       0.1889395       50.66603
2014    13      6       0.1947006       51.98564
2014    13      7       0.2298656       59.72771
2014    14      0       0.252416        64.65884
2014    14      1       0.2472133       63.7054
2014    14      2       0.236583        61.93711
2014    14      3       0.2341958       61.40997
2014    14      4       0.2321192       60.98631
2014    14      5       0.2229889       59.28795
2014    14      6       0.2154826       57.84165
2014    14      7       0.2262567       60.00533
2014    15      0       0.2231213       59.49646
2014    15      1       0.2064383       56.05304
2014    15      2       0.1951291       53.61562
2014    15      3       0.2052724       55.73089
2014    15      4       0.2014564       54.73053
2014    15      5       0.1885772       51.75133
2014    15      6       0.2155595       57.94082
2014    15      7       0.2517534       65.94115
2014    16      0       0.2556889       66.50724
2014    16      1       0.2291919       60.83924
2014    16      2       0.2285499       60.50552
2014    16      3       0.2716658       69.59347
2014    16      4       0.408775        95.72773
2014    16      5       0.4455462       102.6701
2014    16      6       0.4355246       99.73699
2014    16      7       0.4047253       94.96467
2014    17      0       0.3697329       88.91107
2014    17      1       0.3434495       83.9628
2014    17      2       0.3735047       89.23987
2014    17      3       0.4189198       97.34169
2014    17      4       0.4786028       106.8662
2014    17      5       0.495375        109.4085
2014    17      6       0.4603071       103.9905
2014    17      7       0.6596195       132.9977
2014    18      0       0.8610125       158.0216
2014    18      1       0.7725701       148.615
2014    18      2       0.6440519       132.6268
2014    18      3       0.5677882       121.4992
2014    18      4       0.5321253       115.9577
2014    18      5       0.5839391       123.9399
2014    18      6       0.7357324       144.9162
2014    18      7       0.8577738       159.6433
2014    19      0       0.8540231       159.5647
2014    19      1       0.9214982       167.7057
2014    19      2       0.7676665       150.007
2014    19      3       0.99744         175.6506
2014    19      4       0.9405759       169.9859
2014    19      5       0.7913909       152.7119
2014    19      6       0.8367522       158.3362
2014    19      7       1.08691         183.8987
2014    20      0       1.045341        180.0723
2014    20      1       1.02793         178.8716
2014    20      2       1.118879        186.2331
2014    20      3       1.433161        209.0039
2014    20      4       1.369178        204.6039
2014    20      5       1.144323        187.0227
2014    20      6       1.264982        195.3889
2014    20      7       1.129465        185.203
2014    21      0       1.046943        178.117
2014    21      1       0.8187771       154.86
2014    21      2       0.8849571       162.5051
2014    21      3       0.9600409       170.8536
2014    21      4       0.9945666       174.6063
2014    21      5       0.8667983       160.5976
2014    21      6       0.8948034       163.5938
2014    21      7       0.9652449       171.0966
2014    22      0       0.9373208       168.2147
2014    22      1       0.9379434       168.8056
2014    22      2       0.8303564       156.89
2014    22      3       0.7270896       144.633
2014    22      4       0.6400491       132.9099
2014    22      5       0.5583948       120.8286
2014    22      6       0.525435        115.289
2014    22      7       0.5862343       124.2202
2014    23      0       0.5476866       119.1204
2014    23      1       0.5319441       116.8327
2014    23      2       0.5096605       113.1777
2014    23      3       0.4904105       109.878
2014    23      4       0.449289        103.0926
2014    23      5       0.4564281       104.3555
2014    23      6       0.4218862       98.45529
2014    23      7       0.4157291       97.66681
2014    24      0       0.4065645       96.08539
2014    24      1       0.4062528       96.06258
2014    24      2       0.3816652       91.56004
2014    24      3       0.3668692       88.8326
2014    24      4       0.3510903       85.98021
2014    24      5       0.3427001       84.45539
2014    24      6       0.3469751       85.31324
2014    24      7       0.3881015       93.32676
2014    25      0       0.412942        98.06848
2014    25      1       0.4313721       101.5849
2014    25      2       0.4359134       102.5751
2014    25      3       0.4409802       103.427
2014    25      4       0.4168615       99.18034
2014    25      5       0.3937641       94.88456
2014    25      6       0.3531805       87.11066
2014    25      7       0.4038324       96.45547
2014    26      0       0.549815        121.3691
2014    26      1       0.64879         136.1158
2014    26      2       0.6923795       142.1536
2014    26      3       0.7227201       146.1783
2014    26      4       0.7501703       149.6432
2014    26      5       0.9389584       171.4062
2014    26      6       0.9769789       174.5018
2014    26      7       0.9623952       172.5979
2014    27      0       0.8685159       162.8679
2014    27      1       0.7799465       152.6595
2014    27      2       0.7364683       146.9181
2014    27      3       0.7232413       144.63
2014    27      4       0.7427855       146.1607
2014    27      5       0.7143111       142.5906
2014    27      6       0.4087195       96.70099
2014    27      7       0.3612904       87.69226
2014    28      0       0.3867673       92.20749
2014    28      1       0.4181716       97.68583
2014    28      2       0.372941        89.19207
2014    28      3       0.3629687       86.74302
2014    28      4       0.3418555       82.54161
2014    28      5       0.321661        79.12663
2014    28      6       0.3335956       81.54974
2014    28      7       0.3579453       86.27753
2014    29      0       0.3898181       92.11907
2014    29      1       0.394905        93.05813
2014    29      2       0.3612322       87.09393
2014    29      3       0.345732        84.19945
2014    29      4       0.3580292       86.41001
2014    29      5       0.362555        87.20314
2014    29      6       0.3342905       81.90971
2014    29      7       0.3145024       78.25586
2014    30      0       0.301885        75.80646
2014    30      1       0.258709        67.00687
2014    30      2       0.2247776       59.73081
2014    30      3       0.2223597       59.0992
2014    30      4       0.2166793       57.59877
2014    30      5       0.2047243       54.9161
2014    30      6       0.2080722       55.73973
2014    30      7       0.2174471       57.92051
2014    31      0       0.2153113       57.57203
2014    31      1       0.202724        54.83372
2014    31      2       0.2121259       56.82065
2014    31      3       0.3648349       87.93211
2014    31      4       0.5445496       118.6463
2014    31      5       0.5604573       120.7197
2014    31      6       0.7104558       141.2546
2014    31      7       0.9243667       167.6853
2015    1       0       1.053109        184.7754
2015    1       1       0.9252076       171.8332
2015    1       2       0.7808578       155.1767
2015    1       3       0.6620915       139.5806
2015    1       4       0.6088925       131.5808
2015    1       5       0.5804453       127.0117
2015    1       6       0.5749141       126.283
2015    1       7       0.6070221       131.1914
2015    2       0       0.6404131       136.0296
2015    2       1       0.6154162       132.398
2015    2       2       0.5857963       128.0043
2015    2       3       0.5851198       127.6134
2015    2       4       0.6324979       134.2036
2015    2       5       0.6890469       141.8241
2015    2       6       0.8172411       158.3839
2015    2       7       0.9217306       170.1134
2015    3       0       0.8253027       159.1889
2015    3       1       0.8594904       163.2421
2015    3       2       0.7668041       151.0731
2015    3       3       0.7199096       145.3366
2015    3       4       0.7499564       148.7074
2015    3       5       0.722508        144.6275
2015    3       6       0.5404296       119.2607
2015    3       7       0.4781334       109.1196
2015    4       0       0.540697        119.2222
2015    4       1       0.6367524       133.5418
2015    4       2       0.7659795       150.3845
2015    4       3       0.6976829       141.3665
2015    4       4       0.8030826       154.1942
2015    4       5       0.8707198       162.3189
2015    4       6       0.8347689       158.6792
2015    4       7       1.179579        193.461
2015    5       0       1.390664        209.3348
2015    5       1       1.303727        203.0163
2015    5       2       1.317609        203.9785
2015    5       3       1.087693        185.2808
2015    5       4       0.9835545       175.2183
2015    5       5       0.960628        172.7375
2015    5       6       1.036648        178.7277
2015    5       7       1.153505        189.3976
2015    6       0       1.167838        190.4563
2015    6       1       1.131599        188.0936
2015    6       2       1.22469         195.4755
2015    6       3       0.8095653       155.7277
2015    6       4       0.7098229       142.7992
2015    6       5       0.5991463       126.8413
2015    6       6       0.5475109       118.6806
2015    6       7       0.8438363       157.2221
2015    7       0       0.8743121       161.2212
2015    7       1       0.8077059       153.8679
2015    7       2       0.8679424       160.6221
2015    7       3       0.9118521       164.7721
2015    7       4       0.9698627       170.4181
2015    7       5       1.019505        174.4949
2015    7       6       1.020361        174.3065
2015    7       7       0.9705903       170.6795
2015    8       0       1.216144        193.0152
2015    8       1       1.063233        179.9749
2015    8       2       0.8101721       153.5364
2015    8       3       0.6537161       133.7688
2015    8       4       0.7377581       144.7833
2015    8       5       0.8821164       161.4954
2015    8       6       1.177162        189.7265
2015    8       7       1.191411        191.9572
2015    9       0       1.15398         189.5295
2015    9       1       0.893157        164.4363
2015    9       2       0.8830826       163.4083
2015    9       3       0.9098207       166.6301
2015    9       4       0.8970355       165.8555
2015    9       5       0.8751349       163.0602
2015    9       6       0.6841292       139.4284
2015    9       7       0.7861758       152.9992
2015    10      0       0.8989365       166.1924
2015    10      1       0.825128        157.6275
2015    10      2       0.7411409       147.5525
2015    10      3       0.6821407       139.8317
2015    10      4       0.6096399       129.5662
2015    10      5       0.5395098       118.6626
2015    10      6       0.5524248       120.6344
2015    10      7       0.6581115       136.4471
2015    11      0       0.7830998       153.18
2015    11      1       0.8240782       158.5081
2015    11      2       0.8220129       158.4961
2015    11      3       0.819082        158.3285
2015    11      4       0.7701331       152.4129
2015    11      5       0.7121495       144.5923
2015    11      6       0.6426818       134.6787
2015    11      7       0.6350992       133.5819
2015    12      0       0.6178635       131.0896
2015    12      1       0.5045551       113.3568
2015    12      2       0.4510256       104.1599
2015    12      3       0.5102964       114.5994
2015    12      4       0.4451706       103.2415
2015    12      5       0.4195835       97.98466
2015    12      6       0.5305361       116.8103
2015    12      7       0.5741731       123.9001
2015    13      0       0.5742253       123.5608
2015    13      1       0.49575         111.2967
2015    13      2       0.4636889       106.1263
2015    13      3       0.3810505       91.17865
2015    13      4       0.2458961       63.95582
2015    13      5       0.2099275       56.15846
2015    13      6       0.2146182       57.24622
2015    13      7       0.2334738       61.42952
2015    14      0       0.2417935       63.347
2015    14      1       0.2414241       63.31507
2015    14      2       0.2490639       64.96039
2015    14      3       0.2388245       62.84629
2015    14      4       0.2379957       62.58796
2015    14      5       0.2585583       66.85366
2015    14      6       0.311268        77.66551
2015    14      7       0.3560592       86.59558
2015    15      0       0.3940193       93.74894
2015    15      1       0.4291915       100.0601
2015    15      2       0.4836123       109.2173
2015    15      3       0.4810893       108.732
2015    15      4       0.4652782       105.6047
2015    15      5       0.470722        106.2745
2015    15      6       0.4492089       102.8662
2015    15      7       0.4934623       110.0473
2015    16      0       0.5617141       120.4268
2015    16      1       0.6756113       136.4262
2015    16      2       0.7056776       141.1384
2015    16      3       0.8000777       152.718
2015    16      4       0.9112125       164.5189
2015    16      5       0.8222791       155.2763
2015    16      6       0.8449024       157.2567
2015    16      7       1.01126         174.681
2015    17      0       1.159929        187.506
2015    17      1       0.8365516       157.3337
2015    17      2       0.9734485       173.3634
2015    17      3       1.052686        180.6208
2015    17      4       1.031072        177.0239
2015    17      5       1.080463        180.8061
2015    17      6       1.225462        193.2511
2015    17      7       1.258843        197.2781
2015    18      0       1.305474        199.7458
2015    18      1       1.176019        189.801
2015    18      2       1.243533        196.0252
2015    18      3       1.092913        184.5851
2015    18      4       0.8011393       153.7851
2015    18      5       0.6954658       140.4827
2015    18      6       0.8506958       159.3718
2015    18      7       1.165631        190.2467
2015    19      0       1.207016        193.5887
2015    19      1       1.058508        180.8355
2015    19      2       1.136143        186.9591
2015    19      3       0.8773695       162.8528
2015    19      4       1.121086        185.8849
2015    19      5       1.057843        180.81
2015    19      6       0.7785331       151.8607
2015    19      7       0.6821412       139.4549
2015    20      0       0.6737509       138.3793
2015    20      1       0.6533121       135.4445
2015    20      2       0.61389         129.7418
2015    20      3       0.7180857       144.2245
2015    20      4       0.8537879       160.8112
2015    20      5       0.9329004       169.1716
2015    20      6       1.074818        182.6871
2015    20      7       1.282952        200.3375
2015    21      0       1.110113        184.2434
2015    21      1       0.8281444       155.3309
2015    21      2       1.073261        180.3582
2015    21      3       1.026201        174.6474
2015    21      4       0.641252        131.392
2015    21      5       0.6586937       133.7125
2015    21      6       0.8006758       151.0603
2015    21      7       0.750542        145.0895
2015    22      0       0.5980421       124.3592
2015    22      1       0.6378375       129.8933
2015    22      2       0.6725411       134.3697
2015    22      3       0.6676589       133.9468
2015    22      4       0.606835        125.6179
2015    22      5       0.6228013       127.4622
2015    22      6       0.8399557       154.0086
2015    22      7       0.8234346       152.5177
2015    23      0       0.7927879       149.9641
2015    23      1       0.6145534       127.3449
2015    23      2       0.5448113       117.2176
2015    23      3       0.5179709       112.9775
2015    23      4       0.5127945       112.1003
2015    23      5       0.4774757       106.3471
2015    23      6       0.459426        103.3648
2015    23      7       0.5155396       112.4962
2015    24      0       0.508669        111.5238
2015    24      1       0.5223991       113.7989
2015    24      2       0.5267508       114.6407
2015    24      3       0.5026199       110.8553
2015    24      4       0.4272563       98.60376
2015    24      5       0.408523        95.4134
2015    24      6       0.3759984       89.64219
2015    24      7       0.3998656       93.87785
2015    25      0       0.4170107       96.80293
2015    25      1       0.4425601       101.2338
2015    25      2       0.4130333       96.38927
2015    25      3       0.3780349       90.33321
2015    25      4       0.3674312       88.07172
2015    25      5       0.38069         89.85403
2015    25      6       0.3626814       86.48718
2015    25      7       0.4063537       94.54013
2015    26      0       0.4122675       95.60217
2015    26      1       0.4374668       99.57904
2015    26      2       0.4152987       95.6685
2015    26      3       0.4384715       99.33031
2015    26      4       0.5199724       113.6231
2015    26      5       0.5907773       124.8113
2015    26      6       0.7434434       145.4059
2015    26      7       0.960574        169.187
2015    27      0       0.900456        163.1062
2015    27      1       0.680965        137.3745
2015    27      2       0.5239385       114.8759
2015    27      3       0.4002034       94.21088
2015    27      4       0.3395728       82.96359
2015    27      5       0.2993672       74.8849
2015    27      6       0.2105842       56.02318
2015    27      7       0.2168494       56.78366
2015    28      0       0.2167879       56.57584
2015    28      1       0.2233913       57.93444
2015    28      2       0.2016182       53.13976
2015    28      3       0.1800485       48.52142
2015    28      4       0.1801751       48.42624
2015    28      5       0.2324884       59.18094
2015    28      6       0.3291518       77.42027
2015    28      7       0.417663        93.15527
2015    29      0       0.3609153       84.30001
2015    29      1       0.4157836       93.90668
2015    29      2       0.4203264       95.24663
2015    29      3       0.5008865       109.2902
2015    29      4       0.6583837       132.2419
2015    29      5       0.6484361       131.6245
2015    29      6       0.896553        161.0511
2015    29      7       0.9559086       166.2257
2015    30      0       0.92477         162.7173
2015    30      1       0.6243279       126.7627
2015    30      2       0.5480665       116.455
2015    30      3       0.7059552       137.9973
2015    30      4       0.7751035       146.1558
2015    30      5       0.7766554       146.0469
2015    30      6       0.8288832       151.7197
2015    30      7       0.7578918       143.4468
2015    31      0       0.6143809       125.2927
2015    31      1       0.5307482       113.478
2015    31      2       0.4384497       98.90072
2015    31      3       0.3786332       88.60365
2015    31      4       0.2933231       72.53522
2015    31      5       0.2142943       56.11049
2015    31      6       0.2474097       64.00999
2015    31      7       0.2428786       62.95067
2016    1       0       0.8541288       160.2474
2016    1       1       0.7885518       152.8872
2016    1       2       0.8427067       160.1957
2016    1       3       0.6642045       136.6844
2016    1       4       0.6622625       136.3897
2016    1       5       0.6655027       136.9527
2016    1       6       0.6685601       137.4179
2016    1       7       0.7656627       150.4399
2016    2       0       0.8118345       156.1928
2016    2       1       0.7382403       147.2986
2016    2       2       0.7168529       144.5828
2016    2       3       0.7416203       147.6958
2016    2       4       0.7072949       143.2651
2016    2       5       0.6158222       130.4654
2016    2       6       0.5639754       122.3205
2016    2       7       0.5338933       117.6383
2016    3       0       0.7535881       148.3624
2016    3       1       1.136458        189.3195
2016    3       2       1.225015        197.4767
2016    3       3       1.132437        190.3654
2016    3       4       0.9312057       171.0871
2016    3       5       0.5418321       119.6468
2016    3       6       0.2810278       72.20397
2016    3       7       0.3783791       90.73327
2016    4       0       0.4002454       93.1533
2016    4       1       0.307322        75.55963
2016    4       2       0.2711916       67.95762
2016    4       3       0.2873303       71.3336
2016    4       4       0.272395        68.61426
2016    4       5       0.2657944       67.36405
2016    4       6       0.3553835       85.54732
2016    4       7       0.3062836       76.07154
2016    5       0       0.3187424       78.81572
2016    5       1       0.275171        70.28186
2016    5       2       0.234445        61.61134
2016    5       3       0.2258117       59.52436
2016    5       4       0.271468        69.21279
2016    5       5       0.4281173       99.6321
2016    5       6       0.305697        76.26061
2016    5       7       0.3230125       79.79351
2016    6       0       0.3096119       77.28536
2016    6       1       0.2867075       72.68002
2016    6       2       0.3226226       79.65826
2016    6       3       0.3794886       91.0015
2016    6       4       0.432028        100.8191
2016    6       5       0.4084343       96.4236
2016    6       6       0.3300686       81.24683
2016    6       7       0.3265165       80.41749
2016    7       0       0.35474         85.98008
2016    7       1       0.326448        80.56747
2016    7       2       0.2729959       69.73063
2016    7       3       0.2562053       66.08407
2016    7       4       0.2473858       64.28291
2016    7       5       0.2488867       65.28911
2016    7       6       0.2892475       73.36395
2016    7       7       0.3709926       89.14605
2016    8       0       0.4609849       104.8658
2016    8       1       0.5027746       111.8003
2016    8       2       0.6579721       135.0821
2016    8       3       1.043998        179.4136
2016    8       4       1.201014        192.9003
2016    8       5       1.13901         187.5539
2016    8       6       1.190615        193.3533
2016    8       7       1.252707        198.4203
2016    9       0       0.9860941       174.4646
2016    9       1       0.8584045       161.3167
2016    9       2       0.9099078       167.5591
2016    9       3       1.145802        189.7494
2016    9       4       1.178621        190.4924
2016    9       5       1.024086        178.0302
2016    9       6       0.9929181       173.6119
2016    9       7       0.9072265       164.7152
2016    10      0       0.8607001       160.0379
2016    10      1       0.7691325       150.0203
2016    10      2       0.6151695       129.7758
2016    10      3       0.5874221       125.353
2016    10      4       0.6320693       131.6353
2016    10      5       0.6355667       132.238
2016    10      6       0.6564862       135.1686
2016    10      7       0.7460059       147.455
2016    11      0       0.7931052       153.6516
2016    11      1       0.6932244       141.2984
2016    11      2       0.6253043       131.7666
2016    11      3       0.5513581       120.5287
2016    11      4       0.5507481       120.4325
2016    11      5       0.5196372       115.3471
2016    11      6       0.4671254       106.5862
2016    11      7       0.4311808       100.5854
2016    12      0       0.3818469       91.92948
2016    12      1       0.3430428       84.69344
2016    12      2       0.3047922       77.04485
2016    12      3       0.3130834       78.72079
2016    12      4       0.3140341       78.83127
2016    12      5       0.3082819       77.52448
2016    12      6       0.2790119       71.04634
2016    12      7       0.2957983       74.35602
2016    13      0       0.3485401       84.27432
2016    13      1       0.3402591       81.80503
2016    13      2       0.2918727       73.29615
2016    13      3       0.361123        86.99168
2016    13      4       0.2921412       73.44999
2016    13      5       0.2517753       65.22044
2016    13      6       0.2414463       62.94281
2016    13      7       0.2345329       61.73306
2016    14      0       0.2416392       63.29508
2016    14      1       0.2457315       64.17501
2016    14      2       0.2533738       65.82185
2016    14      3       0.266073        68.3386
2016    14      4       0.2763904       70.21841
2016    14      5       0.3042796       75.859
2016    14      6       0.3442376       83.86149
2016    14      7       0.3733841       89.81245
2016    15      0       0.3713065       89.70416
2016    15      1       0.3306734       81.98762
2016    15      2       0.2882712       73.6119
2016    15      3       0.2742654       70.69051
2016    15      4       0.2555551       66.66304
2016    15      5       0.2267466       60.36936
2016    15      6       0.2290468       61.02285
2016    15      7       0.2509357       65.85238
2016    16      0       0.2598986       67.879
2016    16      1       0.2424627       64.22759
2016    16      2       0.1888015       52.34739
2016    16      3       0.1458091       42.22511
2016    16      4       0.1307905       38.59039
2016    16      5       0.1247652       37.20681
2016    16      6       0.1594019       45.64545
2016    16      7       0.2368162       62.73365
2016    17      0       0.292758        74.15483
2016    17      1       0.2717981       70.00989
2016    17      2       0.2570594       67.03031
2016    17      3       0.2240868       60.49704
2016    17      4       0.2022          55.24717
2016    17      5       0.2071084       56.0777
2016    17      6       0.2602193       67.8131
2016    17      7       0.3320764       82.53025
2016    18      0       0.3541692       86.87058
2016    18      1       0.3705873       90.2688
2016    18      2       0.3122097       78.60157
2016    18      3       0.2833208       72.64966
2016    18      4       0.2615567       68.11965
2016    18      5       0.268614        69.47646
2016    18      6       0.3151602       79.17043
2016    18      7       0.3641042       88.71799
2016    19      0       0.3781307       91.4535
2016    19      1       0.3423162       84.49341
2016    19      2       0.3370305       83.13321
2016    19      3       0.3124011       77.87181
2016    19      4       0.2877301       72.7545
2016    19      5       0.2622065       67.31624
2016    19      6       0.2561585       65.90678
2016    19      7       0.2640251       67.18048
2016    20      0       0.2320954       60.40829
2016    20      1       0.1859026       50.34719
2016    20      2       0.1687882       46.32514
2016    20      3       0.1992485       53.17223
2016    20      4       0.279697        70.99556
2016    20      5       0.2882045       72.94405
2016    20      6       0.309365        77.46249
2016    20      7       0.3274482       80.76338
2016    21      0       0.3329496       81.92125
2016    21      1       0.3509235       85.4189
2016    21      2       0.3739727       89.72005
2016    21      3       0.3745251       89.75217
2016    21      4       0.3649371       88.00993
2016    21      5       0.3259097       80.66769
2016    21      6       0.3126557       78.22821
2016    21      7       0.3118686       78.0598
2016    22      0       0.3156194       78.84253
2016    22      1       0.3283156       81.46416
2016    22      2       0.3142392       78.89397
2016    22      3       0.3028862       76.69826
2016    22      4       0.282221        72.38529
2016    22      5       0.2692106       69.53028
2016    22      6       0.3034831       76.37677
2016    22      7       0.3789805       90.66255
2016    23      0       0.4556467       104.0198
2016    23      1       0.4866579       109.0932
2016    23      2       0.500662        111.3493
2016    23      3       0.4963167       110.8101
2016    23      4       0.5287006       116.1638
2016    23      5       0.532212        116.6699
2016    23      6       0.5222441       115.0913
2016    23      7       0.5355229       117.1451
2016    24      0       0.5648967       121.3491
2016    24      1       0.5383256       117.4262
2016    24      2       0.5899472       125.4598
2016    24      3       0.653372        135.2188
2016    24      4       0.6553434       135.4948
2016    24      5       0.5775991       123.1001
2016    24      6       0.6823115       137.8366
2016    24      7       0.9881268       173.2941
2016    25      0       0.9971954       174.8234
2016    25      1       0.8707218       161.4448
2016    25      2       0.7949143       152.3842
2016    25      3       0.8692593       160.8254
2016    25      4       0.8931092       162.9368
2016    25      5       0.6252919       129.6221
2016    25      6       0.7017324       140.7628
2016    25      7       0.802105        153.8513
2016    26      0       0.7074363       142.5233
2016    26      1       0.6286044       131.907
2016    26      2       0.5831939       125.492
2016    26      3       0.5806925       125.0882
2016    26      4       0.518899        115.4168
2016    26      5       0.4680674       107.0167
2016    26      6       0.4765419       108.3709
2016    26      7       0.4598911       105.7649
2016    27      0       0.457367        105.3624
2016    27      1       0.4437229       102.8755
2016    27      2       0.4426304       102.4458
2016    27      3       0.4328154       100.6554
2016    27      4       0.4709299       107.4812
2016    27      5       0.4992314       112.1701
2016    27      6       0.4703964       107.3652
2016    27      7       0.5106617       114.0027
2016    28      0       0.5351381       117.8327
2016    28      1       0.5044879       113.0896
2016    28      2       0.4012779       95.2587
2016    28      3       0.3253054       80.56644
2016    28      4       0.2963249       74.9713
2016    28      5       0.3410007       83.75128
2016    28      6       0.5387477       118.1889
2016    28      7       0.6196044       130.5548
2016    29      0       0.6233823       131.1191
2016    29      1       0.5827427       125.2157
2016    29      2       0.5898281       126.1797
2016    29      3       0.5813389       125.126
2016    29      4       0.6201569       130.7203
2016    29      5       0.5798502       124.7235
2016    29      6       0.5329936       117.2982
2016    29      7       0.5382469       118.2997
2016    30      0       0.5420074       118.9353
2016    30      1       0.5115025       114.2195
2016    30      2       0.5169113       115.1677
2016    30      3       0.5105452       114.2493
2016    30      4       0.5208306       115.7525
2016    30      5       0.5281056       116.8398
2016    30      6       0.5643505       122.8448
2016    30      7       0.6875967       141.0129
2016    31      0       0.7109201       144.0844
2016    31      1       0.7346178       147.2287
2016    31      2       0.8095795       156.5361
2016    31      3       0.7605422       150.3227
2016    31      4       0.7728053       151.1056
2016    31      5       0.8088926       154.5342
2016    31      6       0.7956141       152.659
2016    31      7       0.6612678       135.5386
2017    1       0       0.9377679       170.8049
2017    1       1       0.9276715       170.4371
2017    1       2       0.8622889       163.4204
2017    1       3       0.8503795       161.8553
2017    1       4       0.5827996       125.7153
2017    1       5       0.3678982       89.08236
2017    1       6       0.3549431       86.58937
2017    1       7       0.4018055       95.47001
2017    2       0       0.3886329       93.42331
2017    2       1       0.3430605       84.86259
2017    2       2       0.3039102       77.12686
2017    2       3       0.3219365       80.86479
2017    2       4       0.3218699       80.67767
2017    2       5       0.2780435       71.53442
2017    2       6       0.2842814       72.85682
2017    2       7       0.3104596       78.36756
2017    3       0       0.3485713       85.97714
2017    3       1       0.3348749       83.43551
2017    3       2       0.347654        86.1402
2017    3       3       0.3720353       90.78464
2017    3       4       0.362029        88.79658
2017    3       5       0.3424058       85.0406
2017    3       6       0.2528564       66.42285
2017    3       7       0.2478952       65.48846
2017    4       0       0.2630241       68.62134
2017    4       1       0.326094        81.54829
2017    4       2       0.5433701       120.5537
2017    4       3       1.183816        196.9583
2017    4       4       1.426333        215.3675
2017    4       5       1.386748        212.3193
2017    4       6       1.457983        216.3677
2017    4       7       1.805432        234.9663
2017    5       0       1.722492        231.1986
2017    5       1       1.680339        229.4308
2017    5       2       1.838909        236.9541
2017    5       3       2.018799        244.3511
2017    5       4       1.645973        227.8389
2017    5       5       1.576301        224.2638
2017    5       6       1.688847        229.6982
2017    5       7       1.84288         236.9573
2017    6       0       1.847049        237.5382
2017    6       1       1.254271        202.7875
2017    6       2       0.9799282       177.4996
2017    6       3       0.9785485       177.0794
2017    6       4       0.8841754       166.8478
2017    6       5       0.6875813       142.2695
2017    6       6       0.361696        89.00863
2017    6       7       0.2010804       54.98303
2017    7       0       0.1371519       40.17273
2017    7       1       0.1122742       34.16345
2017    7       2       0.1321528       39.16616
2017    7       3       0.1076346       33.17521
2017    7       4       0.09107953      28.94273
2017    7       5       0.09286597      29.41909
2017    7       6       0.09674761      30.35264
2017    7       7       0.09186476      29.15382
2017    8       0       0.1055665       32.57265
2017    8       1       0.122154        36.59518
2017    8       2       0.1196736       35.66976
2017    8       3       0.1077029       32.50281
2017    8       4       0.1087329       32.63777
2017    8       5       0.1286925       37.56272
2017    8       6       0.1316428       38.32678
2017    8       7       0.144178        41.40057
2017    9       0       0.1576602       44.62488
2017    9       1       0.1512746       43.10615
2017    9       2       0.1874826       51.36584
2017    9       3       0.2304306       60.65318
2017    9       4       0.2553566       65.85659
2017    9       5       0.2977603       74.08209
2017    9       6       0.3209761       78.50953
2017    9       7       0.2144642       56.8109
2017    10      0       0.131865        38.00201
2017    10      1       0.1298011       37.61198
2017    10      2       0.1494094       42.40988
2017    10      3       0.1605199       45.02704
2017    10      4       0.1518222       42.95013
2017    10      5       0.1861942       50.72748
2017    10      6       0.2386287       62.49934
2017    10      7       0.2869479       72.89836
2017    11      0       0.3183          79.30763
2017    11      1       0.2795692       71.53589
2017    11      2       0.2521479       65.80901
2017    11      3       0.3444995       84.71355
2017    11      4       0.3806279       91.88417
2017    11      5       0.3914967       94.17546
2017    11      6       0.3375995       83.75696
2017    11      7       0.4268639       100.036
2017    12      0       0.4912522       111.2428
2017    12      1       0.4454509       103.7474
2017    12      2       0.5573704       122.1845
2017    12      3       0.594483        128.0264
2017    12      4       0.5864712       126.8796
2017    12      5       0.6215499       132.0583
2017    12      6       0.816519        157.647
2017    12      7       0.7425284       148.7816
2017    13      0       0.6838408       141.0077
2017    13      1       0.6038684       129.7089
2017    13      2       0.5839278       126.2972
2017    13      3       0.7792325       153.194
2017    13      4       0.7881139       153.5529
2017    13      5       0.761477        150.4913
2017    13      6       0.7440088       148.7347
2017    13      7       0.8479092       161.469
2017    14      0       0.8130614       157.3202
2017    14      1       0.675555        139.7487
2017    14      2       0.6151653       131.0476
2017    14      3       0.573005        124.3786
2017    14      4       0.424354        99.24165
2017    14      5       0.2945906       74.31768
2017    14      6       0.2277811       60.29933
2017    14      7       0.2454798       64.00918
2017    15      0       0.2300216       60.7147
2017    15      1       0.124798        36.77921
2017    15      2       0.09331851      28.98311
2017    15      3       0.07754811      24.88889
2017    15      4       0.08408383      26.47239
2017    15      5       0.1234853       36.07795
2017    15      6       0.1645016       45.89421
2017    15      7       0.1861067       51.07678
2017    16      0       0.1964516       53.46194
2017    16      1       0.1943162       53.08447
2017    16      2       0.1818718       50.33685
2017    16      3       0.1612815       45.58489
2017    16      4       0.148021        42.39929
2017    16      5       0.1489685       42.50369
2017    16      6       0.1566684       44.32368
2017    16      7       0.1711235       47.72143
2017    17      0       0.2147352       57.62675
2017    17      1       0.342868        84.52151
2017    17      2       0.4461316       103.5462
2017    17      3       0.4595139       105.7869
2017    17      4       0.45214         104.4287
2017    17      5       0.4014493       95.33669
2017    17      6       0.3891732       93.00489
2017    17      7       0.433418        101.1466
2017    18      0       0.5083995       113.7346
2017    18      1       0.5832605       125.9067
2017    18      2       0.6621907       137.8927
2017    18      3       0.7222732       145.9985
2017    18      4       0.7304893       147.0692
2017    18      5       0.6775871       139.9079
2017    18      6       0.6730958       138.8927
2017    18      7       0.7355748       146.9224
2017    19      0       0.7298425       145.9695
2017    19      1       0.6915692       141.4699
2017    19      2       0.6747246       138.9276
2017    19      3       0.7144439       143.167
2017    19      4       0.7596872       148.1828
2017    19      5       0.747928        147.5303
2017    19      6       0.7984524       153.7872
2017    19      7       1.071524        182.1847
2017    20      0       0.9532495       171.2349
2017    20      1       0.7995383       154.1839
2017    20      2       0.6626402       136.5873
2017    20      3       0.6488437       134.4163
2017    20      4       0.589159        125.9851
2017    20      5       0.5603165       121.1572
2017    20      6       0.5460712       119.1044
2017    20      7       0.4451972       102.7223
2017    21      0       0.4168439       98.10655
2017    21      1       0.4301096       100.6448
2017    21      2       0.4689781       106.9234
2017    21      3       0.5004868       111.6833
2017    21      4       0.4695713       105.4901
2017    21      5       0.4927389       109.2699
2017    21      6       0.3620652       86.31872
2017    21      7       0.2660379       67.47549
2017    22      0       0.197003        52.62531
2017    22      1       0.1690154       46.42425
2017    22      2       0.1768127       48.10899
2017    22      3       0.2062843       54.70529
2017    22      4       0.2378449       61.82569
2017    22      5       0.2695857       68.60168
2017    22      6       0.3202715       78.94011
2017    22      7       0.3316892       81.6121
2017    23      0       0.3054599       76.84452
2017    23      1       0.2610171       67.85231
2017    23      2       0.2228494       59.66222
2017    23      3       0.1909656       52.41849
2017    23      4       0.2310286       61.38661
2017    23      5       0.3062501       77.84307
2017    23      6       0.3381695       83.72171
2017    23      7       0.3610374       88.1472
2017    24      0       0.3820228       91.98814
2017    24      1       0.3663605       89.02229
2017    24      2       0.3824976       91.68069
2017    24      3       0.3476044       84.78247
2017    24      4       0.394371        94.19114
2017    24      5       0.4094826       97.00446
2017    24      6       0.4055264       96.27269
2017    24      7       0.4048426       95.53809
2017    25      0       0.4031459       95.30693
2017    25      1       0.3710752       89.37062
2017    25      2       0.348478        84.99731
2017    25      3       0.3429642       83.86223
2017    25      4       0.3287964       81.01541
2017    25      5       0.3157797       78.40195
2017    25      6       0.3019349       75.92189
2017    25      7       0.295898        74.96243
2017    26      0       0.3187649       79.57239
2017    26      1       0.3058881       77.16593
2017    26      2       0.2807037       72.10003
2017    26      3       0.278713        71.63802
2017    26      4       0.2874363       73.39969
2017    26      5       0.2742496       70.5907
2017    26      6       0.2485796       65.01951
2017    26      7       0.2411468       63.26986
2017    27      0       0.252107        65.07389
2017    27      1       0.2506701       64.33209
2017    27      2       0.2599682       66.43911
2017    27      3       0.3476014       83.68549
2017    27      4       0.3046075       75.28797
2017    27      5       0.3026843       74.78727
2017    27      6       0.3018904       74.14912
2017    27      7       0.3175188       76.96627
2017    28      0       0.3149921       76.33169
2017    28      1       0.3153389       76.4724
2017    28      2       0.3370924       80.86655
2017    28      3       0.3610217       85.45044
2017    28      4       0.3832874       89.5183
2017    28      5       0.413547        94.8686
2017    28      6       0.4435867       100.4059
2017    28      7       0.4452065       101.0178
2017    29      0       0.4361648       99.6147
2017    29      1       0.3682474       88.00214
2017    29      2       0.3295289       80.97439
2017    29      3       0.2884808       73.14205
2017    29      4       0.2739592       70.20356
2017    29      5       0.2691037       69.16058
2017    29      6       0.2598888       67.49991
2017    29      7       0.2716535       70.16548
2017    30      0       0.2925518       74.52659
2017    30      1       0.289656        73.85864
2017    30      2       0.3083097       77.39012
2017    30      3       0.3458186       84.35953
2017    30      4       0.3601871       86.65497
2017    30      5       0.3558609       85.30627
2017    30      6       0.360385        85.93417
2017    30      7       0.4012027       93.2548
2017    31      0       0.4737834       105.3091
2017    31      1       0.4806313       106.4447
2017    31      2       0.5282711       113.6252
2017    31      3       0.6885909       137.816
2017    31      4       0.7411503       143.396
2017    31      5       0.637051        129.8598
2017    31      6       0.6126113       125.8541
2017    31      7       0.5164595       111.5251
2018    1       0       0.7190717       144.519
2018    1       1       0.6934925       140.8876
2018    1       2       0.7647015       149.4937
2018    1       3       0.8668929       162.0345
2018    1       4       0.9677445       173.3922
2018    1       5       1.158178        191.1374
2018    1       6       1.280156        200.2712
2018    1       7       1.462035        213.0037
2018    2       0       1.553882        219.0188
2018    2       1       1.495842        215.1798
2018    2       2       1.423114        211.0303
2018    2       3       1.380464        208.9586
2018    2       4       1.088112        185.7763
2018    2       5       1.138875        190.2713
2018    2       6       1.358042        206.4681
2018    2       7       1.359909        207.7519
2018    3       0       0.9767046       176.1342
2018    3       1       0.8519996       162.256
2018    3       2       0.9209608       170.1411
2018    3       3       0.8271281       159.7452
2018    3       4       0.6973614       143.1753
2018    3       5       0.6900417       142.196
2018    3       6       0.7672949       152.3376
2018    3       7       0.699126        143.6117
2018    4       0       0.6585838       137.8459
2018    4       1       0.682383        141.2221
2018    4       2       0.6033555       129.8906
2018    4       3       0.4743284       108.9867
2018    4       4       0.4101562       97.28404
2018    4       5       0.4933293       111.763
2018    4       6       0.5944477       128.0705
2018    4       7       0.6162228       131.4918
2018    5       0       0.5355066       119.0816
2018    5       1       0.4115027       97.9578
2018    5       2       0.3703726       90.2337
2018    5       3       0.3567497       87.57961
2018    5       4       0.3134532       78.81968
2018    5       5       0.2030074       54.9929
2018    5       6       0.1918532       52.37844
2018    5       7       0.2334472       61.67775
2018    6       0       0.3024896       75.95805
2018    6       1       0.3072267       76.93234
2018    6       2       0.2881362       73.24477
2018    6       3       0.2663222       68.91341
2018    6       4       0.2532878       65.77553
2018    6       5       0.2474988       63.86256
2018    6       6       0.3155751       77.21137
2018    6       7       0.3764989       89.4666
2018    7       0       0.4094967       96.1128
2018    7       1       0.4486443       102.6347
2018    7       2       0.5039358       111.9244
2018    7       3       0.5044437       112.4056
2018    7       4       0.6325411       131.9256
2018    7       5       0.8478917       158.914
2018    7       6       1.051707        178.4162
2018    7       7       1.002525        173.5679
2018    8       0       1.011598        173.9411
2018    8       1       0.8262899       154.493
2018    8       2       0.7355043       143.4263
2018    8       3       0.7927831       150.0898
2018    8       4       0.7437721       143.279
2018    8       5       0.7928362       148.5841
2018    8       6       0.7636945       144.6766
2018    8       7       0.7348672       141.0496
2018    9       0       0.7052139       137.3012
2018    9       1       0.5838813       121.2567
2018    9       2       0.527287        113.0855
2018    9       3       0.5513919       116.5867
2018    9       4       0.5448953       115.5496
2018    9       5       0.6152905       125.6285
2018    9       6       0.7716749       145.0015
2018    9       7       0.7098216       137.7567
2018    10      0       0.5236253       112.608
2018    10      1       0.3735318       87.92479
2018    10      2       0.3734054       88.09308
2018    10      3       0.4276827       97.64005
2018    10      4       0.4429134       100.2173
2018    10      5       0.4243144       96.92703
2018    10      6       0.4053916       93.71122
2018    10      7       0.445158        101.3109
2018    11      0       0.4343819       99.77255
2018    11      1       0.4004645       93.64819
2018    11      2       0.4017776       93.92276
2018    11      3       0.4956226       110.0239
2018    11      4       0.5307413       115.6614
2018    11      5       0.5838409       123.7835
2018    11      6       0.701564        140.2167
2018    11      7       0.8970189       163.8998
2018    12      0       0.9074465       165.1627
2018    12      1       0.9832037       173.2033
2018    12      2       0.9961303       174.8837
2018    12      3       1.070958        181.8698
2018    12      4       1.18757         190.4884
2018    12      5       1.086763        181.0516
2018    12      6       1.098791        182.2183
2018    12      7       1.238414        194.4355
2018    13      0       1.185127        190.8871
2018    13      1       1.136329        187.4591
2018    13      2       1.146003        188.5351
2018    13      3       1.050477        179.6782
2018    13      4       0.8204125       155.5501
2018    13      5       0.7205025       143.55
2018    13      6       0.7774199       150.8512
2018    13      7       1.061594        179.7744
2018    14      0       1.074916        182.0376
2018    14      1       0.9181926       167.5755
2018    14      2       0.7550871       148.6526
2018    14      3       0.7316122       145.3515
2018    14      4       0.6799128       137.5658
2018    14      5       0.7681239       147.504
2018    14      6       0.8628351       157.433
2018    14      7       0.7560581       145.7367
2018    15      0       0.7626281       146.9765
2018    15      1       0.7312453       143.4063
2018    15      2       0.6938054       137.8862
2018    15      3       0.7253287       141.4483
2018    15      4       0.7019826       138.2603
2018    15      5       0.6435352       130.116
2018    15      6       0.6709078       134.3225
2018    15      7       0.7308693       141.0132
2018    16      0       0.6462814       130.1861
2018    16      1       0.4723783       104.9646
2018    16      2       0.4038273       93.4403
2018    16      3       0.3778903       88.77481
2018    16      4       0.4644921       103.812
2018    16      5       0.5345007       114.5931
2018    16      6       0.5120877       111.1083
2018    16      7       0.5463574       115.9053
2018    17      0       0.5657227       118.9547
2018    17      1       0.542548        115.7485
2018    17      2       0.4579278       102.2774
2018    17      3       0.4158627       95.64888
2018    17      4       0.3994297       92.97031
2018    17      5       0.432672        99.13407
2018    17      6       0.4153891       96.04102
2018    17      7       0.4428362       101.1622
2018    18      0       0.482109        107.77
2018    18      1       0.6927655       139.2622
2018    18      2       0.6420127       132.4512
2018    18      3       0.645035        133.5705
2018    18      4       0.5502053       120.1285
2018    18      5       0.5507231       120.2434
2018    18      6       0.5376159       118.574
2018    18      7       0.4380622       101.2352
2018    19      0       0.4637185       105.6295
2018    19      1       0.4926037       110.2296
2018    19      2       0.3825905       91.04119
2018    19      3       0.3443499       83.80202
2018    19      4       0.3610684       86.88582
2018    19      5       0.3850864       91.41246
2018    19      6       0.407087        95.4992
2018    19      7       0.5030742       111.9077
2018    20      0       0.5674342       122.2423
2018    20      1       0.5767026       123.5133
2018    20      2       0.5310856       116.5095
2018    20      3       0.5959106       126.5183
2018    20      4       0.5565031       120.1515
2018    20      5       0.4756578       106.9577
2018    20      6       0.5109873       112.9944
2018    20      7       0.5586262       120.4557
2018    21      0       0.5436828       118.036
2018    21      1       0.4857522       108.6255
2018    21      2       0.4670407       105.4567
2018    21      3       0.4774639       107.3072
2018    21      4       0.5339506       116.8837
2018    21      5       0.6228572       129.7508
2018    21      6       0.785867        151.5721
2018    21      7       0.8424712       158.6861
2018    22      0       0.7717254       150.1313
2018    22      1       0.7622289       148.6667
2018    22      2       0.8166737       154.6287
2018    22      3       0.7270362       144.0602
2018    22      4       0.6872514       139.1037
2018    22      5       0.6614822       135.4773
2018    22      6       0.7100305       141.0135
2018    22      7       0.9345455       166.1242
2018    23      0       0.8641283       159.4515
2018    23      1       0.7212662       143.2233
2018    23      2       0.7092339       141.7082
2018    23      3       0.8566957       159.0974
2018    23      4       0.9774553       171.9385
2018    23      5       1.286274        197.709
2018    23      6       1.204217        191.2275
2018    23      7       1.066999        179.2149
2018    24      0       1.102492        182.0387
2018    24      1       0.9704318       169.8449
2018    24      2       0.9365875       166.8697
2018    24      3       0.9465144       167.9578
2018    24      4       0.8397046       156.0223
2018    24      5       0.6197095       128.296
2018    24      6       0.5349729       116.4276
2018    24      7       0.4401495       100.9859
2018    25      0       0.4065477       94.73317
2018    25      1       0.3858119       91.05269
2018    25      2       0.3727443       88.75055
2018    25      3       0.3471923       84.14169
2018    25      4       0.3532124       85.08367
2018    25      5       0.31706         77.6184
2018    25      6       0.3961222       91.70471
2018    25      7       0.6301019       127.4471
2018    26      0       0.5084812       110.9709
2018    26      1       0.5227346       113.4802
2018    26      2       0.497063        109.3206
2018    26      3       0.4730324       105.3076
2018    26      4       0.4042249       94.03265
2018    26      5       0.406541        94.35621
2018    26      6       0.4106051       95.09423
2018    26      7       0.4327234       99.26521
2018    27      0       0.4167581       96.77786
2018    27      1       0.3680851       88.44794
2018    27      2       0.3417057       83.51105
2018    27      3       0.3164871       78.44867
2018    27      4       0.3104236       77.35453
2018    27      5       0.3024399       75.77837
2018    27      6       0.2944484       74.26138
2018    27      7       0.3095554       77.40687
2018    28      0       0.3183447       79.21235
2018    28      1       0.3019991       75.93201
2018    28      2       0.2743276       70.31421
2018    28      3       0.2774614       70.96225
2018    28      4       0.2711984       69.61036
2018    28      5       0.2613458       67.47647
2018    28      6       0.2482799       64.64829
2018    28      7       0.2676266       68.87296
2018    29      0       0.2912125       73.85501
2018    29      1       0.323488        80.57544
2018    29      2       0.3043821       76.72729
2018    29      3       0.3009933       75.8696
2018    29      4       0.3350764       82.59574
2018    29      5       0.3723764       89.69237
2018    29      6       0.4550591       104.3247
2018    29      7       0.4834184       109.1329
2018    30      0       0.4529269       103.807
2018    30      1       0.4171119       97.79495
2018    30      2       0.3749877       89.44904
2018    30      3       0.3572163       85.36718
2018    30      4       0.5519316       118.3372
2018    30      5       0.6083115       126.6932
2018    30      6       0.5688562       120.1405
2018    30      7       0.6676121       134.4312
2018    31      0       0.8180971       153.7055
2018    31      1       0.616385        127.6597
2018    31      2       0.6940212       138.1141
2018    31      3       0.8343822       154.3137
2018    31      4       0.5978283       123.0242
2018    31      5       0.5611669       117.4606
2018    31      6       0.5324336       111.9969
2018    31      7       0.3957791       89.60299
