####################################################################################################
# Month: 12Dec                                                                                     #
# Station: FUJI                                                                                    #
# Frequency: 345 GHz                                                                               #
# Columns are: year    day     tau     Tb (K)                                                      #
####################################################################################################
2009    1       0.13650374      38.18326375
2009    2       0.16351773      43.73450625
2009    3       0.47703184      93.48152625
2009    4       0.14065337      38.035645
2009    5       0.30981698      66.7777175
2009    6       0.07851058      25.29775
2009    7       0.08338353      26.3319775
2009    8       0.16944823      42.36330125
2009    9       0.57144463      111.49775625
2009    10      0.53430402      104.0711925
2009    11      0.65421645      120.154935
2009    12      0.24694051      59.2371825
2009    13      0.32380075      72.6324825
2009    14      0.19705831      48.96859
2009    15      0.60448266      118.25135375
2009    16      0.26987108      58.72743
2009    17      0.09828743      29.07186875
2009    18      0.07847574      24.786075
2009    19      0.06851951      22.396165
2009    20      0.05360047      19.07979875
2009    21      0.09119474      27.607955
2009    22      0.10441615      30.7043675
2009    23      0.11229477      32.332835
2009    24      0.27667454      65.4700775
2009    25      0.26251253      61.3747175
2009    26      0.09074418      27.57761875
2009    27      0.25428974      59.09409
2009    28      0.12722504      34.4093625
2009    29      0.1469402       39.3131425
2009    30      0.20422399      50.72684125
2009    31      0.07851347      24.95948875
2010    1       0.10177595      29.67183
2010    2       0.62361626      109.89195875
2010    3       0.16100121      38.5368675
2010    4       0.09333789      28.6913375
2010    5       0.18288861      47.6737
2010    6       0.37044578      77.91422875
2010    7       0.6468659       123.779605
2010    8       0.22036536      54.63971875
2010    9       0.11512875      33.16257875
2010    10      0.23399329      57.885565
2010    11      0.22734731      54.27103875
2010    12      0.57765208      105.289695
2010    13      1.34097112      194.81105
2010    14      0.2903757       63.3173825
2010    15      0.44978298      93.55909375
2010    16      0.27266296      61.610995
2010    17      0.09802555      29.3190525
2010    18      0.11616258      33.65598875
2010    19      0.27403165      63.9644425
2010    20      0.12552958      33.54707125
2010    21      0.5476075       103.91012
2010    22      0.11870416      34.56604625
2010    23      0.09558775      28.8799275
2010    24      0.080961        25.26957375
2010    25      0.18112863      46.40053
2010    26      0.2322423       55.58589
2010    27      0.1327483       37.12246
2010    28      0.1876557       47.2688725
2010    29      0.15284926      40.0750725
2010    30      0.24240262      56.74676875
2010    31      0.11451056      32.399275
2011    1       0.70359162      130.775375
2011    2       0.90190875      157.236225
2011    3       0.7718179       123.97612875
2011    4       0.34754977      76.35413
2011    5       0.16392665      43.5172775
2011    6       0.41299079      87.85377375
2011    7       0.62241069      119.4076225
2011    8       0.6477779       114.74959625
2011    9       0.10782591      31.2412675
2011    10      0.22242474      54.289055
2011    11      0.08490607      26.46893375
2011    12      0.16681192      44.72195875
2011    13      0.14089038      39.05603
2011    14      0.13168815      37.0904725
2011    15      0.25801074      62.576175
2011    16      0.08696253      26.60852375
2011    17      0.06014495      20.659315
2011    18      0.23175563      56.36795125
2011    19      0.08952648      27.33060875
2011    20      0.13996134      37.3181025
2011    21      0.35743481      79.31045375
2011    22      0.16627972      41.89674375
2011    23      0.11417366      32.4757075
2011    24      0.11056624      31.8627775
2011    25      0.08354545      25.99384125
2011    26      0.06538368      21.91426875
2011    27      0.16111225      42.69089875
2011    28      0.20290971      51.33475125
2011    29      0.0884845       26.94162875
2011    30      0.06167616      20.95208625
2011    31      0.13247864      36.36439875
2012    1       0.12222856      34.66362
2012    2       0.30601035      67.53432
2012    3       0.21344206      48.64844125
2012    4       0.13639973      37.18852125
2012    5       0.42588185      88.719735
2012    6       0.13174254      36.43894875
2012    7       0.19582565      50.22406125
2012    8       0.08560766      26.65806875
2012    9       0.08188095      25.61544125
2012    10      0.08409365      26.03956375
2012    11      0.09542553      28.63353
2012    12      0.07969604      24.9346875
2012    13      0.11589996      33.08789375
2012    14      0.56652992      110.6158025
2012    15      0.49303996      96.56483375
2012    16      0.13312334      37.19358625
2012    17      0.27450959      64.73316625
2012    18      0.3046816       66.4195875
2012    19      0.08527339      26.12824875
2012    20      0.12079354      33.83521125
2012    21      0.72735578      131.61225625
2012    22      0.45288636      92.3530175
2012    23      0.17485098      45.51129625
2012    24      0.11081754      31.70931375
2012    25      0.13628414      38.15561375
2012    26      0.13070935      36.55582
2012    27      0.18756479      46.9506425
2012    28      0.78460349      137.77176
2012    29      0.15927816      42.50445875
2012    30      0.89053659      147.398305
2012    31      0.09590884      28.88220625
2013    1       0.09322283      28.35853375
2013    2       0.07157265      23.4693575
2013    3       0.14630789      39.03707125
2013    4       0.21003142      52.0529675
2013    5       0.16666666      44.021375
2013    6       0.1506971       40.94111875
2013    7       0.12086034      34.63493875
2013    8       0.15698643      42.439975
2013    9       0.43686281      90.4916625
2013    10      0.14030169      36.67946
2013    11      0.11014635      31.3703775
2013    12      0.16795188      43.2454125
2013    13      0.10608939      30.5583525
2013    14      0.05572419      19.76303125
2013    15      0.14516901      40.0668775
2013    16      0.54832676      109.287465
2013    17      0.83118221      146.54755
2013    18      0.9290597       153.21149875
2013    19      0.30342789      68.808095
2013    20      0.09237441      28.1664225
2013    21      0.15856527      41.881055
2013    22      0.0642445       21.59188375
2013    23      0.19604474      49.8802325
2013    24      0.07050971      23.01307875
2013    25      0.13622347      37.00183375
2013    26      0.46016156      95.9342175
2013    27      0.15157231      39.78763875
2013    28      0.0746544       23.8021925
2013    29      0.05643738      19.78122
2013    30      0.07329154      23.8115825
2013    31      0.06392769      21.78373375
2014    1       0.46688964      81.98041625
2014    2       0.0734935       23.8612525
2014    3       0.35443154      76.09541875
2014    4       0.50350212      91.1077325
2014    5       0.0601746       20.7070925
2014    6       0.1209777       34.04875625
2014    7       0.27341311      63.98741
2014    8       0.11090902      32.11586875
2014    9       0.06987551      23.04555875
2014    10      0.31088869      70.28516
2014    11      0.61509628      119.69100625
2014    12      0.24336724      56.80340375
2014    13      0.06462922      21.73505375
2014    14      0.08192899      25.53587
2014    15      0.37631914      81.000635
2014    16      0.41048654      80.7750025
2014    17      0.04553094      17.30339625
2014    18      0.05280395      18.99762
2014    19      0.35400443      75.23420125
2014    20      0.54183644      101.50060875
2014    21      0.23081245      56.32793375
2014    22      0.06167736      21.062145
2014    23      0.2354068       56.66654625
2014    24      0.18073625      46.19714625
2014    25      0.06840456      22.5962675
2014    26      0.06388294      21.44925625
2014    27      0.14156571      38.30241125
2014    28      0.43425701      86.70316375
2014    29      0.25921314      54.447265
2014    30      0.08127607      25.6706225
2014    31      0.14580632      38.61659875
2015    1       0.14514267      39.885675
2015    2       0.65461955      111.25334625
2015    3       0.32297918      61.12674375
2015    4       0.06085635      21.04405
2015    5       0.42818966      89.0339875
2015    6       0.70406385      127.82371875
2015    7       0.12254975      35.1769875
2015    8       0.14311786      39.52992125
2015    9       0.22701041      55.7423575
2015    10      1.25393989      181.5024125
2015    11      0.62377055      112.22161125
2015    12      0.1561031       42.16860125
2015    13      0.26815715      65.0202275
2015    14      0.46862281      99.46277875
2015    15      0.49267039      102.41688875
2015    16      0.2897289       70.6017025
2015    17      0.07238674      23.8917125
2015    18      0.06544521      22.1187925
2015    19      0.0612923       21.2044075
2015    20      0.51434552      100.85189
2015    21      0.30180134      64.6526575
2015    22      0.21575965      54.3192025
2015    23      0.70089832      129.12235625
2015    24      0.20132546      50.3391275
2015    25      0.13076448      35.8599975
2015    26      0.08749476      27.4542225
2015    27      0.14244448      39.5201175
2015    28      0.10637508      31.1689125
2015    29      0.08902582      27.1660975
2015    30      0.08854204      27.2472725
2015    31      0.09594865      28.916435
2016    1       0.33412324      73.85126625
2016    2       0.07635411      24.4331375
2016    3       0.18041524      45.47214625
2016    4       0.66042727      116.63697625
2016    5       0.21999406      55.06291125
2016    6       0.09592835      29.03647
2016    7       0.14725476      40.2160175
2016    8       0.24460018      59.1548825
2016    9       0.12475736      34.99050125
2016    10      0.10848244      31.58644625
2016    11      0.11260316      32.31763625
2016    12      0.35230895      77.85554875
2016    13      0.96641116      158.13979
2016    14      0.19594926      48.1785925
2016    15      0.13042793      36.17253
2016    16      0.10247819      29.99075625
2016    17      0.09205045      28.0757125
2016    18      0.15770768      41.998985
2016    19      0.30195596      68.47727875
2016    20      0.17577886      44.04102375
2016    21      0.2522524       59.568315
2016    22      0.98917085      155.5486
2016    23      0.07790081      25.105
2016    24      0.20464621      50.10963625
2016    25      0.20465569      50.76327875
2016    26      0.74033631      137.2539875
2016    27      0.47954499      84.79711875
2016    28      0.12305037      34.522415
2016    29      0.12228097      34.087075
2016    30      0.11115869      32.14412875
2016    31      0.17861558      47.1038675
2017    1       0.17355         45.72757375
2017    2       0.26241439      63.12233875
2017    3       0.26307657      61.8301275
2017    4       0.28616368      66.2771625
2017    5       0.10825305      30.96519875
2017    6       0.09341357      28.40885125
2017    7       0.18800192      46.80411125
2017    8       0.3922227       80.36962375
2017    9       0.11923495      33.60017875
2017    10      0.22456377      55.18548375
2017    11      0.05732796      20.1633475
2017    12      0.26423431      62.71280375
2017    13      0.06273077      21.4538925
2017    14      0.32827558      71.4498525
2017    15      0.41698501      89.25247625
2017    16      0.34212057      75.12938625
2017    17      0.05258836      19.0674675
2017    18      0.12992434      36.51498125
2017    19      0.1337757       37.20108875
2017    20      0.11354797      32.8542275
2017    21      0.07107383      23.39093125
2017    22      0.10607857      31.1534975
2017    23      0.17828758      45.94449375
2017    24      0.70724736      125.16586
2017    25      0.10532592      31.1246875
2017    26      0.11890024      33.70758125
2017    27      0.07056154      23.23515875
2017    28      0.11834756      33.62246875
2017    29      0.08270888      26.1795625
2017    30      0.26275586      62.38630125
2017    31      0.30405879      64.22959125
2018    1       0.36545601      80.74156125
2018    2       0.47539001      94.62249375
2018    3       1.01952029      169.1062375
2018    4       0.98368576      165.6507375
2018    5       0.36262223      74.49745
2018    6       0.97058741      162.015625
2018    7       0.91844135      156.8264
2018    8       0.40804646      90.39641625
2018    9       0.31553922      72.2557775
2018    10      0.28438989      67.548445
2018    11      0.90517978      151.44019375
2018    12      0.214029        52.52997875
2018    13      0.0669597       22.48880375
2018    14      0.10756025      31.48073125
2018    15      0.11442989      32.7558425
2018    16      0.59263624      114.02437
2018    17      0.20376571      44.95807
2018    18      0.09119434      27.72491625
2018    19      0.2357672       55.68663875
2018    20      0.41421519      86.2083075
2018    21      0.34853639      76.908845
2018    22      0.67276989      126.90790375
2018    23      0.35085586      78.55554375
2018    24      0.16296335      43.32565375
2018    25      0.32610375      71.8914925
2018    26      0.80413268      143.346075
2018    27      0.2541017       58.32561125
2018    28      0.14192837      39.43129875
2018    29      0.10287474      31.15534375
2018    30      0.22641568      55.0952325
2018    31      0.22781287      54.30773
