####################################################################################################
# Month: 03Mar                                                                                     #
# Station: ORG                                                                                     #
# Frequency: 230 GHz                                                                               #
# Columns are: year    day     tau     Tb (K)                                                      #
####################################################################################################
2009    1       0.40151365      89.28529875
2009    2       0.44816044      97.2945525
2009    3       0.40551126      88.9730325
2009    4       0.3426808       77.52563375
2009    5       0.18798886      47.4861425
2009    6       0.27618133      64.92213875
2009    7       0.14287956      38.71660125
2009    8       0.20110829      51.1803775
2009    9       0.18283638      46.270075
2009    10      0.15747017      41.24750875
2009    11      0.16997104      44.4571125
2009    12      0.09041792      26.82233375
2009    13      0.07787819      24.01503625
2009    14      0.15020047      40.3209425
2009    15      0.39155371      87.2956325
2009    16      0.40661648      90.499895
2009    17      0.35993895      81.86631125
2009    18      0.2940164       70.100075
2009    19      0.36689596      84.25819625
2009    20      0.36734894      84.50783375
2009    21      0.40390141      89.9225175
2009    22      0.4039687       88.02499375
2009    23      0.20994358      51.17641375
2009    24      0.27219885      64.7785225
2009    25      0.40840584      89.00224625
2009    26      0.31583788      70.81717625
2009    27      0.20514815      52.5361075
2009    28      0.36368102      83.84629375
2009    29      0.3115392       71.79817125
2009    30      0.14507822      38.348775
2009    31      0.29427471      68.5849875
2010    1       0.18568366      48.66694375
2010    2       0.34975996      79.374505
2010    3       0.36291675      80.5372675
2010    4       0.45623836      97.99243125
2010    5       0.21892535      54.77259125
2010    6       0.20247995      51.33131125
2010    7       0.22073169      55.39767625
2010    8       0.34409105      77.11129125
2010    9       0.22436308      53.0563425
2010    10      0.32053762      72.63731125
2010    11      0.20683742      52.27605625
2010    12      0.23890249      59.51861875
2010    13      0.3864982       83.24717875
2010    14      0.11502477      32.2208325
2010    15      0.13283867      36.90902
2010    16      0.22353159      56.134355
2010    17      0.40371249      91.04695625
2010    18      0.2871771       65.919155
2010    19      0.13511821      37.2223675
2010    20      0.14692025      40.29021125
2010    21      0.13453969      36.41191625
2010    22      0.38800721      86.73236
2010    23      0.14742437      39.45744375
2010    24      0.20491679      51.92094625
2010    25      0.27957818      65.71056875
2010    26      0.32074446      72.65440625
2010    27      0.12571316      34.029275
2010    28      0.23851455      59.224965
2010    29      0.49359784      105.44964875
2010    30      0.46966178      99.0317325
2010    31      0.26914734      63.1919575
2011    1       0.20166381      51.55839
2011    2       0.3095802       71.1353375
2011    3       0.41615919      90.9710425
2011    4       0.18086454      46.07201375
2011    5       0.36335711      80.16799875
2011    6       0.56350996      115.083075
2011    7       0.41765406      91.6979875
2011    8       0.32471885      73.811685
2011    9       0.39825456      88.8849075
2011    10      0.27361572      65.85290375
2011    11      0.3645234       82.015835
2011    12      0.28452811      67.28574625
2011    13      0.28913476      66.44362375
2011    14      0.37151382      83.56871375
2011    15      0.47452879      101.894575
2011    16      0.57853724      115.633375
2011    17      0.23067595      55.874605
2011    18      0.27692162      65.367665
2011    19      0.34177426      77.1196925
2011    20      0.34850468      78.4726575
2011    21      0.48444734      102.4610825
2011    22      0.33220004      75.99630875
2011    23      0.31273094      71.78983375
2011    24      0.3290326       75.31311375
2011    25      0.33910211      76.82499625
2011    26      0.43812022      93.85640125
2011    27      0.31846308      72.76091125
2011    28      0.341012        77.43122875
2011    29      0.36282606      79.43877125
2011    30      0.66560834      130.8579625
2011    31      0.32803238      75.45714875
2012    1       0.2737547       63.89714625
2012    2       0.13273218      35.67407625
2012    3       0.3024272       72.2795925
2012    4       0.13883824      38.7488
2012    5       0.17149612      45.84852625
2012    6       0.33181382      75.12128625
2012    7       0.11269917      31.7508375
2012    8       0.14776893      40.225395
2012    9       0.11656822      33.34943875
2012    10      0.11970514      33.9701275
2012    11      0.34361745      78.27105375
2012    12      0.31321418      73.64163875
2012    13      0.38923221      87.3692125
2012    14      0.5995519       120.7536125
2012    15      0.51708024      109.3243575
2012    16      0.57392741      117.00665
2012    17      0.45044452      96.38017125
2012    18      0.3832693       84.699175
2012    19      0.21714885      53.0635975
2012    20      0.48475645      100.441005
2012    21      0.25491803      63.67001625
2012    22      0.34774458      81.363315
2012    23      0.25795112      62.414985
2012    24      0.17943338      46.437505
2012    25      0.26256815      64.5111775
2012    26      0.40083834      88.56874375
2012    27      0.31589861      73.56096875
2012    28      0.45984301      98.4565
2012    29      0.39227345      86.29426625
2012    30      0.59548759      120.7128125
2012    31      0.47819159      100.8525525
2013    1       0.31235538      72.94747125
2013    2       0.2741659       67.28677625
2013    3       0.43091582      92.5914875
2013    4       0.10668478      30.73007375
2013    5       0.19479173      49.49212
2013    6       0.36685062      82.5723625
2013    7       0.21670051      53.64229125
2013    8       0.30797781      71.68776875
2013    9       0.15920939      41.1655075
2013    10      0.11553771      32.91203
2013    11      0.36147198      82.29223125
2013    12      0.36052509      82.43484625
2013    13      0.3035043       72.55693625
2013    14      0.22240236      56.45573875
2013    15      0.31080902      74.01238375
2013    16      0.22035068      55.2209175
2013    17      0.22792316      56.0436525
2013    18      0.18585831      47.88833
2013    19      0.32500189      75.2587375
2013    20      0.48367308      102.9588225
2013    21      0.21462428      51.40987875
2013    22      0.1375689       36.64104625
2013    23      0.12822032      34.60029125
2013    24      0.22667419      55.79548125
2013    25      0.40517471      89.71311375
2013    26      0.46648522      99.920135
2013    27      0.40460662      90.10268125
2013    28      0.34354504      79.16908375
2013    29      0.39391448      88.585385
2013    30      0.29922582      71.90385375
2013    31      0.30675892      72.58810375
2014    1       0.47300646      100.1900275
2014    2       0.48193529      101.96220125
2014    3       0.48539942      102.909245
2014    4       0.40003873      86.6956725
2014    5       0.3399609       79.241585
2014    6       0.53358146      110.6516525
2014    7       0.23257686      56.49519125
2014    8       0.15103153      40.89266875
2014    9       0.48811409      101.82917125
2014    10      0.63395401      124.59843625
2014    11      0.24473912      59.4145
2014    12      0.08476482      25.59301375
2014    13      0.08977699      26.7649875
2014    14      0.34090725      76.62728375
2014    15      0.15492638      41.4437075
2014    16      0.19316098      50.61503125
2014    17      0.20118904      50.84141125
2014    18      0.12306218      34.30358
2014    19      0.07840521      24.04337625
2014    20      0.14159248      38.94617375
2014    21      0.11689734      32.67211
2014    22      0.11015497      31.06643125
2014    23      0.10259486      29.73321625
2014    24      0.15826846      42.3806
2014    25      0.1350156       37.5385925
2014    26      0.42436166      91.9543825
2014    27      0.38903621      86.1293775
2014    28      0.41253321      90.3225775
2014    29      0.51704301      107.27892375
2014    30      0.44375704      95.110315
2014    31      0.32540746      74.04381125
2015    1       0.21595101      53.69197375
2015    2       0.18915029      48.61016125
2015    3       0.20354104      49.97352625
2015    4       0.07947046      24.32741
2015    5       0.11173419      31.93944125
2015    6       0.16352461      43.4424775
2015    7       0.13224067      36.8077425
2015    8       0.11888991      34.171405
2015    9       0.10086515      29.8910475
2015    10      0.11590431      33.44900375
2015    11      0.43706105      92.18116125
2015    12      0.38512576      86.40313625
2015    13      0.13518413      37.750225
2015    14      0.46588364      97.4918725
2015    15      0.62843478      125.75744375
2015    16      0.4127263       91.50985625
2015    17      0.47783082      102.435905
2015    18      0.17647222      46.9868975
2015    19      0.13185107      37.0312725
2015    20      0.21023536      54.08574125
2015    21      0.3478144       80.13156625
2015    22      0.36519728      83.26965625
2015    23      0.39325882      87.51189
2015    24      0.48688082      102.274315
2015    25      0.39391165      87.96935375
2015    26      0.44595391      98.93509
2015    27      0.28693939      71.42386125
2015    28      0.18950582      49.2479075
2015    29      0.14483423      39.59584625
2015    30      0.19941621      51.93851125
2015    31      0.26070516      64.4758275
2016    1       0.40772202      89.25234125
2016    2       0.14203243      38.2418425
2016    3       0.32719176      76.9935925
2016    4       0.29785771      71.21003
2016    5       0.50090059      106.54544875
2016    6       0.56844212      116.1625
2016    7       0.34404859      77.92189375
2016    8       0.32338841      74.50231375
2016    9       0.42269414      91.89208625
2016    10      0.43873281      96.47854375
2016    11      0.60649562      122.0012125
2016    12      0.39585264      86.09907875
2016    13      0.53922177      110.89121625
2016    14      0.42898167      92.51657625
2016    15      0.2847421       66.52272625
2016    16      0.29685305      70.5728825
2016    17      0.16732586      44.3410375
2016    18      0.19925428      51.7979425
2016    19      0.2681503       66.25544875
2016    20      0.27967276      67.54519
2016    21      0.39365234      86.65539125
2016    22      0.39080776      86.1712325
2016    23      0.19893408      50.311175
2016    24      0.29622171      70.56781375
2016    25      0.18907835      48.7866225
2016    26      0.16201254      41.91894
2016    27      0.41881984      92.99322
2016    28      0.28312604      66.56241625
2016    29      0.27039563      63.58771125
2016    30      0.33152596      76.37186375
2016    31      0.2552313       63.143985
2017    1       0.17619565      45.7823325
2017    2       0.13976304      37.817845
2017    3       0.18240546      46.47087125
2017    4       0.24808936      60.519805
2017    5       0.40663484      89.02543375
2017    6       0.23908066      57.4239575
2017    7       0.41209591      90.04428125
2017    8       0.38414042      87.04687125
2017    9       0.51089032      108.70290375
2017    10      0.52489125      110.39719625
2017    11      0.28000681      67.5489075
2017    12      0.34810921      79.972955
2017    13      0.22525695      57.029625
2017    14      0.17316286      47.02559625
2017    15      0.26713136      65.02077875
2017    16      0.54644722      114.62298625
2017    17      0.5083718       108.75926625
2017    18      0.50351895      108.3381125
2017    19      0.37063016      83.220365
2017    20      0.59713589      121.11065
2017    21      0.58704835      119.47371625
2017    22      0.34195708      76.88032875
2017    23      0.29288465      68.0760175
2017    24      0.43580588      93.58539
2017    25      0.2903357       66.844125
2017    26      0.38637155      86.15272
2017    27      0.41929959      91.857435
2017    28      0.26111641      63.5703125
2017    29      0.51444664      108.56009625
2017    30      0.54018539      109.719585
2017    31      0.23380735      58.07174875
2018    1       0.38669848      85.69058
2018    2       0.24787668      58.28498875
2018    3       0.21767734      53.28434375
2018    4       0.21136535      52.03016625
2018    5       0.09642774      27.5588625
2018    6       0.11621819      32.51272
2018    7       0.20840452      52.7584525
2018    8       0.24623044      61.26025625
2018    9       0.2663863       63.95171625
2018    10      0.2537842       61.2183275
2018    11      0.39122188      88.02268125
2018    12      0.20831911      54.1596975
2018    13      0.39502095      88.798495
2018    14      0.55098428      111.94174875
2018    15      0.29632799      68.9035025
2018    16      0.29890031      69.60337125
2018    17      0.24171306      58.03002375
2018    18      0.232347        56.49624875
2018    19      0.21353537      53.09931625
2018    20      0.29836648      70.06629125
2018    21      0.42554511      93.57221625
2018    22      0.58916408      119.4136375
2018    23      0.29397758      68.07175125
2018    24      0.2074662       51.860075
2018    25      0.2717587       63.96843875
2018    26      0.18170488      46.509165
2018    27      0.33967552      78.988105
2018    28      0.39505664      89.33478875
2018    29      0.37953957      86.59642625
2018    30      0.32853114      76.5670625
2018    31      0.26416581      63.878375
