####################################################################################################
# Month: 09Sep                                                                                     #
# Station: BOL                                                                                     #
# Frequency: 345 GHz                                                                               #
# Columns are: year    day     segment         tau     Tb (K)                                      #
####################################################################################################
2009    1       0       0.2237674       57.19783
2009    1       1       0.2444147       61.2512
2009    1       2       0.3270926       77.15333
2009    1       3       0.3282736       77.38251
2009    1       4       0.3623216       83.53781
2009    1       5       0.5421133       112.445
2009    1       6       0.7772793       142.6036
2009    1       7       0.8002345       145.7158
2009    2       0       0.6933397       132.9465
2009    2       1       0.6204038       122.3613
2009    2       2       0.6217605       122.7273
2009    2       3       0.728954        137.2018
2009    2       4       0.8333177       148.6433
2009    2       5       0.8255983       147.5089
2009    2       6       0.7684711       141.9657
2009    2       7       0.8439203       150.7265
2009    3       0       0.8018992       145.8765
2009    3       1       0.7937386       144.4016
2009    3       2       0.7213957       134.7049
2009    3       3       0.7412305       136.9345
2009    3       4       0.6031486       118.5208
2009    3       5       0.4897624       101.808
2009    3       6       0.3422483       77.49488
2009    3       7       0.2660776       64.41062
2009    4       0       0.1796172       47.22191
2009    4       1       0.1231601       34.75424
2009    4       2       0.1381152       37.54549
2009    4       3       0.1511982       40.3436
2009    4       4       0.1529704       40.732
2009    4       5       0.1234884       34.68298
2009    4       6       0.1239644       35.18151
2009    4       7       0.240214        58.97019
2009    5       0       0.2171253       54.4959
2009    5       1       0.1161495       33.33276
2009    5       2       0.0565826       19.85727
2009    5       3       0.04928638      18.23954
2009    5       4       0.05540485      19.77773
2009    5       5       0.06432845      22.0253
2009    5       6       0.1122063       33.23416
2009    5       7       0.1256687       36.10443
2009    6       0       0.09465837      29.13773
2009    6       1       0.06180146      21.45108
2009    6       2       0.05340027      19.40256
2009    6       3       0.05323736      19.28157
2009    6       4       0.05839575      20.46745
2009    6       5       0.06666091      22.54419
2009    6       6       0.08622063      27.42765
2009    6       7       0.1360098       38.5929
2009    7       0       0.1039885       31.22392
2009    7       1       0.08782705      27.49221
2009    7       2       0.07330236      24.22253
2009    7       3       0.0659202       22.49918
2009    7       4       0.06131386      21.33392
2009    7       5       0.05870062      20.65939
2009    7       6       0.1249346       36.32643
2009    7       7       0.1551783       42.29364
2009    8       0       0.1625687       43.79209
2009    8       1       0.1301132       37.26252
2009    8       2       0.07138065      23.79853
2009    8       3       0.04522892      17.1741
2009    8       4       0.04489699      17.07982
2009    8       5       0.05059217      18.55914
2009    8       6       0.09070307      28.38888
2009    8       7       0.09537501      29.15863
2009    9       0       0.1296793       36.74806
2009    9       1       0.2206484       55.35559
2009    9       2       0.2048581       52.03279
2009    9       3       0.1536685       41.40075
2009    9       4       0.2093381       53.07205
2009    9       5       0.3736061       84.19958
2009    9       6       0.3331391       77.38458
2009    9       7       0.3079087       72.78974
2009    10      0       0.2622777       63.9772
2009    10      1       0.2383919       59.7587
2009    10      2       0.3067492       72.8577
2009    10      3       0.3732924       84.55643
2009    10      4       0.3903792       87.35071
2009    10      5       0.3920884       87.23271
2009    10      6       0.4646221       98.76177
2009    10      7       0.5128398       106.4218
2009    11      0       0.5144593       106.4532
2009    11      1       0.4795317       101.4201
2009    11      2       0.4889968       103.0727
2009    11      3       0.4996663       104.9376
2009    11      4       0.5206368       108.3911
2009    11      5       0.5039557       106.3264
2009    11      6       0.5786091       117.2655
2009    11      7       0.5989532       120.1728
2009    12      0       0.5772872       117.3723
2009    12      1       0.5455058       112.9542
2009    12      2       0.5639976       115.7487
2009    12      3       0.5283815       110.1609
2009    12      4       0.5504052       113.2952
2009    12      5       0.5264067       109.8819
2009    12      6       0.5319001       110.4874
2009    12      7       0.4396926       96.43889
2009    13      0       0.433202        95.34404
2009    13      1       0.4279991       94.30348
2009    13      2       0.3298954       77.40771
2009    13      3       0.2463874       61.66688
2009    13      4       0.2122904       54.93599
2009    13      5       0.1920595       50.93148
2009    13      6       0.2015632       52.6013
2009    13      7       0.1935287       50.69445
2009    14      0       0.2177919       56.03449
2009    14      1       0.282955        69.08963
2009    14      2       0.2900177       70.5586
2009    14      3       0.2818164       68.9608
2009    14      4       0.2443939       61.5971
2009    14      5       0.2080128       54.19518
2009    14      6       0.2116          55.2025
2009    14      7       0.1814937       48.77769
2009    15      0       0.2516049       63.05638
2009    15      1       0.3197693       76.18274
2009    15      2       0.4058882       91.29634
2009    15      3       0.4227984       94.09487
2009    15      4       0.3478778       81.09951
2009    15      5       0.3179815       75.60241
2009    15      6       0.2729107       66.9845
2009    15      7       0.1885784       49.30551
2009    16      0       0.189043        49.40596
2009    16      1       0.1592643       43.41659
2009    16      2       0.1440505       39.97167
2009    16      3       0.156283        42.74622
2009    16      4       0.1723965       46.39776
2009    16      5       0.2035542       52.95555
2009    16      6       0.2668132       65.41948
2009    16      7       0.2885073       69.44183
2009    17      0       0.3592537       81.83031
2009    17      1       0.4894078       102.3381
2009    17      2       0.5620335       113.6184
2009    17      3       0.491559        103.0686
2009    17      4       0.4904905       103.249
2009    17      5       0.4891429       103.3851
2009    17      6       0.583137        117.5281
2009    17      7       0.6490503       127.3146
2009    18      0       0.5397275       111.7139
2009    18      1       0.5298024       110.1812
2009    18      2       0.5434354       112.1334
2009    18      3       0.4906447       104.2011
2009    18      4       0.47885         102.1907
2009    18      5       0.4803316       102.5744
2009    18      6       0.558529        114.8858
2009    18      7       0.4398784       96.14902
2009    19      0       0.3727745       84.88638
2009    19      1       0.5043219       106.5348
2009    19      2       0.6746187       129.5369
2009    19      3       0.7732516       140.8462
2009    19      4       0.6725044       129.2387
2009    19      5       0.5843381       118.58
2009    19      6       0.8270658       147.8222
2009    19      7       0.7113158       133.6887
2009    20      0       0.5916981       117.9509
2009    20      1       0.5206804       108.3123
2009    20      2       0.4887683       103.5542
2009    20      3       0.5038935       105.46
2009    20      4       0.5149418       107.3296
2009    20      5       0.6488904       126.3922
2009    20      6       0.7096996       133.7481
2009    20      7       0.6354088       123.0606
2009    21      0       0.5068289       104.9358
2009    21      1       0.4119358       89.72711
2009    21      2       0.4057235       88.44756
2009    21      3       0.3814698       84.311
2009    21      4       0.3741685       83.11545
2009    21      5       0.3996224       87.40868
2009    21      6       0.6620923       126.1513
2009    21      7       0.7520995       137.1459
2009    22      0       0.4465084       95.32098
2009    22      1       0.3605333       81.44137
2009    22      2       0.3464736       79.22613
2009    22      3       0.3312277       76.37646
2009    22      4       0.2787064       67.45314
2009    22      5       0.2566913       63.5785
2009    22      6       0.2521864       62.86821
2009    22      7       0.2262733       57.75547
2009    23      0       0.1797428       48.18605
2009    23      1       0.2898762       70.18125
2009    23      2       0.7355981       139.0054
2009    23      3       0.7095843       135.8758
2009    23      4       0.6478176       128.1385
2009    23      5       0.7363615       138.9256
2009    23      6       0.6269612       125.0082
2009    23      7       0.5559852       114.9375
2009    24      0       0.2533614       63.61324
2009    24      1       0.3823152       87.65274
2009    24      2       0.4549739       99.72639
2009    24      3       0.3320851       79.04212
2009    24      4       0.3435346       80.81725
2009    24      5       0.4794743       103.7455
2009    24      6       0.6131758       123.0548
2009    24      7       0.5488413       114.0976
2009    25      0       0.3807693       86.92921
2009    25      1       0.2446249       61.19899
2009    25      2       0.2238082       56.76549
2009    25      3       0.2804044       67.97601
2009    25      4       0.2926945       70.20052
2009    25      5       0.2541083       63.43025
2009    25      6       0.2695219       66.96899
2009    25      7       0.2074494       54.4095
2009    26      0       0.2499779       62.52329
2009    26      1       0.2859972       69.75424
2009    26      2       0.3167125       75.60598
2009    26      3       0.3552846       82.55648
2009    26      4       0.319364        76.21689
2009    26      5       0.4661766       101.6248
2009    26      6       0.6066944       122.0389
2009    26      7       0.4528516       98.94605
2009    27      0       0.3780172       86.32957
2009    27      1       0.6283716       124.2441
2009    27      2       0.7524504       139.7841
2009    27      3       0.8769243       154.1933
2009    27      4       0.8529301       152.3152
2009    27      5       0.7301005       138.2355
2009    27      6       0.7350328       138.5292
2009    27      7       0.7509722       140.4977
2009    28      0       0.4079078       91.36944
2009    28      1       0.5386892       111.236
2009    28      2       0.6388642       124.8886
2009    28      3       0.5878883       117.9749
2009    28      4       0.4588414       98.99397
2009    28      5       0.4820236       102.4805
2009    28      6       0.5984309       119.9701
2009    28      7       0.4782927       102.6535
2009    29      0       0.4836857       103.1641
2009    29      1       0.5713222       115.7327
2009    29      2       0.5519446       113.0758
2009    29      3       0.4899219       103.8983
2009    29      4       0.4372443       95.6896
2009    29      5       0.4440213       96.75442
2009    29      6       0.5498715       113.1734
2009    29      7       0.5153718       108.3576
2009    30      0       0.4282738       94.38198
2009    30      1       0.353864        81.77508
2009    30      2       0.2962059       71.20905
2009    30      3       0.3395207       79.2104
2009    30      4       0.3688771       84.39159
2009    30      5       0.4142075       92.28513
2009    30      6       0.4733053       102.2315
2009    30      7       0.425953        95.08905
2010    1       0       0.6259701       124.301
2010    1       1       0.7441413       138.5135
2010    1       2       0.7297006       136.4891
2010    1       3       0.4452624       97.52307
2010    1       4       0.6147831       121.5076
2010    1       5       0.7035712       133.4472
2010    1       6       0.8150586       145.7807
2010    1       7       0.8618827       151.3541
2010    2       0       0.6674365       129.5944
2010    2       1       0.502964        106.4894
2010    2       2       0.5405634       112.129
2010    2       3       0.5059227       106.9186
2010    2       4       0.521695        109.3387
2010    2       5       0.5321136       111.0907
2010    2       6       0.6433647       126.6849
2010    2       7       0.5517237       114.2178
2010    3       0       0.5095827       108.0027
2010    3       1       0.3674681       84.82022
2010    3       2       0.4766813       102.96
2010    3       3       0.3309743       78.29449
2010    3       4       0.2624399       65.52385
2010    3       5       0.2849142       69.83213
2010    3       6       0.3909691       89.43755
2010    3       7       0.445893        97.86213
2010    4       0       0.6788264       131.4448
2010    4       1       0.9159985       159.8158
2010    4       2       0.9120165       158.1329
2010    4       3       0.9516903       162.1444
2010    4       4       0.8748479       153.6367
2010    4       5       0.832084        148.6026
2010    4       6       0.5827161       118.2642
2010    4       7       0.3345803       78.20644
2010    5       0       0.3373799       78.69821
2010    5       1       0.303287        72.67696
2010    5       2       0.3433419       80.50455
2010    5       3       0.3891673       88.49586
2010    5       4       0.3885529       88.35268
2010    5       5       0.3091597       74.15212
2010    5       6       0.2040628       53.53367
2010    5       7       0.1684092       46.02561
2010    6       0       0.1993046       52.60868
2010    6       1       0.2201089       56.95967
2010    6       2       0.2678992       66.47888
2010    6       3       0.3861136       87.74869
2010    6       4       0.4281644       94.71453
2010    6       5       0.272241        67.19425
2010    6       6       0.184159        49.59182
2010    6       7       0.2696518       66.69331
2010    7       0       0.1843144       49.45631
2010    7       1       0.1955477       51.87553
2010    7       2       0.1922267       51.2138
2010    7       3       0.1320879       38.18139
2010    7       4       0.0970996       30.10734
2010    7       5       0.07978032      25.94428
2010    7       6       0.2084472       54.60277
2010    7       7       0.3160514       75.61623
2010    8       0       0.1446834       41.01816
2010    8       1       0.1395495       39.86202
2010    8       2       0.1467379       41.4628
2010    8       3       0.08512049      27.23258
2010    8       4       0.06816981      23.09851
2010    8       5       0.05546024      19.93374
2010    8       6       0.05163004      18.94147
2010    8       7       0.05034792      18.59871
2010    9       0       0.04668897      17.65152
2010    9       1       0.04563017      17.37033
2010    9       2       0.05061593      18.65453
2010    9       3       0.05151157      18.89375
2010    9       4       0.05006848      18.52832
2010    9       5       0.05088922      18.74131
2010    9       6       0.05210629      19.07034
2010    9       7       0.05503553      19.80798
2010    10      0       0.05554265      19.93002
2010    10      1       0.05422798      19.59182
2010    10      2       0.05680709      20.24692
2010    10      3       0.06102925      21.28497
2010    10      4       0.05460712      19.63676
2010    10      5       0.05460065      19.608
2010    10      6       0.0565178       20.06579
2010    10      7       0.05856587      20.55888
2010    11      0       0.07622026      24.89237
2010    11      1       0.1153068       34.09597
2010    11      2       0.1099326       32.7489
2010    11      3       0.07503961      24.2492
2010    11      4       0.07305987      23.75779
2010    11      5       0.07046675      23.15183
2010    11      6       0.06576452      21.98792
2010    11      7       0.07916851      25.10556
2010    12      0       0.1402359       38.99572
2010    12      1       0.2853498       68.64772
2010    12      2       0.3531803       80.70931
2010    12      3       0.3424546       78.51073
2010    12      4       0.332341        77.15138
2010    12      5       0.2674327       64.79797
2010    12      6       0.5170308       106.4375
2010    12      7       0.5077393       105.9107
2010    13      0       0.8014644       145.4705
2010    13      1       0.7112003       134.8152
2010    13      2       0.6163373       121.6045
2010    13      3       0.6061459       119.2391
2010    13      4       0.4864671       101.8867
2010    13      5       0.315917        73.47695
2010    13      6       0.2262232       56.80733
2010    13      7       0.1444023       39.62165
2010    14      0       0.1639013       43.84733
2010    14      1       0.1845386       48.19678
2010    14      2       0.1747038       46.01736
2010    14      3       0.2109863       53.43716
2010    14      4       0.1826672       47.75995
2010    14      5       0.2096607       52.74747
2010    14      6       0.4303          92.39295
2010    14      7       0.3687743       83.1161
2010    15      0       0.132217        37.90548
2010    15      1       0.09023278      28.46675
2010    15      2       0.05534159      19.93114
2010    15      3       0.04348345      16.87155
2010    15      4       0.05937151      20.8522
2010    15      5       0.07129418      23.83366
2010    15      6       0.07549593      24.92683
2010    15      7       0.08159445      26.29905
2010    16      0       0.09168871      28.67665
2010    16      1       0.07063129      23.62495
2010    16      2       0.0603609       21.09234
2010    16      3       0.06780364      22.81961
2010    16      4       0.06731577      22.71286
2010    16      5       0.05303075      19.26642
2010    16      6       0.05031227      18.59188
2010    16      7       0.04639001      17.60634
2010    17      0       0.04723418      17.84499
2010    17      1       0.0477835       17.98146
2010    17      2       0.04558762      17.41669
2010    17      3       0.04387676      16.97154
2010    17      4       0.04197174      16.4665
2010    17      5       0.04384272      16.92789
2010    17      6       0.04558768      17.36311
2010    17      7       0.04471973      17.15537
2010    18      0       0.04299845      16.73472
2010    18      1       0.04075517      16.17061
2010    18      2       0.04211702      16.52396
2010    18      3       0.04277389      16.68702
2010    18      4       0.04319667      16.77455
2010    18      5       0.04312586      16.74965
2010    18      6       0.04675243      17.65824
2010    18      7       0.05209971      18.99119
2010    19      0       0.04709289      17.81087
2010    19      1       0.04571895      17.45585
2010    19      2       0.04699763      17.75672
2010    19      3       0.0519371       18.96094
2010    19      4       0.05817027      20.5137
2010    19      5       0.06411682      21.95281
2010    19      6       0.0819905       26.13986
2010    19      7       0.2022888       52.28309
2010    20      0       0.1399852       39.36106
2010    20      1       0.1239822       36.00264
2010    20      2       0.1381697       39.19705
2010    20      3       0.1422464       40.14083
2010    20      4       0.1265738       36.74163
2010    20      5       0.1265331       36.72319
2010    20      6       0.2451681       61.61889
2010    20      7       0.4230999       94.48811
2010    21      0       0.212996        55.61355
2010    21      1       0.2488873       62.73457
2010    21      2       0.2955113       71.59517
2010    21      3       0.2904992       70.66399
2010    21      4       0.2297462       58.9279
2010    21      5       0.3044218       73.09502
2010    21      6       0.5744278       116.5133
2010    21      7       0.5898952       118.5076
2010    22      0       0.4101834       91.64712
2010    22      1       0.3016825       72.00105
2010    22      2       0.2908715       70.23706
2010    22      3       0.2265517       58.28641
2010    22      4       0.2239379       57.58496
2010    22      5       0.2860521       69.7623
2010    22      6       0.4441612       97.04848
2010    22      7       0.4115385       91.85439
2010    23      0       0.2214885       57.3472
2010    23      1       0.261479        65.21152
2010    23      2       0.2895711       70.5686
2010    23      3       0.2733153       67.64738
2010    23      4       0.1814007       49.09525
2010    23      5       0.2481386       62.76677
2010    23      6       0.3816598       86.53542
2010    23      7       0.4006454       90.10456
2010    24      0       0.4284927       94.44791
2010    24      1       0.4264335       93.90742
2010    24      2       0.5234016       109.7425
2010    24      3       0.538892        112.3554
2010    24      4       0.7033539       134.3268
2010    24      5       0.9034962       156.2809
2010    24      6       0.8049194       146.0447
2010    24      7       0.6721861       129.6698
2010    25      0       0.5241125       109.0063
2010    25      1       0.4104304       90.89166
2010    25      2       0.3695298       83.99148
2010    25      3       0.3115568       73.78021
2010    25      4       0.259164        64.38503
2010    25      5       0.214616        55.69006
2010    25      6       0.4413039       96.61833
2010    25      7       0.5691524       116.3139
2010    26      0       0.5844101       117.8545
2010    26      1       0.4714412       100.7253
2010    26      2       0.3131466       75.00126
2010    26      3       0.2038914       53.86987
2010    26      4       0.1616419       44.82086
2010    26      5       0.1480386       41.82637
2010    26      6       0.2624499       65.99308
2010    26      7       0.3355692       79.4974
2010    27      0       0.1806221       48.62495
2010    27      1       0.2563494       64.31245
2010    27      2       0.4264847       95.00523
2010    27      3       0.2689773       67.02429
2010    27      4       0.1208618       35.67004
2010    27      5       0.08869972      28.28271
2010    27      6       0.1762955       48.37891
2010    27      7       0.2774402       68.67212
2010    28      0       0.1673692       45.86315
2010    28      1       0.119851        34.90768
2010    28      2       0.1218858       35.47689
2010    28      3       0.107299        32.20229
2010    28      4       0.07033742      23.38662
2010    28      5       0.07657601      24.9341
2010    28      6       0.3221274       76.74427
2010    28      7       0.4238077       94.37552
2010    29      0       0.238482        60.06566
2010    29      1       0.3716972       84.8295
2010    29      2       0.3812889       85.83508
2010    29      3       0.4506895       98.13323
2010    29      4       0.3058799       73.28101
2010    29      5       0.2804265       68.89082
2010    29      6       0.3394206       79.79628
2010    29      7       0.2680644       65.97719
2010    30      0       0.245331        60.71182
2010    30      1       0.5576326       112.3579
2010    30      2       0.7779309       143.482
2010    30      3       0.8076652       145.3618
2010    30      4       0.6103637       120.335
2010    30      5       0.5322487       108.7278
2010    30      6       0.5555059       112.8026
2010    30      7       0.5139302       106.7067
2011    1       0       0.3533433       81.42628
2011    1       1       0.1842871       49.02871
2011    1       2       0.1628712       44.70395
2011    1       3       0.130098        37.39068
2011    1       4       0.1184796       34.86093
2011    1       5       0.1180494       34.94263
2011    1       6       0.0817596       26.47646
2011    1       7       0.05922159      20.92828
2011    2       0       0.05417418      19.64913
2011    2       1       0.04691005      17.78213
2011    2       2       0.04493253      17.2664
2011    2       3       0.04573289      17.48756
2011    2       4       0.04805106      18.07598
2011    2       5       0.04973457      18.50264
2011    2       6       0.04807934      18.08486
2011    2       7       0.04455662      17.1688
2011    3       0       0.0449022       17.27331
2011    3       1       0.04634517      17.66703
2011    3       2       0.04828055      18.17569
2011    3       3       0.04957409      18.51868
2011    3       4       0.05309224      19.41295
2011    3       5       0.05974726      21.06841
2011    3       6       0.0958142       29.9005
2011    3       7       0.1838191       49.39053
2011    4       0       0.1510904       42.38681
2011    4       1       0.2017658       53.17736
2011    4       2       0.2064518       54.04432
2011    4       3       0.1784534       48.10041
2011    4       4       0.1468611       41.19103
2011    4       5       0.1346678       38.48084
2011    4       6       0.290458        71.11298
2011    4       7       0.4429589       98.15561
2011    5       0       0.1763806       47.96572
2011    5       1       0.2079717       54.32756
2011    5       2       0.2871414       69.47268
2011    5       3       0.2833137       68.96369
2011    5       4       0.2691589       66.50019
2011    5       5       0.3918819       88.42517
2011    5       6       0.5003717       104.7021
2011    5       7       0.3913497       87.68452
2011    6       0       0.2438524       61.05843
2011    6       1       0.3167792       74.92841
2011    6       2       0.2647875       65.05372
2011    6       3       0.1961662       51.54053
2011    6       4       0.2677482       66.13334
2011    6       5       0.6125486       121.608
2011    6       6       0.7182196       134.7495
2011    6       7       0.7197799       134.628
2011    7       0       0.5425727       111.4595
2011    7       1       0.4044397       90.29964
2011    7       2       0.2870561       69.75703
2011    7       3       0.2880234       69.93742
2011    7       4       0.2600494       64.62224
2011    7       5       0.3145615       74.97949
2011    7       6       0.3312491       77.4774
2011    7       7       0.3778286       85.72272
2011    8       0       0.278388        67.7651
2011    8       1       0.2216233       56.68879
2011    8       2       0.2561824       63.91109
2011    8       3       0.2237157       57.2636
2011    8       4       0.1723811       46.53272
2011    8       5       0.197466        52.27967
2011    8       6       0.2029001       53.52163
2011    8       7       0.2770011       67.78322
2011    9       0       0.4384851       96.11254
2011    9       1       0.9754247       165.4636
2011    9       2       0.92592         159.3867
2011    9       3       0.5540789       114.5985
2011    9       4       0.3882531       88.647
2011    9       5       0.5609868       115.53
2011    9       6       0.3411415       79.76131
2011    9       7       0.2073703       54.24742
2011    10      0       0.2211357       56.62677
2011    10      1       0.2504068       62.32201
2011    10      2       0.5733089       116.2976
2011    10      3       0.4489258       97.81223
2011    10      4       0.2391674       59.98626
2011    10      5       0.1368672       38.47381
2011    10      6       0.2073877       53.5093
2011    10      7       0.3471807       79.5885
2011    11      0       0.3477742       79.44068
2011    11      1       0.3086585       72.60822
2011    11      2       0.3588638       81.97262
2011    11      3       0.3746612       84.85903
2011    11      4       0.5067023       106.4191
2011    11      5       0.7877971       143.7767
2011    11      6       0.8110268       145.8496
2011    11      7       0.8027837       144.7672
2011    12      0       0.6804309       130.1275
2011    12      1       0.6363691       124.9312
2011    12      2       0.5232019       108.9892
2011    12      3       0.4764077       101.4061
2011    12      4       0.4062638       90.43622
2011    12      5       0.3552835       81.79523
2011    12      6       0.332299        77.71148
2011    12      7       0.292869        70.51409
2011    13      0       0.3037755       72.36351
2011    13      1       0.3379046       78.25868
2011    13      2       0.3596548       82.08837
2011    13      3       0.3898738       87.01607
2011    13      4       0.3633021       82.53712
2011    13      5       0.3614762       82.16297
2011    13      6       0.3986848       88.29123
2011    13      7       0.4131491       90.69347
2011    14      0       0.3655902       82.95549
2011    14      1       0.324723        75.74523
2011    14      2       0.2931665       70.12534
2011    14      3       0.2908516       69.74086
2011    14      4       0.2432348       60.67676
2011    14      5       0.1992676       51.78133
2011    14      6       0.2035733       52.7358
2011    14      7       0.254634        63.18984
2011    15      0       0.3797293       85.78533
2011    15      1       0.4412754       96.11874
2011    15      2       0.4179712       92.56831
2011    15      3       0.4285208       94.33799
2011    15      4       0.3992327       89.70008
2011    15      5       0.3381639       79.30107
2011    15      6       0.3856843       87.39885
2011    15      7       0.4589336       99.1131
2011    16      0       0.3704388       84.56046
2011    16      1       0.2901802       70.32402
2011    16      2       0.2602913       64.57842
2011    16      3       0.3092909       73.79103
2011    16      4       0.3172354       75.38245
2011    16      5       0.395414        89.03104
2011    16      6       0.4237726       93.34986
2011    16      7       0.5542726       113.9487
2011    17      0       0.2766886       67.91719
2011    17      1       0.2824503       68.87235
2011    17      2       0.3513709       81.56534
2011    17      3       0.4211463       93.85313
2011    17      4       0.4898219       104.6699
2011    17      5       0.5794832       117.5804
2011    17      6       0.6717345       128.9546
2011    17      7       0.6330367       124.3987
2011    18      0       0.5064222       106.145
2011    18      1       0.4885949       103.4058
2011    18      2       0.3855693       86.42978
2011    18      3       0.3456925       79.13467
2011    18      4       0.3076149       72.50582
2011    18      5       0.2836538       67.93584
2011    18      6       0.3410651       78.78538
2011    18      7       0.4840672       102.6951
2011    19      0       0.5304955       109.523
2011    19      1       0.5155187       107.7062
2011    19      2       0.6631104       128.0252
2011    19      3       0.6433107       125.1183
2011    19      4       0.5705702       115.2177
2011    19      5       0.5168517       107.5979
2011    19      6       0.5141729       107.0174
2011    19      7       0.4659068       98.54052
2011    20      0       0.4837689       102.0324
2011    20      1       0.4444918       95.62324
2011    20      2       0.522912        107.5474
2011    20      3       0.6280838       122.9428
2011    20      4       0.5803957       116.2065
2011    20      5       0.6129122       121.297
2011    20      6       0.5911115       118.581
2011    20      7       0.5527163       113.1499
2011    21      0       0.6070248       120.452
2011    21      1       0.6451574       125.2571
2011    21      2       0.6514884       125.8787
2011    21      3       0.648651        125.5155
2011    21      4       0.5832561       116.6819
2011    21      5       0.4613415       99.55031
2011    21      6       0.4781696       102.0851
2011    21      7       0.481853        102.4382
2011    22      0       0.498496        105.1514
2011    22      1       0.4765907       102.0567
2011    22      2       0.5818296       117.3203
2011    22      3       0.600219        119.8657
2011    22      4       0.6319075       124.2223
2011    22      5       0.5623461       115.1961
2011    22      6       0.4646657       99.71856
2011    22      7       0.5260183       109.0898
2011    23      0       0.8396389       148.203
2011    23      1       0.7441092       137.4453
2011    23      2       0.7336204       136.244
2011    23      3       0.7220539       134.5843
2011    23      4       0.6934421       130.8826
2011    23      5       0.7090902       133.3204
2011    23      6       0.6633356       127.6473
2011    23      7       0.7358878       136.9544
2011    24      0       0.7693471       140.6733
2011    24      1       0.7749206       141.3257
2011    24      2       0.7152376       133.9142
2011    24      3       0.6490401       126.2344
2011    24      4       0.5564602       113.6403
2011    24      5       0.6218492       122.8976
2011    24      6       0.7994015       144.2318
2011    24      7       0.8635794       151.4863
2011    25      0       0.6447676       125.8904
2011    25      1       0.5427766       111.9807
2011    25      2       0.5045493       106.2637
2011    25      3       0.4401026       96.51408
2011    25      4       0.3758284       85.91124
2011    25      5       0.3730627       85.44508
2011    25      6       0.4721213       101.5992
2011    25      7       0.5775076       116.4224
2011    26      0       0.5581284       114.3831
2011    26      1       0.6421834       126.3268
2011    26      2       0.6328409       125.0105
2011    26      3       0.5711549       116.1751
2011    26      4       0.4695478       100.9416
2011    26      5       0.3991449       89.56115
2011    26      6       0.5241888       108.9603
2011    26      7       0.6010733       119.3141
2011    27      0       0.4880679       103.7196
2011    27      1       0.4027514       90.29799
2011    27      2       0.4674378       101.4136
2011    27      3       0.3746879       86.16261
2011    27      4       0.3122407       74.52188
2011    27      5       0.3721747       85.20055
2011    27      6       0.4263776       93.85436
2011    27      7       0.5184042       106.8692
2011    28      0       0.4212885       91.69521
2011    28      1       0.3537279       80.89433
2011    28      2       0.2933625       70.64224
2011    28      3       0.2937763       70.77922
2011    28      4       0.2837567       68.91097
2011    28      5       0.515535        107.0445
2011    28      6       0.5885487       117.7551
2011    28      7       0.6101313       122.1888
2011    29      0       0.6530771       128.0448
2011    29      1       0.4925631       104.9591
2011    29      2       0.4638002       100.3055
2011    29      3       0.4515291       98.30927
2011    29      4       0.3736297       85.11203
2011    29      5       0.3908433       87.60294
2011    29      6       0.4042401       90.18453
2011    29      7       0.4720021       100.9525
2011    30      0       0.4945363       104.3941
2011    30      1       0.3886467       87.66611
2011    30      2       0.4199175       92.93359
2011    30      3       0.3721153       84.85263
2011    30      4       0.3455209       80.65713
2011    30      5       0.3027629       72.73411
2011    30      6       0.5604145       114.8231
2011    30      7       0.6556434       128.1109
2012    1       0       0.09446465      29.07262
2012    1       1       0.110236        32.71409
2012    1       2       0.1294094       36.97727
2012    1       3       0.1228301       35.41066
2012    1       4       0.1131932       33.27867
2012    1       5       0.1045229       31.29332
2012    1       6       0.101948        30.7015
2012    1       7       0.09715258      29.60341
2012    2       0       0.1021835       30.69024
2012    2       1       0.1725592       46.14663
2012    2       2       0.233732        58.75458
2012    2       3       0.2665825       65.14338
2012    2       4       0.2426762       60.6613
2012    2       5       0.2424624       60.26738
2012    2       6       0.3502653       79.75993
2012    2       7       0.3369214       78.10952
2012    3       0       0.2589381       64.20394
2012    3       1       0.3163181       75.16862
2012    3       2       0.3244722       76.80664
2012    3       3       0.2948509       71.3684
2012    3       4       0.2322414       59.16072
2012    3       5       0.2088179       54.30634
2012    3       6       0.2875529       70.0068
2012    3       7       0.2029124       53.31644
2012    4       0       0.1123906       33.60497
2012    4       1       0.08492109      27.17833
2012    4       2       0.06567644      22.49376
2012    4       3       0.05616421      20.13052
2012    4       4       0.05381931      19.5538
2012    4       5       0.06489394      22.30235
2012    4       6       0.05592522      20.05476
2012    4       7       0.04739985      17.86553
2012    5       0       0.04092723      16.16228
2012    5       1       0.04440016      17.08792
2012    5       2       0.04793563      18.00568
2012    5       3       0.05311198      19.28761
2012    5       4       0.05773924      20.41158
2012    5       5       0.05720107      20.29502
2012    5       6       0.05043656      18.58435
2012    5       7       0.05340695      19.38589
2012    6       0       0.04803311      17.97764
2012    6       1       0.05099629      18.75881
2012    6       2       0.05461706      19.66354
2012    6       3       0.06315005      21.83818
2012    6       4       0.06479389      22.27972
2012    6       5       0.05695597      20.34536
2012    6       6       0.0498767       18.53861
2012    6       7       0.05391764      19.5856
2012    7       0       0.06371647      21.99265
2012    7       1       0.08360888      26.79935
2012    7       2       0.1097175       32.90489
2012    7       3       0.136172        38.99422
2012    7       4       0.1309121       37.72263
2012    7       5       0.1316644       37.79875
2012    7       6       0.1339637       38.02082
2012    7       7       0.1119835       32.98111
2012    8       0       0.08753038      27.42691
2012    8       1       0.08415827      26.64547
2012    8       2       0.0953471       29.29372
2012    8       3       0.09579083      29.39311
2012    8       4       0.09004378      28.05353
2012    8       5       0.09754584      29.78
2012    8       6       0.1279836       36.47859
2012    8       7       0.133296        37.4095
2012    9       0       0.1210389       34.66591
2012    9       1       0.1077848       31.74946
2012    9       2       0.1370217       38.45526
2012    9       3       0.1171138       34.0941
2012    9       4       0.1626189       44.25395
2012    9       5       0.2077949       53.55199
2012    9       6       0.2762184       66.92773
2012    9       7       0.3096627       73.10368
2012    10      0       0.1997327       51.41139
2012    10      1       0.1768318       46.46417
2012    10      2       0.1572937       42.40432
2012    10      3       0.09982544      30.11812
2012    10      4       0.08937005      27.74353
2012    10      5       0.1007          30.49001
2012    10      6       0.1063492       31.6915
2012    10      7       0.1445212       39.96984
2012    11      0       0.1468077       40.34714
2012    11      1       0.151378        41.42362
2012    11      2       0.1391752       39.08422
2012    11      3       0.1093317       32.56031
2012    11      4       0.07766926      25.09722
2012    11      5       0.06732405      22.47681
2012    11      6       0.06467705      21.82397
2012    11      7       0.05383831      19.09925
2012    12      0       0.04814083      17.79565
2012    12      1       0.04538746      17.12648
2012    12      2       0.04185927      16.2059
2012    12      3       0.04119009      16.01866
2012    12      4       0.03775716      15.10647
2012    12      5       0.0394451       15.55296
2012    12      6       0.04780325      17.71401
2012    12      7       0.04105023      16.00945
2012    13      0       0.0388427       15.49584
2012    13      1       0.04944253      18.24879
2012    13      2       0.05991933      20.84348
2012    13      3       0.0647264       21.99745
2012    13      4       0.06053867      20.95869
2012    13      5       0.05942401      20.70247
2012    13      6       0.07513137      24.5925
2012    13      7       0.1039555       31.29493
2012    14      0       0.06964324      23.00886
2012    14      1       0.07471708      24.15717
2012    14      2       0.07983652      25.37373
2012    14      3       0.08591247      26.82592
2012    14      4       0.09264499      28.4601
2012    14      5       0.102177        30.68083
2012    14      6       0.144623        40.15003
2012    14      7       0.1785794       47.32288
2012    15      0       0.1963733       50.74891
2012    15      1       0.221496        55.8135
2012    15      2       0.235756        58.81714
2012    15      3       0.2737788       65.89094
2012    15      4       0.3409268       77.94023
2012    15      5       0.4250114       92.45997
2012    15      6       0.5441776       111.5231
2012    15      7       0.5873796       116.9134
2012    16      0       0.54665         111.2943
2012    16      1       0.5341888       109.4658
2012    16      2       0.4592049       98.12751
2012    16      3       0.4099768       90.62511
2012    16      4       0.4007062       89.12979
2012    16      5       0.4215622       92.15721
2012    16      6       0.4955309       103.8598
2012    16      7       0.5095896       106.3066
2012    17      0       0.3678867       84.00837
2012    17      1       0.3257998       76.9373
2012    17      2       0.2753581       67.73849
2012    17      3       0.3126988       74.73033
2012    17      4       0.3144213       74.86954
2012    17      5       0.4010617       89.90907
2012    17      6       0.4327799       94.73114
2012    17      7       0.4072201       90.99867
2012    18      0       0.2303302       58.80404
2012    18      1       0.1537844       42.84991
2012    18      2       0.3240822       76.56544
2012    18      3       0.6260386       123.3168
2012    18      4       0.6945964       132.7183
2012    18      5       0.6499254       127.2067
2012    18      6       0.5268385       109.2799
2012    18      7       0.2473639       61.2067
2012    19      0       0.1149594       33.45087
2012    19      1       0.06548102      21.96516
2012    19      2       0.04985459      18.24669
2012    19      3       0.04275175      16.53582
2012    19      4       0.04578768      17.32757
2012    19      5       0.05357841      19.32305
2012    19      6       0.07654702      25.15935
2012    19      7       0.1830519       49.38564
2012    20      0       0.1415387       40.16268
2012    20      1       0.2955121       71.53778
2012    20      2       0.5640567       116.1774
2012    20      3       0.6350287       126.0002
2012    20      4       0.2390028       60.60048
2012    20      5       0.1751483       47.68209
2012    20      6       0.2244942       57.88341
2012    20      7       0.2953478       71.31862
2012    21      0       0.1218253       35.56328
2012    21      1       0.07299497      24.07165
2012    21      2       0.07114083      23.63552
2012    21      3       0.08095127      25.91864
2012    21      4       0.07924603      25.49395
2012    21      5       0.136619        38.68192
2012    21      6       0.2077738       54.18815
2012    21      7       0.4798475       102.5341
2012    22      0       0.518463        108.5871
2012    22      1       0.4472695       96.80231
2012    22      2       0.5888361       119.2255
2012    22      3       0.5009704       106.9826
2012    22      4       0.3348987       79.03088
2012    22      5       0.2461832       62.18732
2012    22      6       0.4326226       95.9937
2012    22      7       0.3827027       86.792
2012    23      0       0.2897506       69.61326
2012    23      1       0.3500564       80.69307
2012    23      2       0.4785593       102.0951
2012    23      3       0.4502732       97.42752
2012    23      4       0.3395801       78.75243
2012    23      5       0.3202601       75.10382
2012    23      6       0.4118836       91.61474
2012    23      7       0.3605829       82.24557
2012    24      0       0.2993278       70.75103
2012    24      1       0.2439781       60.25664
2012    24      2       0.2271715       56.80586
2012    24      3       0.2323479       58.10393
2012    24      4       0.2214432       56.09081
2012    24      5       0.2131384       54.70339
2012    24      6       0.4178047       92.36267
2012    24      7       0.4008456       88.66693
2012    25      0       0.2714871       65.48268
2012    25      1       0.1832584       48.03332
2012    25      2       0.1669065       44.81603
2012    25      3       0.1861349       49.05321
2012    25      4       0.2399567       59.98251
2012    25      5       0.4848397       102.1729
2012    25      6       0.5964055       119.692
2012    25      7       0.4293155       95.03889
2012    26      0       0.529708        110.5224
2012    26      1       0.8479508       149.971
2012    26      2       0.7172077       135.1034
2012    26      3       0.8130378       147.4444
2012    26      4       0.7218345       135.3143
2012    26      5       0.6249635       123.1634
2012    26      6       0.6219939       123.1927
2012    26      7       0.4157379       92.28926
2012    27      0       0.3672072       84.0491
2012    27      1       0.3461832       80.493
2012    27      2       0.403974        90.26366
2012    27      3       0.4682197       100.548
2012    27      4       0.5941051       118.9263
2012    27      5       0.7576664       139.0477
2012    27      6       0.7166115       134.6676
2012    27      7       0.6600148       127.5451
2012    28      0       0.5676993       114.9127
2012    28      1       0.6761577       128.9397
2012    28      2       0.6017287       119.2727
2012    28      3       0.5686762       114.3922
2012    28      4       0.4781073       100.895
2012    28      5       0.5576948       112.6302
2012    28      6       0.611417        120.4243
2012    28      7       0.5849603       116.355
2012    29      0       0.4160875       90.99672
2012    29      1       0.3191446       74.38768
2012    29      2       0.286599        68.09267
2012    29      3       0.2863015       67.9301
2012    29      4       0.2558924       62.23428
2012    29      5       0.2924601       68.7737
2012    29      6       0.4283401       92.76363
2012    29      7       0.392521        87.02397
2012    30      0       0.3032353       71.67832
2012    30      1       0.2760852       66.5503
2012    30      2       0.2132827       54.18927
2012    30      3       0.1739071       45.98553
2012    30      4       0.1788224       46.93895
2012    30      5       0.2247783       55.82585
2012    30      6       0.2674722       63.74055
2012    30      7       0.2626417       62.86995
2013    1       0       0.2126317       55.0532
2013    1       1       0.2823656       68.5143
2013    1       2       0.2839159       68.68389
2013    1       3       0.2124704       54.79537
2013    1       4       0.1497502       41.5544
2013    1       5       0.1077372       32.29995
2013    1       6       0.2515578       62.41622
2013    1       7       0.3193132       74.50201
2013    2       0       0.241964        60.13173
2013    2       1       0.1222009       35.41366
2013    2       2       0.04366415      16.87623
2013    2       3       0.04834321      18.07069
2013    2       4       0.04371877      16.86354
2013    2       5       0.06239519      21.4699
2013    2       6       0.0940967       28.95376
2013    2       7       0.132592        37.65013
2013    3       0       0.08274161      26.27937
2013    3       1       0.07668924      24.73028
2013    3       2       0.06429237      21.98694
2013    3       3       0.05623084      20.06625
2013    3       4       0.04273652      16.62681
2013    3       5       0.04297362      16.67105
2013    3       6       0.06941453      23.24621
2013    3       7       0.2708796       65.20573
2013    4       0       0.2736032       65.17443
2013    4       1       0.3786007       83.82799
2013    4       2       0.5160635       105.9095
2013    4       3       0.4584819       97.6772
2013    4       4       0.2804413       67.25975
2013    4       5       0.2762984       66.73176
2013    4       6       0.4567232       97.6075
2013    4       7       0.5232482       107.5071
2013    5       0       0.3731557       83.8982
2013    5       1       0.2692304       65.40023
2013    5       2       0.23546         58.56964
2013    5       3       0.2335914       57.92665
2013    5       4       0.2601382       63.04506
2013    5       5       0.291587        69.0939
2013    5       6       0.2685053       65.47501
2013    5       7       0.3004308       71.48136
2013    6       0       0.2494249       62.37562
2013    6       1       0.2529928       63.04651
2013    6       2       0.2565406       63.67746
2013    6       3       0.2693943       66.06571
2013    6       4       0.1797615       48.17853
2013    6       5       0.1404219       39.74958
2013    6       6       0.2460252       61.18259
2013    6       7       0.2800304       67.9261
2013    7       0       0.1868435       49.23575
2013    7       1       0.1505756       41.30428
2013    7       2       0.09485524      29.16716
2013    7       3       0.07394883      24.3924
2013    7       4       0.0766491       25.03562
2013    7       5       0.1008219       30.71356
2013    7       6       0.128763        37.11837
2013    7       7       0.1960492       51.31015
2013    8       0       0.1858022       49.0734
2013    8       1       0.1860897       49.18073
2013    8       2       0.2234988       56.88026
2013    8       3       0.2426575       60.63026
2013    8       4       0.2220761       56.62272
2013    8       5       0.2172314       55.12278
2013    8       6       0.3379083       76.86041
2013    8       7       0.4461117       94.60817
2013    9       0       0.421635        91.46469
2013    9       1       0.4122703       89.90947
2013    9       2       0.463679        97.86633
2013    9       3       0.2646484       64.17402
2013    9       4       0.2074074       52.74954
2013    9       5       0.3242251       75.4255
2013    9       6       0.513124        106.11
2013    9       7       0.5065312       105.0524
2013    10      0       0.380949        85.16578
2013    10      1       0.3737005       84.35192
2013    10      2       0.4217426       92.82018
2013    10      3       0.3233392       76.18405
2013    10      4       0.2360093       59.59272
2013    10      5       0.2652103       65.44845
2013    10      6       0.3472116       80.23493
2013    10      7       0.3960926       88.46274
2013    11      0       0.2911306       70.55142
2013    11      1       0.3169184       75.50933
2013    11      2       0.3242831       76.7328
2013    11      3       0.3162384       75.13928
2013    11      4       0.2809714       68.77509
2013    11      5       0.3854793       87.34833
2013    11      6       0.555702        113.8958
2013    11      7       0.561413        114.8343
2013    12      0       0.3382637       79.52623
2013    12      1       0.2714386       67.11324
2013    12      2       0.1991328       52.66318
2013    12      3       0.1023484       31.44808
2013    12      4       0.1087732       32.85299
2013    12      5       0.124752        36.52288
2013    12      6       0.2857956       69.27735
2013    12      7       0.3689596       84.26275
2013    13      0       0.210664        54.53155
2013    13      1       0.2093662       54.41934
2013    13      2       0.2429176       61.16169
2013    13      3       0.245326        61.75849
2013    13      4       0.2175047       56.27829
2013    13      5       0.1931793       51.33585
2013    13      6       0.4975831       106.5854
2013    13      7       0.6372593       125.9698
2013    14      0       0.830717        148.3322
2013    14      1       0.6903479       131.9966
2013    14      2       0.4951794       104.8714
2013    14      3       0.4351619       95.57645
2013    14      4       0.7922699       145.3255
2013    14      5       0.6750997       131.3597
2013    14      6       0.9205959       159.2976
2013    14      7       0.9100647       157.4181
2013    15      0       0.9221818       158.3376
2013    15      1       0.5995678       121.0984
2013    15      2       0.4424811       98.29667
2013    15      3       0.5038259       107.7231
2013    15      4       0.349698        82.10712
2013    15      5       0.3217404       77.37545
2013    15      6       0.3515772       82.92686
2013    15      7       0.5824183       119.3021
2013    16      0       0.485641        104.5616
2013    16      1       0.5079015       107.2359
2013    16      2       0.435354        96.58246
2013    16      3       0.279014        68.5728
2013    16      4       0.1407763       40.03599
2013    16      5       0.1355746       38.8836
2013    16      6       0.249094        62.59205
2013    16      7       0.2282313       57.87456
2013    17      0       0.2600574       63.51792
2013    17      1       0.1405276       39.79948
2013    17      2       0.1304086       37.61105
2013    17      3       0.1132668       33.55869
2013    17      4       0.08212463      26.32026
2013    17      5       0.079419        25.80452
2013    17      6       0.1585744       44.01014
2013    17      7       0.2134463       55.60115
2013    18      0       0.270841        66.62008
2013    18      1       0.6465868       128.1878
2013    18      2       0.7777196       142.9994
2013    18      3       0.3799912       87.59627
2013    18      4       0.2254204       58.38245
2013    18      5       0.406011        91.57344
2013    18      6       0.7170374       136.7027
2013    18      7       0.7042568       135.2376
2013    19      0       0.3062631       73.72388
2013    19      1       0.2554587       64.18712
2013    19      2       0.3275128       77.67222
2013    19      3       0.3961769       89.9889
2013    19      4       0.3706023       85.47966
2013    19      5       0.4062878       91.71202
2013    19      6       0.3993054       90.96313
2013    19      7       0.4589029       100.6932
2013    20      0       0.4716499       102.2897
2013    20      1       0.4264041       94.36735
2013    20      2       0.5014531       106.7693
2013    20      3       0.5349323       112.1317
2013    20      4       0.5862982       120.3123
2013    20      5       0.6530982       129.2273
2013    20      6       0.773061        144.0329
2013    20      7       0.5537378       114.9358
2013    21      0       0.5782355       118.1137
2013    21      1       0.7312916       138.2863
2013    21      2       0.6324097       126.2801
2013    21      3       0.4046421       92.23208
2013    21      4       0.2036268       54.02135
2013    21      5       0.2982024       72.80498
2013    21      6       0.4823877       103.7861
2013    21      7       0.570642        116.7354
2013    22      0       0.7133294       134.988
2013    22      1       0.4999004       104.5596
2013    22      2       0.2710598       66.41345
2013    22      3       0.1233745       35.73199
2013    22      4       0.08749912      27.41125
2013    22      5       0.08036351      25.93476
2013    22      6       0.2099962       55.12843
2013    22      7       0.2116498       54.68212
2013    23      0       0.2320669       59.24905
2013    23      1       0.3096754       74.11898
2013    23      2       0.5228088       108.8795
2013    23      3       0.6389016       125.4544
2013    23      4       0.7240862       137.5237
2013    23      5       0.6914536       133.1605
2013    23      6       0.6685332       130.8343
2013    23      7       0.6775968       131.805
2013    24      0       0.5710692       116.5602
2013    24      1       0.5451285       112.7935
2013    24      2       0.4905938       104.417
2013    24      3       0.3564298       81.94726
2013    24      4       0.2954084       70.7008
2013    24      5       0.3083131       73.40312
2013    24      6       0.3560261       82.09898
2013    24      7       0.2903481       69.66815
2013    25      0       0.2829686       68.04735
2013    25      1       0.2741228       66.64725
2013    25      2       0.2281805       57.94018
2013    25      3       0.2364894       59.37867
2013    25      4       0.261554        64.38676
2013    25      5       0.241474        60.62283
2013    25      6       0.3790698       87.50824
2013    25      7       0.2364114       59.8015
2013    26      0       0.2606217       64.32943
2013    26      1       0.2709162       66.47994
2013    26      2       0.1624701       44.03061
2013    26      3       0.1227856       35.07592
2013    26      4       0.1249799       35.60642
2013    26      5       0.1100745       32.2952
2013    26      6       0.08685695      27.1137
2013    26      7       0.1074616       31.84465
2013    27      0       0.1550143       42.5736
2013    27      1       0.2370675       60.0802
2013    27      2       0.3334865       78.83199
2013    27      3       0.3650749       84.77178
2013    27      4       0.2879241       70.43374
2013    27      5       0.2149417       55.94425
2013    27      6       0.2694379       67.04051
2013    27      7       0.4004156       90.4916
2013    28      0       0.5052541       107.2593
2013    28      1       0.3908219       87.6902
2013    28      2       0.2680196       65.60392
2013    28      3       0.2371968       59.64479
2013    28      4       0.2117549       54.99669
2013    28      5       0.1961845       51.90994
2013    28      6       0.4638539       99.69659
2013    28      7       0.4564025       97.09105
2013    29      0       0.4040745       89.15687
2013    29      1       0.3756215       84.96455
2013    29      2       0.4415349       95.33956
2013    29      3       0.6162318       122.0478
2013    29      4       0.5236589       109.4257
2013    29      5       0.5141657       107.964
2013    29      6       0.6474173       127.4472
2013    29      7       0.5803872       118.664
2013    30      0       0.5487975       114.1453
2013    30      1       0.7398793       139.4836
2013    30      2       0.9304795       160.9723
2013    30      3       0.9927992       165.9012
2013    30      4       0.992894        166.3573
2013    30      5       0.8743038       154.8543
2013    30      6       0.655312        128.848
2013    30      7       0.8439871       151.8205
2014    1       0       0.637674        125.5191
2014    1       1       0.794033        145.1445
2014    1       2       0.7694004       142.0404
2014    1       3       0.6491423       127.1772
2014    1       4       0.7357335       136.9051
2014    1       5       0.7038777       133.7706
2014    1       6       0.6050473       120.8991
2014    1       7       0.5076289       106.4913
2014    2       0       0.7431588       138.1374
2014    2       1       0.8090631       146.2093
2014    2       2       0.8428214       150.1589
2014    2       3       0.7857225       143.4522
2014    2       4       0.6680348       128.176
2014    2       5       0.5939624       118.0397
2014    2       6       0.531494        109.3101
2014    2       7       0.5401024       110.5985
2014    3       0       0.5431206       110.3488
2014    3       1       0.6208903       120.9532
2014    3       2       0.5683112       114.1626
2014    3       3       0.5640938       113.8062
2014    3       4       0.5197015       107.7763
2014    3       5       0.6320546       123.279
2014    3       6       0.6467826       125.8469
2014    3       7       0.5668619       114.8742
2014    4       0       0.6876171       130.4947
2014    4       1       0.8355956       148.9359
2014    4       2       0.6968265       132.1981
2014    4       3       0.6888019       130.9631
2014    4       4       0.6547322       126.1804
2014    4       5       0.6860632       129.9022
2014    4       6       0.8597013       150.3596
2014    4       7       0.8514867       149.9686
2014    5       0       0.6827511       130.2897
2014    5       1       0.5704224       115.3878
2014    5       2       0.6111715       120.8967
2014    5       3       0.6655709       128.29
2014    5       4       0.6217554       122.7196
2014    5       5       0.6503785       125.6573
2014    5       6       0.7450411       137.8941
2014    5       7       0.8109639       145.6118
2014    6       0       0.7629835       139.8655
2014    6       1       0.764943        140.5128
2014    6       2       0.630985        124.4412
2014    6       3       0.5646615       115.5019
2014    6       4       0.4979134       105.6296
2014    6       5       0.601251        120.4897
2014    6       6       0.6304012       123.7336
2014    6       7       0.6080825       121.0288
2014    7       0       0.5737752       116.3284
2014    7       1       0.6861952       130.494
2014    7       2       0.7715964       140.9302
2014    7       3       0.815965        146.2684
2014    7       4       0.5315689       109.2956
2014    7       5       0.5204179       107.8978
2014    7       6       0.5852658       117.7014
2014    7       7       0.6337506       124.9695
2014    8       0       0.4954114       105.2486
2014    8       1       0.4671074       100.7383
2014    8       2       0.4547518       98.76026
2014    8       3       0.4740338       101.5209
2014    8       4       0.4423449       96.48556
2014    8       5       0.392112        88.53205
2014    8       6       0.3766119       86.22223
2014    8       7       0.3176015       75.91992
2014    9       0       0.380713        87.09911
2014    9       1       0.4862958       104.4647
2014    9       2       0.5141549       108.7298
2014    9       3       0.4396745       97.26833
2014    9       4       0.3155462       75.98504
2014    9       5       0.2310942       59.70129
2014    9       6       0.2338857       60.64256
2014    9       7       0.2145941       56.72244
2014    10      0       0.2147238       56.60172
2014    10      1       0.2314508       59.87004
2014    10      2       0.2023042       53.7519
2014    10      3       0.1669835       46.09993
2014    10      4       0.124756        36.67539
2014    10      5       0.09955757      30.7761
2014    10      6       0.1040328       31.66281
2014    10      7       0.1169967       34.41198
2014    11      0       0.1286914       37.15682
2014    11      1       0.2388327       61.43565
2014    11      2       0.4574715       100.9614
2014    11      3       0.618454        124.4076
2014    11      4       0.5625133       115.5776
2014    11      5       0.667263        129.8893
2014    11      6       0.5997814       120.5788
2014    11      7       0.5781566       118.0365
2014    12      0       0.8731171       155.1795
2014    12      1       0.5343236       110.9197
2014    12      2       0.4365496       95.29048
2014    12      3       0.40958         91.30314
2014    12      4       0.569485        116.7013
2014    12      5       0.5798551       118.7134
2014    12      6       0.7231937       136.8019
2014    12      7       0.7898606       145.4326
2014    13      0       0.5627778       115.8735
2014    13      1       0.5359618       112.1962
2014    13      2       0.5376428       112.282
2014    13      3       0.5631187       115.8596
2014    13      4       0.5631024       115.7954
2014    13      5       0.538472        112.5639
2014    13      6       0.5116115       108.6216
2014    13      7       0.7035829       135.1386
2014    14      0       0.8534889       151.8339
2014    14      1       0.9073987       157.6043
2014    14      2       0.6807113       132.0779
2014    14      3       0.3774252       86.79998
2014    14      4       0.1292942       37.70344
2014    14      5       0.08005077      26.14685
2014    14      6       0.2522382       63.74266
2014    14      7       0.2956441       71.76454
2014    15      0       0.1514975       42.49566
2014    15      1       0.1147319       34.03394
2014    15      2       0.09009864      28.37532
2014    15      3       0.07401877      24.53375
2014    15      4       0.05866416      20.72642
2014    15      5       0.05466437      19.69693
2014    15      6       0.1172855       34.80101
2014    15      7       0.173038        47.13042
2014    16      0       0.1095966       33.04297
2014    16      1       0.1352802       38.7434
2014    16      2       0.2718609       66.79979
2014    16      3       0.3002059       72.00419
2014    16      4       0.3057432       72.85094
2014    16      5       0.3133865       73.67622
2014    16      6       0.2170279       54.93269
2014    16      7       0.2608753       63.4714
2014    17      0       0.2141873       54.09451
2014    17      1       0.1768695       46.27398
2014    17      2       0.1542832       41.4092
2014    17      3       0.1698719       44.44983
2014    17      4       0.1684677       44.28763
2014    17      5       0.1484649       40.41436
2014    17      6       0.1150334       33.49932
2014    17      7       0.2309404       58.48555
2014    18      0       0.3720161       85.12716
2014    18      1       0.5422657       111.468
2014    18      2       0.7102324       135.2619
2014    18      3       0.6844168       131.8845
2014    18      4       0.7111771       135.004
2014    18      5       0.7311058       136.3668
2014    18      6       0.7433637       137.8469
2014    18      7       0.8590408       151.2059
2014    19      0       0.8987644       156.9978
2014    19      1       0.8906962       155.7215
2014    19      2       0.8742362       153.4609
2014    19      3       0.7201534       136.1975
2014    19      4       0.5901502       118.3155
2014    19      5       0.5583928       113.7851
2014    19      6       0.5845462       117.4226
2014    19      7       0.4862678       102.345
2014    20      0       0.4943943       103.4185
2014    20      1       0.3587033       81.7682
2014    20      2       0.2460907       60.96305
2014    20      3       0.2113665       53.93345
2014    20      4       0.2162925       55.1528
2014    20      5       0.2654919       65.20792
2014    20      6       0.6167285       122.5082
2014    20      7       0.629085        124.3485
2014    21      0       0.9916849       167.1496
2014    21      1       0.8528703       150.6971
2014    21      2       0.9468801       159.8261
2014    21      3       0.7975907       145.636
2014    21      4       0.6783566       131.2395
2014    21      5       0.6018879       121.5962
2014    21      6       0.8515137       152.3231
2014    21      7       0.689826        132.8025
2014    22      0       0.6208737       123.0555
2014    22      1       0.716734        135.7461
2014    22      2       0.6472736       127.1608
2014    22      3       0.560385        115.4094
2014    22      4       0.5579218       115.1227
2014    22      5       0.6452391       127.2122
2014    22      6       0.65415         128.2059
2014    22      7       0.6638498       129.5369
2014    23      0       0.4807758       102.9983
2014    23      1       0.4176025       92.66792
2014    23      2       0.3392909       78.85623
2014    23      3       0.3332128       77.54741
2014    23      4       0.7241942       136.533
2014    23      5       0.4685243       101.3965
2014    23      6       0.4738506       102.362
2014    23      7       0.5266659       110.6209
2014    24      0       0.6181521       123.667
2014    24      1       0.8775013       154.5062
2014    24      2       0.8595127       151.9011
2014    24      3       0.8195701       149.2725
2014    24      4       0.7392621       140.1537
2014    24      5       0.7994309       147.0801
2014    24      6       1.009794        168.4364
2014    24      7       0.8225352       149.3735
2014    25      0       0.6025331       122.0578
2014    25      1       0.8895369       156.6735
2014    25      2       0.9154921       158.2883
2014    25      3       0.8215566       148.8387
2014    25      4       0.7395614       139.8039
2014    25      5       0.5706653       117.3812
2014    25      6       0.3868918       87.97883
2014    25      7       0.2809364       67.86215
2014    26      0       0.4140713       92.22186
2014    26      1       0.6076552       121.2394
2014    26      2       0.6253845       123.2873
2014    26      3       0.5015496       105.4698
2014    26      4       0.4634058       99.51051
2014    26      5       0.4693068       100.2718
2014    26      6       0.5307691       108.8555
2014    26      7       0.5722215       115.1175
2014    27      0       0.5475711       112.0808
2014    27      1       0.5174642       107.6781
2014    27      2       0.5065269       106.251
2014    27      3       0.5328999       110.3463
2014    27      4       0.5483445       112.6599
2014    27      5       0.7694155       141.712
2014    27      6       0.7846242       143.7015
2014    27      7       0.6831337       131.4402
2014    28      0       0.4815862       102.7469
2014    28      1       0.4993997       105.5983
2014    28      2       0.6111157       121.8112
2014    28      3       0.7235399       136.0959
2014    28      4       0.6813639       130.9532
2014    28      5       0.6200001       122.9619
2014    28      6       0.9229767       158.6965
2014    28      7       0.9727012       164.3341
2014    29      0       1.048728        171.1664
2014    29      1       0.9078043       157.7897
2014    29      2       0.8869283       155.6799
2014    29      3       0.9424186       160.7589
2014    29      4       0.9504233       161.7243
2014    29      5       0.9039353       157.1406
2014    29      6       0.9247587       158.9939
2014    29      7       0.8868242       155.4353
2014    30      0       0.7178466       136.1343
2014    30      1       0.5863038       116.6781
2014    30      2       0.7483284       137.7347
2014    30      3       0.7062724       132.7767
2014    30      4       0.4580273       98.33323
2014    30      5       0.4644531       98.14459
2014    30      6       0.6364374       123.5361
2014    30      7       0.7040134       132.7059
2015    1       0       0.0446765       17.30745
2015    1       1       0.05539417      20.03894
2015    1       2       0.08271643      26.74495
2015    1       3       0.09655753      30.04364
2015    1       4       0.1508457       42.27551
2015    1       5       0.2351896       60.02499
2015    1       6       0.2145612       55.92201
2015    1       7       0.385367        88.10073
2015    2       0       0.2438556       61.55219
2015    2       1       0.3608491       83.30419
2015    2       2       0.3062859       73.14121
2015    2       3       0.3616548       82.96307
2015    2       4       0.3809639       86.21424
2015    2       5       0.4554751       98.40555
2015    2       6       0.5384121       111.3182
2015    2       7       0.5299769       110.1149
2015    3       0       0.4484732       97.60058
2015    3       1       0.4222249       93.2139
2015    3       2       0.4229607       92.84035
2015    3       3       0.4617401       98.86957
2015    3       4       0.5082945       106.2351
2015    3       5       0.5275711       109.3139
2015    3       6       0.4952732       104.6828
2015    3       7       0.5221021       109.2727
2015    4       0       0.4775071       102.3574
2015    4       1       0.6010577       120.2278
2015    4       2       0.5357011       110.988
2015    4       3       0.5408356       112.183
2015    4       4       0.5304235       110.7412
2015    4       5       0.4893586       104.6289
2015    4       6       0.5147376       108.7842
2015    4       7       0.5269393       110.385
2015    5       0       0.5863597       119.2209
2015    5       1       0.5486491       113.5129
2015    5       2       0.6430016       126.4333
2015    5       3       0.648294        127.3591
2015    5       4       0.5437734       112.8324
2015    5       5       0.6811598       131.2028
2015    5       6       0.7297582       137.0248
2015    5       7       0.7013714       132.9183
2015    6       0       0.7389717       137.9477
2015    6       1       0.7997617       144.6902
2015    6       2       0.7176744       134.4273
2015    6       3       0.6321447       123.0025
2015    6       4       0.4047735       88.56983
2015    6       5       0.2630752       64.12621
2015    6       6       0.2000661       52.46524
2015    6       7       0.1483809       41.77674
2015    7       0       0.1987884       52.38735
2015    7       1       0.2067936       54.16694
2015    7       2       0.1796655       48.59346
2015    7       3       0.09882146      30.54127
2015    7       4       0.05832247      20.75494
2015    7       5       0.04909553      18.4037
2015    7       6       0.09522682      29.61197
2015    7       7       0.1341586       38.49104
2015    8       0       0.1740333       46.78041
2015    8       1       0.1980375       52.02578
2015    8       2       0.1836304       49.30122
2015    8       3       0.05546741      20.06911
2015    8       4       0.05198249      19.16057
2015    8       5       0.04312736      16.81493
2015    8       6       0.08697035      27.65075
2015    8       7       0.1086656       32.77044
2015    9       0       0.07349653      24.39069
2015    9       1       0.09877866      30.3494
2015    9       2       0.0960897       29.76932
2015    9       3       0.08071521      26.1197
2015    9       4       0.09057176      28.45931
2015    9       5       0.08150769      26.22654
2015    9       6       0.0637822       22.01175
2015    9       7       0.1100936       33.03539
2015    10      0       0.1430005       40.1354
2015    10      1       0.1798816       48.24592
2015    10      2       0.3581414       82.80864
2015    10      3       0.119844        35.39853
2015    10      4       0.2088999       54.61521
2015    10      5       0.463358        100.7004
2015    10      6       0.221786        56.93296
2015    10      7       0.1366695       38.86818
2015    11      0       0.08798952      27.79693
2015    11      1       0.0865663       27.42548
2015    11      2       0.1315162       37.71156
2015    11      3       0.1844811       49.09589
2015    11      4       0.2220788       56.97964
2015    11      5       0.2984293       71.79664
2015    11      6       0.2821624       68.83582
2015    11      7       0.5332826       109.9392
2015    12      0       0.2660972       65.30613
2015    12      1       0.3162656       74.80307
2015    12      2       0.4217976       93.07828
2015    12      3       0.3679047       84.19913
2015    12      4       0.1940594       51.05821
2015    12      5       0.1615778       43.9081
2015    12      6       0.1802045       48.30433
2015    12      7       0.2139275       55.33503
2015    13      0       0.133422        38.22311
2015    13      1       0.09647004      29.73908
2015    13      2       0.09067575      28.01821
2015    13      3       0.1139375       33.29039
2015    13      4       0.1190361       34.51732
2015    13      5       0.1119779       32.98664
2015    13      6       0.1323884       37.54356
2015    13      7       0.2860127       68.81605
2015    14      0       0.1462515       40.2574
2015    14      1       0.1356572       37.98742
2015    14      2       0.1489448       41.04209
2015    14      3       0.1690257       45.59962
2015    14      4       0.2070925       53.66559
2015    14      5       0.2556791       63.40231
2015    14      6       0.3526342       81.62436
2015    14      7       0.3393367       79.10879
2015    15      0       0.2051124       53.33011
2015    15      1       0.2103625       54.25603
2015    15      2       0.2260189       57.36327
2015    15      3       0.2355197       59.20335
2015    15      4       0.1957858       51.18752
2015    15      5       0.1595841       43.70493
2015    15      6       0.3286821       76.57525
2015    15      7       0.3858995       86.46236
2015    16      0       0.2585033       63.62003
2015    16      1       0.3013651       71.58078
2015    16      2       0.3912578       87.13822
2015    16      3       0.3529349       81.24519
2015    16      4       0.2807127       68.39655
2015    16      5       0.3027643       72.59255
2015    16      6       0.4214943       93.74406
2015    16      7       0.4068306       91.26333
2015    17      0       0.2908715       70.42118
2015    17      1       0.3559608       81.94376
2015    17      2       0.3521131       81.2652
2015    17      3       0.2681389       65.86445
2015    17      4       0.1900571       50.06142
2015    17      5       0.1299022       37.14115
2015    17      6       0.364299        84.11294
2015    17      7       0.6108591       122.0204
2015    18      0       0.6678126       129.6599
2015    18      1       0.7294059       136.5582
2015    18      2       0.3406205       78.70002
2015    18      3       0.2680797       65.34265
2015    18      4       0.1482924       40.97421
2015    18      5       0.0994316       29.96441
2015    18      6       0.1012891       30.39522
2015    18      7       0.2954899       70.50105
2015    19      0       0.5202238       107.8271
2015    19      1       0.5726632       114.9186
2015    19      2       0.7109586       133.9222
2015    19      3       0.3911757       87.58044
2015    19      4       0.3536777       81.05452
2015    19      5       0.4188009       91.87358
2015    19      6       0.7313562       135.8789
2015    19      7       0.7260327       134.9952
2015    20      0       0.743821        137.2324
2015    20      1       0.8537176       150.2229
2015    20      2       0.6968297       132.519
2015    20      3       0.6656998       128.8351
2015    20      4       0.601054        120.3179
2015    20      5       0.4848709       103.8274
2015    20      6       0.5193014       109.6608
2015    20      7       0.4651067       101.3814
2015    21      0       0.2929776       71.23448
2015    21      1       0.2710768       66.79057
2015    21      2       0.2804652       68.59869
2015    21      3       0.3135262       74.90922
2015    21      4       0.324359        76.94348
2015    21      5       0.3558565       82.86415
2015    21      6       0.4301932       95.6905
2015    21      7       0.4477441       98.10054
2015    22      0       0.389242        87.83383
2015    22      1       0.3433802       79.72516
2015    22      2       0.3501151       80.8139
2015    22      3       0.3285014       76.78098
2015    22      4       0.2617356       64.27646
2015    22      5       0.1796348       47.65074
2015    22      6       0.1358103       38.17206
2015    22      7       0.1219648       34.99579
2015    23      0       0.2621324       64.1307
2015    23      1       0.4099472       91.6622
2015    23      2       0.5540291       114.2577
2015    23      3       0.4669727       100.1978
2015    23      4       0.3250661       75.7775
2015    23      5       0.537463        111.6003
2015    23      6       0.7320842       138.0599
2015    23      7       0.9048164       157.9327
2015    24      0       0.8803661       154.0212
2015    24      1       0.9451899       160.7666
2015    24      2       0.8700467       153.4883
2015    24      3       0.7494356       139.7778
2015    24      4       0.7708749       142.2354
2015    24      5       0.7709605       142.6291
2015    24      6       0.6795711       132.0375
2015    24      7       0.6403048       126.8726
2015    25      0       0.5357849       112.036
2015    25      1       0.5800126       117.9206
2015    25      2       0.7791154       143.735
2015    25      3       0.8856793       155.0692
2015    25      4       0.7724895       142.8187
2015    25      5       0.9381199       160.944
2015    25      6       1.053256        170.6566
2015    25      7       1.024339        168.0907
2015    26      0       0.987096        165.2719
2015    26      1       0.8708536       154.1602
2015    26      2       0.8904853       155.9957
2015    26      3       0.7901995       145.231
2015    26      4       0.7380863       138.7663
2015    26      5       0.7959294       145.3254
2015    26      6       0.7709431       142.226
2015    26      7       0.9401376       159.954
2015    27      0       0.8372745       149.6342
2015    27      1       0.9826698       165.1709
2015    27      2       0.6636114       129.5529
2015    27      3       0.2747296       67.5912
2015    27      4       0.1208404       35.58075
2015    27      5       0.0933309       29.24828
2015    27      6       0.203296        53.55103
2015    27      7       0.2672023       66.0293
2015    28      0       0.1516793       42.13118
2015    28      1       0.3475663       79.92312
2015    28      2       0.4377964       94.64965
2015    28      3       0.3236384       76.01003
2015    28      4       0.1517017       42.24329
2015    28      5       0.1438852       40.42975
2015    28      6       0.392551        88.40055
2015    28      7       0.3992684       89.83086
2015    29      0       0.1776208       47.77
2015    29      1       0.4244907       93.13912
2015    29      2       0.6829885       131.7717
2015    29      3       0.9323515       160.7393
2015    29      4       0.721414        136.7486
2015    29      5       0.6472604       126.2546
2015    29      6       0.6464429       125.8292
2015    29      7       0.5472729       113.0159
2015    30      0       0.4465588       97.32694
2015    30      1       0.7110412       133.6882
2015    30      2       0.6606551       126.7071
2015    30      3       0.7355734       136.0613
2015    30      4       0.8910025       153.4272
2015    30      5       0.971042        162.5147
2015    30      6       0.875298        153.3809
2015    30      7       0.9485537       162.0877
2016    1       0       0.06143268      20.83938
2016    1       1       0.0645629       21.47981
2016    1       2       0.07034558      22.95836
2016    1       3       0.06044114      20.76231
2016    1       4       0.05118108      18.49699
2016    1       5       0.05580224      19.50533
2016    1       6       0.05985283      20.58922
2016    1       7       0.08491281      26.43914
2016    2       0       0.1707051       44.93469
2016    2       1       0.2878005       68.28438
2016    2       2       0.4181423       91.08018
2016    2       3       0.5174917       106.6769
2016    2       4       0.6455464       124.8752
2016    2       5       0.6603889       126.713
2016    2       6       0.6580148       125.9165
2016    2       7       0.7004039       131.4743
2016    3       0       0.6057649       118.9111
2016    3       1       0.5577515       112.1257
2016    3       2       0.6159447       120.3667
2016    3       3       0.6163082       120.3562
2016    3       4       0.5483443       110.7338
2016    3       5       0.3528014       79.93094
2016    3       6       0.2088589       52.90912
2016    3       7       0.1485607       41.11298
2016    4       0       0.1843307       48.77074
2016    4       1       0.2681515       65.47222
2016    4       2       0.2746336       66.85506
2016    4       3       0.1786719       47.72689
2016    4       4       0.4209808       91.7795
2016    4       5       0.6365102       123.4658
2016    4       6       0.6351215       123.3119
2016    4       7       0.5358004       109.7503
2016    5       0       0.5180394       106.3897
2016    5       1       0.5490767       110.9795
2016    5       2       0.5111105       105.9979
2016    5       3       0.2405265       60.02761
2016    5       4       0.09837557      29.94385
2016    5       5       0.06033805      20.87717
2016    5       6       0.08090388      25.91326
2016    5       7       0.1053186       31.65351
2016    6       0       0.09742987      29.84965
2016    6       1       0.07015238      23.42065
2016    6       2       0.07082683      23.56493
2016    6       3       0.07528507      24.5973
2016    6       4       0.08357463      26.57028
2016    6       5       0.1047681       31.47663
2016    6       6       0.1415656       39.83553
2016    6       7       0.126286        36.43406
2016    7       0       0.09385218      28.99205
2016    7       1       0.1767618       47.49467
2016    7       2       0.207295        53.87367
2016    7       3       0.2299338       58.47816
2016    7       4       0.2043799       53.12439
2016    7       5       0.2103106       54.30633
2016    7       6       0.296155        70.69954
2016    7       7       0.2825902       68.37829
2016    8       0       0.2873137       69.51191
2016    8       1       0.1607173       44.01173
2016    8       2       0.1114815       33.04719
2016    8       3       0.09758257      29.72218
2016    8       4       0.08526005      26.72232
2016    8       5       0.07600878      24.47434
2016    8       6       0.078446        25.05911
2016    8       7       0.08300842      26.50709
2016    9       0       0.07698217      25.19547
2016    9       1       0.07286393      24.16013
2016    9       2       0.06263646      21.57081
2016    9       3       0.05890585      20.62148
2016    9       4       0.04916082      18.28459
2016    9       5       0.04944806      18.35655
2016    9       6       0.05749563      20.40867
2016    9       7       0.09844857      30.18046
2016    10      0       0.05229666      19.07791
2016    10      1       0.06208344      21.54913
2016    10      2       0.06454272      22.15864
2016    10      3       0.05652185      20.14906
2016    10      4       0.0520338       18.99355
2016    10      5       0.05084787      18.67588
2016    10      6       0.04660521      17.61944
2016    10      7       0.04143933      16.3056
2016    11      0       0.03936319      15.78203
2016    11      1       0.03950464      15.82079
2016    11      2       0.03950761      15.76469
2016    11      3       0.03837035      15.45298
2016    11      4       0.04180418      16.35569
2016    11      5       0.04622358      17.49427
2016    11      6       0.04780034      17.899
2016    11      7       0.05185542      18.88559
2016    12      0       0.05889111      20.61364
2016    12      1       0.09217417      28.73322
2016    12      2       0.1061399       31.97364
2016    12      3       0.09263635      28.75417
2016    12      4       0.07645503      24.89336
2016    12      5       0.06237997      21.42199
2016    12      6       0.06080884      21.00481
2016    12      7       0.06641993      22.35785
2016    13      0       0.06368703      21.75672
2016    13      1       0.05873661      20.57645
2016    13      2       0.05380391      19.33866
2016    13      3       0.053005        19.11615
2016    13      4       0.05200398      18.85293
2016    13      5       0.05131975      18.67538
2016    13      6       0.05740597      20.16626
2016    13      7       0.06264252      21.3666
2016    14      0       0.06640317      22.23
2016    14      1       0.08997701      27.85641
2016    14      2       0.1586799       43.53918
2016    14      3       0.2152229       55.2592
2016    14      4       0.1704639       46.19596
2016    14      5       0.08346967      26.35821
2016    14      6       0.1020796       30.95699
2016    14      7       0.1169214       33.89143
2016    15      0       0.1264619       36.07153
2016    15      1       0.1166009       33.84952
2016    15      2       0.1132452       32.96485
2016    15      3       0.1187878       34.36317
2016    15      4       0.1125016       32.92472
2016    15      5       0.1385682       38.47886
2016    15      6       0.2235939       56.5284
2016    15      7       0.2635478       63.71828
2016    16      0       0.2531576       61.99987
2016    16      1       0.1876402       48.97167
2016    16      2       0.1383833       38.6244
2016    16      3       0.1303275       36.78671
2016    16      4       0.1293007       36.63904
2016    16      5       0.1660675       44.45423
2016    16      6       0.1672296       44.75467
2016    16      7       0.1748789       46.50314
2016    17      0       0.1898129       49.90549
2016    17      1       0.2319925       58.2228
2016    17      2       0.234349        58.86271
2016    17      3       0.2190106       56.01466
2016    17      4       0.2118309       54.75925
2016    17      5       0.18952         50.03264
2016    17      6       0.2904584       69.09793
2016    17      7       0.3451773       78.78
2016    18      0       0.2181819       55.42119
2016    18      1       0.1521968       41.69339
2016    18      2       0.161929        43.69604
2016    18      3       0.1417552       39.3761
2016    18      4       0.1256765       35.62256
2016    18      5       0.1220251       34.63209
2016    18      6       0.2750856       65.19356
2016    18      7       0.4206955       90.61515
2016    19      0       0.3218276       73.97858
2016    19      1       0.4015034       87.74375
2016    19      2       0.6007701       117.9781
2016    19      3       0.4855214       102.0645
2016    19      4       0.3012816       70.66899
2016    19      5       0.2885867       68.52715
2016    19      6       0.4275047       93.21869
2016    19      7       0.5982767       119.2449
2016    20      0       0.5597062       114.135
2016    20      1       0.5830177       117.3867
2016    20      2       0.5314299       110.2535
2016    20      3       0.3716846       84.85418
2016    20      4       0.4063962       90.28176
2016    20      5       0.5727195       115.8165
2016    20      6       0.4983152       104.923
2016    20      7       0.4441075       96.02035
2016    21      0       0.3686598       83.54554
2016    21      1       0.3571851       81.51016
2016    21      2       0.353968        80.84529
2016    21      3       0.330365        76.99824
2016    21      4       0.3472247       79.90032
2016    21      5       0.3360726       77.90456
2016    21      6       0.3077869       73.0948
2016    21      7       0.2995335       71.66824
2016    22      0       0.2491251       61.9921
2016    22      1       0.2966457       71.03142
2016    22      2       0.3257571       76.31543
2016    22      3       0.2773327       67.40408
2016    22      4       0.2536782       63.00151
2016    22      5       0.237868        59.6442
2016    22      6       0.3074993       72.99486
2016    22      7       0.2921183       70.08667
2016    23      0       0.2529584       62.83959
2016    23      1       0.2952065       70.75259
2016    23      2       0.3430729       79.41424
2016    23      3       0.3663598       83.38969
2016    23      4       0.3651585       82.99169
2016    23      5       0.5296144       109.1666
2016    23      6       0.5469994       111.6852
2016    23      7       0.6363033       125.0595
2016    24      0       0.4699955       100.6997
2016    24      1       0.4191208       91.71976
2016    24      2       0.4229782       92.29402
2016    24      3       0.4363345       94.4214
2016    24      4       0.4356504       94.67159
2016    24      5       0.4508682       97.30755
2016    24      6       0.4904012       103.9223
2016    24      7       0.4349511       95.17293
2016    25      0       0.461168        99.44879
2016    25      1       0.5947288       119.212
2016    25      2       0.7661284       141.8981
2016    25      3       0.7188278       134.5589
2016    25      4       0.6187059       121.433
2016    25      5       0.5433971       110.8659
2016    25      6       0.6512787       125.5767
2016    25      7       0.6782286       129.5794
2016    26      0       0.5286692       109.3844
2016    26      1       0.4657728       99.8626
2016    26      2       0.4297905       93.91283
2016    26      3       0.3778224       85.14511
2016    26      4       0.2666191       65.17021
2016    26      5       0.3051034       72.04356
2016    26      6       0.5217613       107.5966
2016    26      7       0.4639604       98.98177
2016    27      0       0.4342818       94.19795
2016    27      1       0.397119        88.13383
2016    27      2       0.3323931       77.24915
2016    27      3       0.2755279       66.70458
2016    27      4       0.2422588       60.02574
2016    27      5       0.1781715       47.24303
2016    27      6       0.2691168       66.90721
2016    27      7       0.3704978       85.18333
2016    28      0       0.2778404       68.14822
2016    28      1       0.2593156       64.74362
2016    28      2       0.2725653       67.33916
2016    28      3       0.2514671       63.37721
2016    28      4       0.1933476       51.52996
2016    28      5       0.1707149       46.57991
2016    28      6       0.2900078       70.8301
2016    28      7       0.2996378       72.09725
2016    29      0       0.2671583       65.9138
2016    29      1       0.2531646       63.35592
2016    29      2       0.2669822       66.1376
2016    29      3       0.2443623       61.82252
2016    29      4       0.2004951       52.9334
2016    29      5       0.2027319       53.50016
2016    29      6       0.3794194       86.92034
2016    29      7       0.4144133       92.97077
2016    30      0       0.507927        108.1921
2016    30      1       0.7028881       134.8119
2016    30      2       0.821907        148.021
2016    30      3       0.6729949       130.3304
2016    30      4       0.2822129       69.15184
2016    30      5       0.2804197       69.22376
2016    30      6       0.502787        106.8424
2016    30      7       0.5773058       118.2276
2017    1       0       0.06785884      23.02442
2017    1       1       0.05842675      20.65358
2017    1       2       0.05162964      18.93675
2017    1       3       0.05545201      19.94259
2017    1       4       0.05781746      20.5582
2017    1       5       0.0575325       20.46213
2017    1       6       0.07077079      23.63566
2017    1       7       0.06196525      21.53878
2017    2       0       0.05035655      18.64134
2017    2       1       0.06646283      22.5834
2017    2       2       0.1024403       31.0482
2017    2       3       0.1400805       39.4418
2017    2       4       0.206478        53.45424
2017    2       5       0.2726619       66.61087
2017    2       6       0.2809448       68.20025
2017    2       7       0.3416074       78.90744
2017    3       0       0.4159465       92.20578
2017    3       1       0.4877773       103.4916
2017    3       2       0.4255293       93.22205
2017    3       3       0.3390947       78.56806
2017    3       4       0.3410041       78.7938
2017    3       5       0.4756005       100.4438
2017    3       6       0.4905083       102.6867
2017    3       7       0.509691        105.7881
2017    4       0       0.4516584       96.95464
2017    4       1       0.4047934       89.39632
2017    4       2       0.3532362       80.58672
2017    4       3       0.2883666       68.80477
2017    4       4       0.2211328       55.72358
2017    4       5       0.1791          46.95765
2017    4       6       0.2186854       54.84742
2017    4       7       0.2386188       58.84429
2017    5       0       0.1878007       48.86812
2017    5       1       0.1626658       43.47621
2017    5       2       0.2203553       55.17512
2017    5       3       0.3219421       74.94979
2017    5       4       0.3977222       88.54092
2017    5       5       0.4886576       103.3485
2017    5       6       0.4967803       104.1757
2017    5       7       0.3982662       89.34398
2017    6       0       0.347011        79.98739
2017    6       1       0.4660329       99.492
2017    6       2       0.4970674       104.1573
2017    6       3       0.4616044       99.0086
2017    6       4       0.4511805       97.17917
2017    6       5       0.5121622       107.3988
2017    6       6       0.4974148       105.4842
2017    6       7       0.4359273       95.61357
2017    7       0       0.4131492       91.4559
2017    7       1       0.3895876       87.8104
2017    7       2       0.4301045       94.58567
2017    7       3       0.5221824       108.6672
2017    7       4       0.5196412       108.8326
2017    7       5       0.540621        111.7294
2017    7       6       0.6149786       122.5624
2017    7       7       0.7145154       134.9329
2017    8       0       0.7309203       136.216
2017    8       1       0.8513809       151.5809
2017    8       2       0.8596747       152.4742
2017    8       3       0.8352842       148.7625
2017    8       4       0.8426143       149.1744
2017    8       5       0.826973        147.3456
2017    8       6       0.8199412       146.8223
2017    8       7       0.7878292       144.0978
2017    9       0       0.711407        135.4976
2017    9       1       0.5751025       117.7847
2017    9       2       0.6297964       125.0483
2017    9       3       0.5848246       118.7469
2017    9       4       0.6640728       129.2354
2017    9       5       0.7501623       139.1388
2017    9       6       0.5175348       108.8804
2017    9       7       0.2050019       53.75825
2017    10      0       0.3684371       84.65224
2017    10      1       0.508212        107.5229
2017    10      2       0.7332249       137.6164
2017    10      3       0.7035214       134.0381
2017    10      4       0.678117        130.3528
2017    10      5       0.6055318       120.9145
2017    10      6       0.3835448       86.99258
2017    10      7       0.2293644       58.82605
2017    11      0       0.1871132       49.97886
2017    11      1       0.2565894       63.97545
2017    11      2       0.3002652       71.91776
2017    11      3       0.448953        96.64382
2017    11      4       0.7253482       134.3976
2017    11      5       0.823582        146.1719
2017    11      6       0.8336277       149.4105
2017    11      7       0.5806405       118.4624
2017    12      0       0.5433904       113.0774
2017    12      1       0.8593806       151.7661
2017    12      2       0.8367762       149.5243
2017    12      3       0.8102467       145.8555
2017    12      4       0.7880428       143.7514
2017    12      5       0.6702479       129.8549
2017    12      6       0.8545035       151.7148
2017    12      7       0.8340327       149.0039
2017    13      0       0.8257869       148.3105
2017    13      1       0.8361231       149.5379
2017    13      2       0.7575814       140.515
2017    13      3       0.6600283       128.1835
2017    13      4       0.6873907       131.3649
2017    13      5       0.5997472       120.4562
2017    13      6       0.6560457       128.0689
2017    13      7       0.5624082       115.0002
2017    14      0       0.7112479       135.7102
2017    14      1       0.7878785       144.9054
2017    14      2       0.6380392       126.5277
2017    14      3       0.6159025       123.4157
2017    14      4       0.5371404       111.9184
2017    14      5       0.4852936       103.9774
2017    14      6       0.7202886       137.0164
2017    14      7       0.7031679       134.965
2017    15      0       0.746768        140.1163
2017    15      1       0.8633794       153.6384
2017    15      2       0.9224966       159.2167
2017    15      3       0.7601032       141.346
2017    15      4       0.7433541       138.2086
2017    15      5       0.7093729       134.2769
2017    15      6       0.8208101       147.5992
2017    15      7       0.994837        165.3175
2017    16      0       0.8944726       155.9426
2017    16      1       0.9448043       161.3774
2017    16      2       0.8305487       149.9382
2017    16      3       0.9347622       159.6465
2017    16      4       0.7625884       141.4168
2017    16      5       0.7521347       140.7751
2017    16      6       0.7395846       139.1052
2017    16      7       0.7766565       143.8134
2017    17      0       0.6881292       133.1672
2017    17      1       0.6081512       122.4764
2017    17      2       0.6113245       122.6828
2017    17      3       0.5938965       120.2582
2017    17      4       0.5225518       110.0685
2017    17      5       0.5206876       110.0429
2017    17      6       0.4607043       100.92
2017    17      7       0.4990802       107.0014
2017    18      0       0.4729581       102.844
2017    18      1       0.3513985       82.31184
2017    18      2       0.2572934       64.56611
2017    18      3       0.2244507       57.94538
2017    18      4       0.2101529       55.07739
2017    18      5       0.1812524       49.05474
2017    18      6       0.3244255       77.5583
2017    18      7       0.2849975       70.03774
2017    19      0       0.165147        45.58629
2017    19      1       0.1417131       40.37696
2017    19      2       0.13156         38.07627
2017    19      3       0.1160879       34.58252
2017    19      4       0.09830245      30.37044
2017    19      5       0.08239682      26.44924
2017    19      6       0.08020959      25.94273
2017    19      7       0.08723912      27.68118
2017    20      0       0.07569169      24.82176
2017    20      1       0.07414981      24.44021
2017    20      2       0.07406769      24.46798
2017    20      3       0.08174765      26.36224
2017    20      4       0.08954339      28.20462
2017    20      5       0.08947638      28.14498
2017    20      6       0.08327225      26.65287
2017    20      7       0.0754642       24.83904
2017    21      0       0.07583235      24.93896
2017    21      1       0.09449554      29.51486
2017    21      2       0.1113622       33.58751
2017    21      3       0.1619635       45.0423
2017    21      4       0.1779406       48.44928
2017    21      5       0.1590247       44.25005
2017    21      6       0.1869079       50.35683
2017    21      7       0.1463762       41.37329
2017    22      0       0.1454753       41.16359
2017    22      1       0.1995774       52.80671
2017    22      2       0.2593631       64.73048
2017    22      3       0.2883983       70.048
2017    22      4       0.3335361       78.2173
2017    22      5       0.4405463       96.73439
2017    22      6       0.5698719       116.9144
2017    22      7       0.4075632       91.34335
2017    23      0       0.5094331       107.0533
2017    23      1       0.5973134       119.7722
2017    23      2       0.6248266       122.8634
2017    23      3       0.5710769       115.7593
2017    23      4       0.5541416       113.6733
2017    23      5       0.5486641       112.7307
2017    23      6       0.5460448       111.959
2017    23      7       0.5169651       107.5014
2017    24      0       0.5468797       112.0456
2017    24      1       0.6467692       125.5224
2017    24      2       0.6621703       127.5155
2017    24      3       0.616851        121.6848
2017    24      4       0.5317441       109.9278
2017    24      5       0.6036752       120.2394
2017    24      6       0.4421904       96.59934
2017    24      7       0.3440186       80.21177
2017    25      0       0.2729882       66.95354
2017    25      1       0.2007197       52.55595
2017    25      2       0.1294676       37.26148
2017    25      3       0.1092002       32.58061
2017    25      4       0.09266073      28.87924
2017    25      5       0.1378745       39.28425
2017    25      6       0.3946834       89.05254
2017    25      7       0.616736        122.0339
2017    26      0       0.4071279       91.05093
2017    26      1       0.3224674       76.30217
2017    26      2       0.424069        93.70635
2017    26      3       0.5323495       110.0852
2017    26      4       0.5109528       107.2403
2017    26      5       0.6044707       121.1724
2017    26      6       0.8496238       150.9691
2017    26      7       0.9179972       158.227
2017    27      0       0.5213432       109.2717
2017    27      1       0.4762172       102.4521
2017    27      2       0.4670448       101.0661
2017    27      3       0.5890681       119.1965
2017    27      4       0.6831927       131.21
2017    27      5       0.7227042       136.6816
2017    27      6       0.5970734       119.7143
2017    27      7       0.5207508       108.6202
2017    28      0       0.5337804       110.4772
2017    28      1       0.6680273       128.2557
2017    28      2       0.7077112       133.1257
2017    28      3       0.6550048       126.2518
2017    28      4       0.3351145       78.36877
2017    28      5       0.275393        67.37662
2017    28      6       0.4050042       91.07329
2017    28      7       0.282604        68.65172
2017    29      0       0.3163015       74.88248
2017    29      1       0.1684825       45.92808
2017    29      2       0.13735         39.1033
2017    29      3       0.09211051      28.76413
2017    29      4       0.07592146      24.88773
2017    29      5       0.0680185       23.04482
2017    29      6       0.1142369       34.05322
2017    29      7       0.2019311       52.66632
2017    30      0       0.1041597       31.56538
2017    30      1       0.06908557      23.19984
2017    30      2       0.09880618      30.32694
2017    30      3       0.129206        37.47369
2017    30      4       0.1332892       38.47172
2017    30      5       0.1979278       52.4298
2017    30      6       0.3334533       78.40767
2017    30      7       0.3904768       88.43734
2018    1       0       0.4364732       94.97427
2018    1       1       0.6379614       125.1724
2018    1       2       0.746836        138.9775
2018    1       3       0.4936692       105.0262
2018    1       4       0.2922434       70.51345
2018    1       5       0.5786144       116.0468
2018    1       6       0.3662755       83.70731
2018    1       7       0.2669541       64.82182
2018    2       0       0.1667983       44.68969
2018    2       1       0.1724826       45.97704
2018    2       2       0.160624        43.84059
2018    2       3       0.1152818       33.53531
2018    2       4       0.03363452      14.19892
2018    2       5       0.0307933       13.49044
2018    2       6       0.05905684      20.80384
2018    2       7       0.08653164      27.42044
2018    3       0       0.05066956      18.7116
2018    3       1       0.04284671      16.65589
2018    3       2       0.04075231      16.04737
2018    3       3       0.04121447      16.11925
2018    3       4       0.03898772      15.55534
2018    3       5       0.03767912      15.19971
2018    3       6       0.04051648      15.92924
2018    3       7       0.04220835      16.27977
2018    4       0       0.05308272      18.95166
2018    4       1       0.0464896       17.5076
2018    4       2       0.04569563      17.32211
2018    4       3       0.06269044      21.43941
2018    4       4       0.07623783      24.70252
2018    4       5       0.07667253      24.87778
2018    4       6       0.07689625      24.97206
2018    4       7       0.08401062      26.62301
2018    5       0       0.1066071       31.82036
2018    5       1       0.1610909       43.97079
2018    5       2       0.171155        46.28532
2018    5       3       0.1708257       46.26342
2018    5       4       0.1725668       46.62304
2018    5       5       0.1582869       43.59972
2018    5       6       0.1335616       38.20053
2018    5       7       0.1126488       33.50145
2018    6       0       0.1244587       36.26501
2018    6       1       0.1197407       35.23224
2018    6       2       0.1249227       36.43336
2018    6       3       0.1152287       34.22683
2018    6       4       0.101625        31.07902
2018    6       5       0.08742441      27.7504
2018    6       6       0.09849302      30.42433
2018    6       7       0.08798188      27.95386
2018    7       0       0.08983195      28.28468
2018    7       1       0.1046512       31.69287
2018    7       2       0.1060865       32.02508
2018    7       3       0.1037548       31.46433
2018    7       4       0.1018665       30.86696
2018    7       5       0.1001176       30.35875
2018    7       6       0.09692024      29.85816
2018    7       7       0.1160973       34.47026
2018    8       0       0.1036177       31.50351
2018    8       1       0.07694439      25.04324
2018    8       2       0.08339365      26.29791
2018    8       3       0.09631737      29.32519
2018    8       4       0.1017511       30.48942
2018    8       5       0.09720679      29.53565
2018    8       6       0.09352495      28.82687
2018    8       7       0.1272171       36.25765
2018    9       0       0.1845151       48.24729
2018    9       1       0.2127693       54.06306
2018    9       2       0.1984164       51.72743
2018    9       3       0.1840631       49.055
2018    9       4       0.178572        47.94346
2018    9       5       0.1690789       45.93856
2018    9       6       0.1509903       42.17039
2018    9       7       0.1730011       46.92219
2018    10      0       0.2005469       52.67193
2018    10      1       0.2284669       58.34027
2018    10      2       0.2343415       59.66326
2018    10      3       0.2449816       61.74321
2018    10      4       0.2324082       59.21228
2018    10      5       0.2065606       54.04487
2018    10      6       0.3280116       77.81275
2018    10      7       0.3504644       81.32041
2018    11      0       0.299323        72.06966
2018    11      1       0.3156041       75.10491
2018    11      2       0.3018145       72.70094
2018    11      3       0.2028922       53.40429
2018    11      4       0.1485568       41.85244
2018    11      5       0.1188746       35.16124
2018    11      6       0.2985637       72.5839
2018    11      7       0.4409387       97.08326
2018    12      0       0.2261616       58.19876
2018    12      1       0.1568264       43.69115
2018    12      2       0.1248744       36.54732
2018    12      3       0.09830384      30.33887
2018    12      4       0.07114717      23.81458
2018    12      5       0.06872866      23.1846
2018    12      6       0.08483504      27.25233
2018    12      7       0.08133316      26.35224
2018    13      0       0.07674385      25.11653
2018    13      1       0.08322129      26.68101
2018    13      2       0.08579119      27.28791
2018    13      3       0.07366733      24.35098
2018    13      4       0.0724747       24.04682
2018    13      5       0.08294716      26.61759
2018    13      6       0.1306947       37.75593
2018    13      7       0.1475258       41.43308
2018    14      0       0.1393909       39.59147
2018    14      1       0.1779844       47.93022
2018    14      2       0.4051509       90.83604
2018    14      3       0.5219683       109.1589
2018    14      4       0.3440832       80.3853
2018    14      5       0.46473         99.51025
2018    14      6       0.5696899       116.0751
2018    14      7       0.3364355       78.65837
2018    15      0       0.2551254       63.36001
2018    15      1       0.3984101       88.42947
2018    15      2       0.5990184       117.8453
2018    15      3       0.5769931       115.3595
2018    15      4       0.3862751       86.98258
2018    15      5       0.3946959       88.6723
2018    15      6       0.473752        101.5369
2018    15      7       0.5460072       112.0202
2018    16      0       0.7424711       137.872
2018    16      1       0.8153719       146.4698
2018    16      2       0.788349        143.5767
2018    16      3       0.4451917       96.87829
2018    16      4       0.3171409       74.72456
2018    16      5       0.3578573       81.93671
2018    16      6       0.3791811       85.52441
2018    16      7       0.353694        80.97703
2018    17      0       0.4242503       92.24636
2018    17      1       0.5270068       108.0183
2018    17      2       0.3856113       86.29401
2018    17      3       0.3744565       84.44906
2018    17      4       0.295571        69.72836
2018    17      5       0.2578681       62.00393
2018    17      6       0.1953789       50.41535
2018    17      7       0.240497        59.597
2018    18      0       0.2633551       63.30079
2018    18      1       0.4674118       97.83705
2018    18      2       0.3882609       85.62149
2018    18      3       0.3111642       72.72065
2018    18      4       0.2481079       60.47838
2018    18      5       0.6065411       120.8113
2018    18      6       0.4940499       103.5384
2018    18      7       0.4090319       90.17128
2018    19      0       0.2885329       68.53614
2018    19      1       0.2494279       60.90173
2018    19      2       0.1744557       46.01791
2018    19      3       0.08042713      25.76646
2018    19      4       0.06130254      21.18923
2018    19      5       0.06502424      22.09277
2018    19      6       0.1926251       50.5852
2018    19      7       0.343311        79.63949
2018    20      0       0.2482376       61.32283
2018    20      1       0.3607826       80.86606
2018    20      2       0.3998125       87.27071
2018    20      3       0.1812546       47.71083
2018    20      4       0.1507103       41.42977
2018    20      5       0.1700841       45.91091
2018    20      6       0.3009478       72.33888
2018    20      7       0.368314        84.32494
2018    21      0       0.3448058       79.39353
2018    21      1       0.3640523       82.64556
2018    21      2       0.3399347       78.45176
2018    21      3       0.2652692       64.67882
2018    21      4       0.1495315       41.19004
2018    21      5       0.1184706       34.6156
2018    21      6       0.2572332       63.77834
2018    21      7       0.3341603       76.9857
2018    22      0       0.5958907       119.2646
2018    22      1       0.3283935       76.68451
2018    22      2       0.2373111       59.17983
2018    22      3       0.1854904       48.73949
2018    22      4       0.1955441       50.7565
2018    22      5       0.1866246       49.0296
2018    22      6       0.1631204       43.94475
2018    22      7       0.2043107       52.04108
2018    23      0       0.2085908       53.00379
2018    23      1       0.2997673       70.58228
2018    23      2       0.3819582       85.29979
2018    23      3       0.3091005       72.84764
2018    23      4       0.268979        65.1792
2018    23      5       0.2378592       59.04129
2018    23      6       0.2911421       69.36482
2018    23      7       0.3922062       87.66689
2018    24      0       0.3556772       81.09512
2018    24      1       0.3249185       75.53896
2018    24      2       0.3912352       86.76141
2018    24      3       0.3943959       87.40401
2018    24      4       0.3926151       87.2746
2018    24      5       0.3845927       86.37986
2018    24      6       0.4947424       104.4308
2018    24      7       0.6261603       122.4444
2018    25      0       0.7081616       133.7345
2018    25      1       0.7103853       134.2436
2018    25      2       0.7170371       134.4518
2018    25      3       0.7136851       133.6036
2018    25      4       0.7525168       138.2324
2018    25      5       0.7891969       142.1996
2018    25      6       0.8204132       146.2247
2018    25      7       0.6491495       126.0324
2018    26      0       0.6694104       127.7343
2018    26      1       0.6773463       128.7271
2018    26      2       0.6932402       130.8936
2018    26      3       0.6864092       130.2025
2018    26      4       0.6200023       121.5645
2018    26      5       0.5999713       118.7616
2018    26      6       0.5547467       112.3628
2018    26      7       0.534433        108.9174
2018    27      0       0.4514128       95.90529
2018    27      1       0.5914204       116.3332
2018    27      2       0.55347         111.3505
2018    27      3       0.4224976       92.05055
2018    27      4       0.3728439       83.74685
2018    27      5       0.5823644       115.991
2018    27      6       0.8157443       145.8573
2018    27      7       0.8759869       153.0223
2018    28      0       0.782317        142.0417
2018    28      1       0.6641485       126.7208
2018    28      2       0.5183177       107.0886
2018    28      3       0.4167292       91.51142
2018    28      4       0.3950986       88.05141
2018    28      5       0.4516563       97.45257
2018    28      6       0.6313343       124.1876
2018    28      7       0.4850996       103.1353
2018    29      0       0.5353441       110.3675
2018    29      1       0.535336        110.8387
2018    29      2       0.5204187       108.9437
2018    29      3       0.4652464       101.1425
2018    29      4       0.2305553       58.89989
2018    29      5       0.1748355       47.56293
2018    29      6       0.3307027       77.78191
2018    29      7       0.4991521       105.7887
2018    30      0       0.3661361       84.24562
2018    30      1       0.4535804       98.15763
2018    30      2       0.6293749       124.1157
2018    30      3       0.5504463       113.8809
2018    30      4       0.4170287       93.63693
2018    30      5       0.389018        88.70559
2018    30      6       0.5809517       118.468
2018    30      7       0.5435667       113.3726
