####################################################################################################
# Month: 07Jul                                                                                     #
# Station: ERB                                                                                     #
# Frequency: 230 GHz                                                                               #
# Columns are: year    day     segment         tau     Tb (K)                                      #
####################################################################################################
2009    1       0       0.1568325       45.53614
2009    1       1       0.162502        46.76909
2009    1       2       0.1713049       48.73115
2009    1       3       0.1576502       45.43322
2009    1       4       0.1504149       43.78249
2009    1       5       0.153827        44.62204
2009    1       6       0.1790657       50.51016
2009    1       7       0.1965468       54.6135
2009    2       0       0.225721        61.20867
2009    2       1       0.2514739       66.79071
2009    2       2       0.3068409       78.44014
2009    2       3       0.3900555       94.63918
2009    2       4       0.3869964       94.15751
2009    2       5       0.355972        88.19596
2009    2       6       0.3378412       84.55139
2009    2       7       0.3101956       79.15549
2009    3       0       0.3108984       79.36672
2009    3       1       0.3196938       81.07248
2009    3       2       0.3597607       88.89018
2009    3       3       0.4191241       100.014
2009    3       4       0.4119959       98.91155
2009    3       5       0.3741507       91.90125
2009    3       6       0.3537864       87.83004
2009    3       7       0.3660529       89.97316
2009    4       0       0.3739226       91.37735
2009    4       1       0.3931287       94.69627
2009    4       2       0.6210984       133.1766
2009    4       3       0.3364067       83.77946
2009    4       4       0.3213652       80.86797
2009    4       5       0.3526032       87.06589
2009    4       6       0.4348862       102.3148
2009    4       7       0.4787367       109.6773
2009    5       0       0.4570955       106.0381
2009    5       1       0.458088        106.057
2009    5       2       0.4672543       107.6707
2009    5       3       0.5316991       118.7164
2009    5       4       0.4624754       107.3014
2009    5       5       0.4027936       96.51416
2009    5       6       0.4718984       108.9336
2009    5       7       0.5184278       116.5795
2009    6       0       0.5678701       124.3267
2009    6       1       0.601588        129.1949
2009    6       2       0.5450216       120.3813
2009    6       3       0.5983334       128.8137
2009    6       4       0.6792967       140.7499
2009    6       5       0.7045795       144.166
2009    6       6       0.6926057       142.4335
2009    6       7       0.6564492       137.3952
2009    7       0       0.670955        139.2475
2009    7       1       0.6771438       139.8407
2009    7       2       0.6676188       138.4915
2009    7       3       0.6870118       141.2239
2009    7       4       0.7097808       144.7359
2009    7       5       0.7674898       152.3946
2009    7       6       0.7315302       147.7969
2009    7       7       0.7202824       146.3209
2009    8       0       0.6496355       136.6732
2009    8       1       0.6349493       134.4347
2009    8       2       0.7110408       144.9759
2009    8       3       0.7664529       152.3466
2009    8       4       0.7438466       149.4967
2009    8       5       0.7061865       144.6163
2009    8       6       0.8517473       162.504
2009    8       7       0.8393185       160.7827
2009    9       0       0.7290944       147.5719
2009    9       1       0.6939874       143.1238
2009    9       2       0.7340613       148.4064
2009    9       3       0.8029025       157.2195
2009    9       4       0.8324596       160.6381
2009    9       5       0.8215622       159.436
2009    9       6       0.7588522       151.7677
2009    9       7       0.7409073       149.351
2009    10      0       0.7241701       147.22
2009    10      1       0.6848688       141.9252
2009    10      2       0.6383715       135.4747
2009    10      3       0.6534812       137.7214
2009    10      4       0.6240417       133.5373
2009    10      5       0.5599742       124.1428
2009    10      6       0.4413986       103.7562
2009    10      7       0.4683514       108.7043
2009    11      0       0.4833466       111.2341
2009    11      1       0.4900729       112.0895
2009    11      2       0.4886906       111.8539
2009    11      3       0.4730868       109.4046
2009    11      4       0.4327417       102.5977
2009    11      5       0.3841371       93.92695
2009    11      6       0.3715072       91.66213
2009    11      7       0.3607509       89.62896
2009    12      0       0.3334249       84.40025
2009    12      1       0.3333025       84.33549
2009    12      2       0.3980033       96.81166
2009    12      3       0.4330873       103.1108
2009    12      4       0.4300592       102.74
2009    12      5       0.3988519       97.18802
2009    12      6       0.3418188       86.44696
2009    12      7       0.3420076       86.34748
2009    13      0       0.362436        90.1943
2009    13      1       0.3771085       92.99606
2009    13      2       0.4628543       108.5103
2009    13      3       0.5190719       118.0879
2009    13      4       0.5614014       124.8106
2009    13      5       0.5276333       119.0688
2009    13      6       0.4323042       102.6987
2009    13      7       0.3929536       95.61798
2009    14      0       0.402677        97.36899
2009    14      1       0.3613768       89.31502
2009    14      2       0.3100246       79.20412
2009    14      3       0.2365897       63.71976
2009    14      4       0.199257        55.51096
2009    14      5       0.1833316       51.95705
2009    14      6       0.2036812       56.56652
2009    14      7       0.2489737       66.48598
2009    15      0       0.24839         66.23683
2009    15      1       0.2527113       67.07256
2009    15      2       0.2720665       71.20179
2009    15      3       0.2781213       72.53516
2009    15      4       0.3374237       84.77244
2009    15      5       0.3941773       95.61845
2009    15      6       0.3750641       91.80999
2009    15      7       0.3650347       89.56356
2009    16      0       0.3819394       92.30298
2009    16      1       0.4115353       97.36963
2009    16      2       0.4264273       100.1594
2009    16      3       0.4320134       101.4759
2009    16      4       0.4333414       102.0284
2009    16      5       0.3948161       95.26793
2009    16      6       0.3598858       88.67801
2009    16      7       0.3306104       82.94166
2009    17      0       0.3090094       78.75533
2009    17      1       0.326864        82.3476
2009    17      2       0.331459        83.19354
2009    17      3       0.3096049       79.02632
2009    17      4       0.3128091       79.87202
2009    17      5       0.2986144       77.09877
2009    17      6       0.2885303       75.04522
2009    17      7       0.2830977       73.85614
2009    18      0       0.2824705       73.64791
2009    18      1       0.2713833       71.20229
2009    18      2       0.2623093       69.26774
2009    18      3       0.2488784       66.5329
2009    18      4       0.2583524       68.81857
2009    18      5       0.296601        77.06576
2009    18      6       0.3116278       80.14117
2009    18      7       0.3032441       78.24427
2009    19      0       0.282601        73.9176
2009    19      1       0.3083749       79.27274
2009    19      2       0.3287345       83.24511
2009    19      3       0.320773        81.76092
2009    19      4       0.3180263       81.36027
2009    19      5       0.3252876       82.86046
2009    19      6       0.3335246       84.46016
2009    19      7       0.3628143       90.02291
2009    20      0       0.3824401       93.61292
2009    20      1       0.4142697       99.35441
2009    20      2       0.41443         99.35099
2009    20      3       0.4693238       109.0509
2009    20      4       0.512915        116.3761
2009    20      5       0.4975216       113.889
2009    20      6       0.5083683       115.8427
2009    20      7       0.5603437       124.3948
2009    21      0       0.6066385       131.8325
2009    21      1       0.63342         135.7338
2009    21      2       0.6598633       139.2766
2009    21      3       0.7319621       149.0968
2009    21      4       0.781548        155.2769
2009    21      5       0.8008404       157.3195
2009    21      6       0.7522044       151.545
2009    21      7       0.7968973       157.4034
2009    22      0       0.7275516       148.4873
2009    22      1       0.6789911       141.7427
2009    22      2       0.7155871       146.678
2009    22      3       0.7857296       156.0629
2009    22      4       0.7788312       155.4805
2009    22      5       0.7568531       152.5805
2009    22      6       0.862995        165.1238
2009    22      7       0.8239309       160.4744
2009    23      0       0.7377226       150.0757
2009    23      1       0.7101183       146.542
2009    23      2       0.7633765       153.3279
2009    23      3       0.7903411       156.7097
2009    23      4       0.7425545       150.8924
2009    23      5       0.7442745       151.1288
2009    23      6       0.8508592       163.5652
2009    23      7       0.8683481       165.4246
2009    24      0       0.8176973       159.8675
2009    24      1       0.7913467       156.8477
2009    24      2       0.7492822       151.2793
2009    24      3       0.755466        152.0618
2009    24      4       0.7296547       149.207
2009    24      5       0.6992229       145.5067
2009    24      6       0.6447668       137.4976
2009    24      7       0.684263        142.2925
2009    25      0       0.6225563       133.168
2009    25      1       0.5291464       118.6833
2009    25      2       0.527681        118.6229
2009    25      3       0.5557346       123.1141
2009    25      4       0.509822        115.8206
2009    25      5       0.4858886       111.8188
2009    25      6       0.5432865       121.0555
2009    25      7       0.6773935       140.8426
2009    26      0       0.7220394       146.8189
2009    26      1       0.663362        138.6839
2009    26      2       0.6339711       134.5051
2009    26      3       0.6347118       134.6067
2009    26      4       0.6633456       138.9427
2009    26      5       0.6362367       135.3014
2009    26      6       0.6229568       133.2693
2009    26      7       0.6447671       136.2271
2009    27      0       0.6506088       137.0829
2009    27      1       0.6278047       133.6888
2009    27      2       0.6711933       139.8331
2009    27      3       0.7627794       152.0336
2009    27      4       0.858081        163.6584
2009    27      5       0.9110952       169.9998
2009    27      6       0.8540901       163.6413
2009    27      7       0.823027        160.1467
2009    28      0       0.7496885       151.32
2009    28      1       0.6770683       141.4859
2009    28      2       0.7274239       148.2898
2009    28      3       0.7419935       150.5141
2009    28      4       0.715775        147.0977
2009    28      5       0.5762995       127.0343
2009    28      6       0.4080748       98.50758
2009    28      7       0.3754297       92.1917
2009    29      0       0.4013443       97.04912
2009    29      1       0.3585217       88.95227
2009    29      2       0.3456102       86.44883
2009    29      3       0.4317577       102.6367
2009    29      4       0.4324906       102.9447
2009    29      5       0.398058        96.7635
2009    29      6       0.3684092       91.30531
2009    29      7       0.3208181       82.0493
2009    30      0       0.302765        78.43455
2009    30      1       0.2995807       77.73748
2009    30      2       0.2936417       76.45
2009    30      3       0.3353645       85.01541
2009    30      4       0.3662379       90.99196
2009    30      5       0.3477044       87.47412
2009    30      6       0.347402        87.34359
2009    30      7       0.3683469       91.18032
2009    31      0       0.3156341       80.75065
2009    31      1       0.287757        74.86393
2009    31      2       0.3417179       85.69555
2009    31      3       0.3382314       84.92507
2009    31      4       0.2370564       63.81205
2009    31      5       0.2214029       60.31584
2009    31      6       0.2559036       67.87206
2009    31      7       0.2717254       71.14779
2010    1       0       0.1748049       49.47341
2010    1       1       0.1627186       46.54678
2010    1       2       0.1827973       51.27655
2010    1       3       0.1887205       52.72123
2010    1       4       0.1996548       55.29116
2010    1       5       0.2080867       57.28155
2010    1       6       0.2140681       58.6483
2010    1       7       0.2200851       59.88907
2010    2       0       0.2152768       58.80279
2010    2       1       0.2171583       59.24064
2010    2       2       0.2040993       56.31461
2010    2       3       0.2187782       59.65366
2010    2       4       0.2277166       61.83186
2010    2       5       0.2243074       61.21701
2010    2       6       0.2130006       58.71971
2010    2       7       0.2286155       62.04315
2010    3       0       0.2221385       60.61213
2010    3       1       0.2084515       57.57699
2010    3       2       0.226669        61.76162
2010    3       3       0.2564154       68.2442
2010    3       4       0.2720473       71.62007
2010    3       5       0.2623328       69.58207
2010    3       6       0.2386074       64.5638
2010    3       7       0.2808129       73.44582
2010    4       0       0.2908702       75.56403
2010    4       1       0.2988073       77.23542
2010    4       2       0.3423698       86.1585
2010    4       3       0.3696255       91.67998
2010    4       4       0.3212943       82.29992
2010    4       5       0.2669096       70.89517
2010    4       6       0.2420317       65.2885
2010    4       7       0.2418752       65.10827
2010    5       0       0.2580581       68.54681
2010    5       1       0.289748        75.18331
2010    5       2       0.3012994       77.61056
2010    5       3       0.2846728       74.34609
2010    5       4       0.3051984       78.66179
2010    5       5       0.3052979       78.66928
2010    5       6       0.283797        74.14527
2010    5       7       0.2473197       66.28722
2010    6       0       0.1910382       53.60403
2010    6       1       0.1702212       48.65644
2010    6       2       0.1864123       52.43646
2010    6       3       0.2242354       61.02717
2010    6       4       0.2667494       70.34775
2010    6       5       0.286202        74.52869
2010    6       6       0.2932852       76.02614
2010    6       7       0.2821448       73.67044
2010    7       0       0.2734095       71.7766
2010    7       1       0.2743485       71.85176
2010    7       2       0.2400832       64.57898
2010    7       3       0.2464367       66.06876
2010    7       4       0.2640672       70.05665
2010    7       5       0.2726263       71.9499
2010    7       6       0.2594807       69.21675
2010    7       7       0.2735464       72.14434
2010    8       0       0.2570806       68.56778
2010    8       1       0.2429349       65.4682
2010    8       2       0.2626289       69.69309
2010    8       3       0.2643283       70.10439
2010    8       4       0.2275251       62.11886
2010    8       5       0.1994925       55.6022
2010    8       6       0.2037016       56.44222
2010    8       7       0.2315884       62.61084
2010    9       0       0.2359293       63.42472
2010    9       1       0.1712091       48.63363
2010    9       2       0.1408722       41.49015
2010    9       3       0.1422102       41.892
2010    9       4       0.1696446       48.56397
2010    9       5       0.211453        58.37976
2010    9       6       0.2541346       67.93544
2010    9       7       0.2952621       76.57662
2010    10      0       0.3177398       81.24511
2010    10      1       0.2234001       60.83782
2010    10      2       0.2014447       55.88262
2010    10      3       0.1977689       55.13532
2010    10      4       0.1849199       52.14883
2010    10      5       0.153512        44.69336
2010    10      6       0.1333591       39.67798
2010    10      7       0.1377178       40.6228
2010    11      0       0.1685365       47.80442
2010    11      1       0.2259684       60.74903
2010    11      2       0.2602698       68.16576
2010    11      3       0.260863        68.34013
2010    11      4       0.2782729       72.37706
2010    11      5       0.3377593       84.91739
2010    11      6       0.3566494       88.55008
2010    11      7       0.3533841       87.82723
2010    12      0       0.3466794       86.63231
2010    12      1       0.3594074       89.15081
2010    12      2       0.3868961       94.59477
2010    12      3       0.3692701       90.87527
2010    12      4       0.3194901       81.18652
2010    12      5       0.2777888       72.7627
2010    12      6       0.2352139       63.57359
2010    12      7       0.2154905       59.29467
2010    13      0       0.2140673       58.88656
2010    13      1       0.2106854       57.93161
2010    13      2       0.2346674       63.40762
2010    13      3       0.2257152       61.28114
2010    13      4       0.201815        55.94137
2010    13      5       0.1887583       53.05971
2010    13      6       0.2412537       65.2329
2010    13      7       0.2666914       71.01789
2010    14      0       0.279879        73.59441
2010    14      1       0.3301549       83.4636
2010    14      2       0.3348468       84.22559
2010    14      3       0.3282262       82.89539
2010    14      4       0.3653922       90.21806
2010    14      5       0.3533857       87.77083
2010    14      6       0.3590601       88.71514
2010    14      7       0.3855926       93.68557
2010    15      0       0.4086302       97.79946
2010    15      1       0.4484138       104.5756
2010    15      2       0.4637194       107.0877
2010    15      3       0.4918349       112.1489
2010    15      4       0.4793508       110.1304
2010    15      5       0.4092921       97.29398
2010    15      6       0.4014342       95.79542
2010    15      7       0.4306014       101.1614
2010    16      0       0.4505657       104.636
2010    16      1       0.4535852       105.1574
2010    16      2       0.4704959       108.0655
2010    16      3       0.5215846       116.6645
2010    16      4       0.5262892       117.3213
2010    16      5       0.5247182       116.9589
2010    16      6       0.4885932       110.9946
2010    16      7       0.4678407       107.5548
2010    17      0       0.4672105       107.5728
2010    17      1       0.4882655       111.1039
2010    17      2       0.4896464       111.2374
2010    17      3       0.4750198       108.8141
2010    17      4       0.4956803       112.5512
2010    17      5       0.5070831       114.7485
2010    17      6       0.4996974       113.7948
2010    17      7       0.4922876       112.4584
2010    18      0       0.4863758       111.7196
2010    18      1       0.4741691       109.9599
2010    18      2       0.4442851       104.5062
2010    18      3       0.4918468       112.6584
2010    18      4       0.4768784       110.3708
2010    18      5       0.4340629       103.0064
2010    18      6       0.4021915       97.20824
2010    18      7       0.3903177       94.95868
2010    19      0       0.4191713       100.1907
2010    19      1       0.4169673       99.69806
2010    19      2       0.4337053       102.749
2010    19      3       0.4609743       107.7976
2010    19      4       0.4961314       113.9953
2010    19      5       0.5389843       121.0344
2010    19      6       0.5219302       118.234
2010    19      7       0.4762796       110.7664
2010    20      0       0.4461352       105.7048
2010    20      1       0.4152857       100.1576
2010    20      2       0.444112        105.3353
2010    20      3       0.5701999       126.3461
2010    20      4       0.6557144       139.3758
2010    20      5       0.6747015       142.248
2010    20      6       0.725991        149.0698
2010    20      7       0.7391888       150.885
2010    21      0       0.6572093       139.8674
2010    21      1       0.6130327       133.3998
2010    21      2       0.5578753       124.9321
2010    21      3       0.6180676       134.042
2010    21      4       0.6762046       142.7993
2010    21      5       0.6865527       144.7309
2010    21      6       1.061783        189.5983
2010    21      7       1.054843        188.0677
2010    22      0       0.6225883       134.4875
2010    22      1       0.5440752       122.2211
2010    22      2       0.5774908       127.3667
2010    22      3       0.5743487       126.9531
2010    22      4       0.4664657       109.3949
2010    22      5       0.3814702       94.00753
2010    22      6       0.3450704       86.79503
2010    22      7       0.3863638       94.41803
2010    23      0       0.4536241       106.5405
2010    23      1       0.4709617       109.6095
2010    23      2       0.5278642       119.018
2010    23      3       0.5846057       127.8001
2010    23      4       0.5428622       121.4739
2010    23      5       0.4388292       103.9952
2010    23      6       0.3964387       96.10493
2010    23      7       0.4244914       100.9093
2010    24      0       0.4149891       99.14218
2010    24      1       0.4149862       99.00174
2010    24      2       0.4698455       108.4452
2010    24      3       0.4950324       112.9089
2010    24      4       0.510018        115.4659
2010    24      5       0.4961781       113.089
2010    24      6       0.5070014       114.7208
2010    24      7       0.5449848       120.5682
2010    25      0       0.6446628       135.5233
2010    25      1       0.7488324       149.6271
2010    25      2       0.7250226       146.1919
2010    25      3       0.7571092       150.5055
2010    25      4       0.7127896       145.0787
2010    25      5       0.6984232       143.211
2010    25      6       0.7839799       154.5951
2010    25      7       0.6903722       142.3966
2010    26      0       0.8864825       168.1261
2010    26      1       0.5439778       120.8692
2010    26      2       0.568226        125.016
2010    26      3       0.6197216       132.9999
2010    26      4       0.6932011       143.4505
2010    26      5       0.7649252       152.791
2010    26      6       0.643047        136.5013
2010    26      7       0.5295626       119.478
2010    27      0       0.5184195       117.5509
2010    27      1       0.4499902       105.4609
2010    27      2       0.3992814       96.19175
2010    27      3       0.4255355       101.5355
2010    27      4       0.4875617       112.64
2010    27      5       0.5435626       121.8815
2010    27      6       0.558708        124.4175
2010    27      7       0.4692054       109.8838
2010    28      0       0.3859565       94.29245
2010    28      1       0.3382804       84.88796
2010    28      2       0.2740187       71.70746
2010    28      3       0.2770947       72.48591
2010    28      4       0.3408666       85.55626
2010    28      5       0.4054111       98.02778
2010    28      6       0.4000156       97.11089
2010    28      7       0.2754361       72.25257
2010    29      0       0.2286141       61.7753
2010    29      1       0.1697618       48.30496
2010    29      2       0.1740167       49.32784
2010    29      3       0.2697355       70.88238
2010    29      4       0.3296292       83.2292
2010    29      5       0.3623409       89.62012
2010    29      6       0.3825676       93.53373
2010    29      7       0.3830581       93.80354
2010    30      0       0.4068179       97.90291
2010    30      1       0.4062955       97.58964
2010    30      2       0.4104678       98.25451
2010    30      3       0.4241855       100.6297
2010    30      4       0.4152          99.54737
2010    30      5       0.2859388       73.93951
2010    30      6       0.3172961       80.13735
2010    30      7       0.3703922       90.76697
2010    31      0       0.3302902       82.88709
2010    31      1       0.2836197       73.38911
2010    31      2       0.198354        54.92227
2010    31      3       0.1930696       53.91122
2010    31      4       0.191232        53.50437
2010    31      5       0.1936233       53.93288
2010    31      6       0.2167818       59.05395
2010    31      7       0.1798684       50.60122
2011    1       0       0.104165        32.40373
2011    1       1       0.1426247       41.89691
2011    1       2       0.189258        53.08914
2011    1       3       0.1814404       51.3329
2011    1       4       0.165295        47.61903
2011    1       5       0.1586221       46.07345
2011    1       6       0.1637109       47.28408
2011    1       7       0.1774415       50.43856
2011    2       0       0.1950969       54.52117
2011    2       1       0.1974857       55.02332
2011    2       2       0.2562321       68.06801
2011    2       3       0.2123953       58.46193
2011    2       4       0.1887499       53.07802
2011    2       5       0.2162246       59.28507
2011    2       6       0.2387932       64.29825
2011    2       7       0.2409188       64.64979
2011    3       0       0.2303331       62.23577
2011    3       1       0.2192926       59.6974
2011    3       2       0.2021071       55.77266
2011    3       3       0.2158343       58.9161
2011    3       4       0.2489805       66.2087
2011    3       5       0.2936508       75.61002
2011    3       6       0.3435542       85.60929
2011    3       7       0.3382039       84.70497
2011    4       0       0.343717        85.93311
2011    4       1       0.3463081       86.46403
2011    4       2       0.4072908       98.21085
2011    4       3       0.4796933       110.8542
2011    4       4       0.505413        115.1332
2011    4       5       0.4658259       108.3478
2011    4       6       0.4029557       96.99591
2011    4       7       0.3451063       85.95543
2011    5       0       0.2821783       73.32057
2011    5       1       0.2615981       68.88718
2011    5       2       0.2898075       74.67585
2011    5       3       0.303441        77.49014
2011    5       4       0.3056237       78.10897
2011    5       5       0.2801149       72.93018
2011    5       6       0.2705873       70.92974
2011    5       7       0.2778583       72.42793
2011    6       0       0.2904118       75.00405
2011    6       1       0.612744        133.0631
2011    6       2       0.3878349       94.41783
2011    6       3       0.4904992       112.8259
2011    6       4       0.5325393       119.8954
2011    6       5       0.4812377       111.5127
2011    6       6       0.3942052       96.09086
2011    6       7       0.3541678       88.73688
2011    7       0       0.3756464       92.82155
2011    7       1       0.4062536       98.28922
2011    7       2       0.510316        116.2776
2011    7       3       0.6258691       133.9722
2011    7       4       0.6637858       138.9936
2011    7       5       0.5861379       127.8076
2011    7       6       0.5839495       127.5554
2011    7       7       0.6217904       133.0125
2011    8       0       0.5838701       127.6721
2011    8       1       0.5376775       120.2209
2011    8       2       0.5402422       120.0601
2011    8       3       0.567437        123.8333
2011    8       4       0.5500382       120.8056
2011    8       5       0.5380502       119.0543
2011    8       6       0.5421274       120.0182
2011    8       7       0.691261        141.1975
2011    9       0       0.6537477       136.4627
2011    9       1       0.6188121       131.2478
2011    9       2       0.6288555       132.9783
2011    9       3       0.6230341       132.4044
2011    9       4       0.5224264       116.8743
2011    9       5       0.4886339       111.2995
2011    9       6       0.4828063       110.5438
2011    9       7       0.5161222       116.0627
2011    10      0       0.5015022       113.3687
2011    10      1       0.485326        110.8388
2011    10      2       0.5201684       117.4062
2011    10      3       0.4634242       107.8472
2011    10      4       0.3961828       95.71217
2011    10      5       0.400257        96.61123
2011    10      6       0.3978661       96.34928
2011    10      7       0.4024932       97.29067
2011    11      0       0.3914716       95.14793
2011    11      1       0.3649921       90.06692
2011    11      2       0.388126        94.32131
2011    11      3       0.4212774       100.2225
2011    11      4       0.4307853       101.765
2011    11      5       0.4393155       103.191
2011    11      6       0.4879762       111.5588
2011    11      7       0.5204652       116.8676
2011    12      0       0.5317274       118.6463
2011    12      1       0.5120883       115.3147
2011    12      2       0.5583777       122.7513
2011    12      3       0.5505546       121.4711
2011    12      4       0.4621255       107.108
2011    12      5       0.3922148       94.59474
2011    12      6       0.3558925       87.87413
2011    12      7       0.353578        87.47717
2011    13      0       0.355268        87.91362
2011    13      1       0.398954        96.1148
2011    13      2       0.5164403       116.6654
2011    13      3       0.5220402       117.7833
2011    13      4       0.495001        113.6601
2011    13      5       0.4545943       106.9209
2011    13      6       0.3972155       96.69382
2011    13      7       0.3732587       92.09897
2011    14      0       0.3645586       90.29616
2011    14      1       0.3552127       88.47388
2011    14      2       0.4136555       99.57837
2011    14      3       0.4677316       108.6782
2011    14      4       0.4556974       106.5564
2011    14      5       0.4469369       105.2245
2011    14      6       0.4549197       106.7503
2011    14      7       0.4517888       106.1474
2011    15      0       0.4514537       106.226
2011    15      1       0.4312161       102.7377
2011    15      2       0.4725811       110.1303
2011    15      3       0.5270464       119.2004
2011    15      4       0.5393536       121.2324
2011    15      5       0.5217218       118.3121
2011    15      6       0.5698629       126.6753
2011    15      7       0.5420848       121.7263
2011    16      0       0.5545211       124.1365
2011    16      1       0.531703        120.5604
2011    16      2       0.5373592       121.6049
2011    16      3       0.4741543       110.8819
2011    16      4       0.3392184       85.95448
2011    16      5       0.2794857       73.64448
2011    16      6       0.2920763       76.04077
2011    16      7       0.3514071       87.58747
2011    17      0       0.4152923       99.46306
2011    17      1       0.4732292       109.4803
2011    17      2       0.5537201       122.774
2011    17      3       0.6528406       137.4309
2011    17      4       0.6993416       143.7413
2011    17      5       0.7351798       148.4743
2011    17      6       0.8361134       160.7641
2011    17      7       0.8066007       157.7694
2011    18      0       0.7318253       148.3506
2011    18      1       0.6989318       143.6948
2011    18      2       0.6595967       138.1501
2011    18      3       0.6736475       140.3276
2011    18      4       0.6795499       141.201
2011    18      5       0.7602236       151.9195
2011    18      6       0.8259998       159.868
2011    18      7       0.8264785       160.0796
2011    19      0       0.8735632       165.189
2011    19      1       0.8516223       162.4339
2011    19      2       0.8786974       165.8023
2011    19      3       1.038813        182.4556
2011    19      4       1.200794        196.7015
2011    19      5       1.093459        187.0703
2011    19      6       0.8480404       162.0972
2011    19      7       0.7956892       155.6938
2011    20      0       0.8018237       156.8044
2011    20      1       0.8528449       163.1763
2011    20      2       0.9886747       177.2711
2011    20      3       1.178595        194.4916
2011    20      4       0.9302811       171.4522
2011    20      5       0.8452282       162.1714
2011    20      6       0.7708          152.6918
2011    20      7       0.7409393       148.2001
2011    21      0       0.7319634       147.1978
2011    21      1       0.7287366       147.018
2011    21      2       0.7348095       147.895
2011    21      3       0.7137156       145.5621
2011    21      4       0.6808816       141.5665
2011    21      5       0.6444514       136.5542
2011    21      6       0.6438795       136.198
2011    21      7       0.650634        136.8671
2011    22      0       0.628399        133.6387
2011    22      1       0.613569        131.3235
2011    22      2       0.6124031       130.9838
2011    22      3       0.5969923       128.7654
2011    22      4       0.671309        139.5552
2011    22      5       0.8052679       157.0279
2011    22      6       0.7559798       150.9565
2011    22      7       0.6421366       135.4229
2011    23      0       0.5369533       119.5875
2011    23      1       0.5585907       122.5801
2011    23      2       0.5953029       127.7642
2011    23      3       0.6296503       132.7207
2011    23      4       0.6573718       137.0071
2011    23      5       0.6620579       137.9041
2011    23      6       0.7648029       151.3337
2011    23      7       0.8248832       158.9842
2011    24      0       0.7598612       151.2335
2011    24      1       0.7113572       144.8913
2011    24      2       0.7667264       152.47
2011    24      3       0.8317443       160.3601
2011    24      4       0.920597        170.3172
2011    24      5       0.7946067       156.306
2011    24      6       0.6846963       142.1204
2011    24      7       0.7754022       153.9711
2011    25      0       0.7772507       154.1401
2011    25      1       0.7623106       152.1243
2011    25      2       0.771298        153.8716
2011    25      3       0.8043794       158.5994
2011    25      4       0.8073587       159.2446
2011    25      5       0.6939653       144.7265
2011    25      6       0.6063683       132.4777
2011    25      7       0.5793338       128.432
2011    26      0       0.501161        115.7436
2011    26      1       0.4931956       114.1615
2011    26      2       0.5458979       122.8305
2011    26      3       0.5695563       126.5239
2011    26      4       0.5085154       116.9255
2011    26      5       0.4212335       101.8154
2011    26      6       0.4351345       104.1331
2011    26      7       0.4461547       106.2241
2011    27      0       0.4985685       115.4966
2011    27      1       0.5615567       125.6231
2011    27      2       0.6303484       136.4526
2011    27      3       0.7636042       155.6797
2011    27      4       0.8911055       171.4752
2011    27      5       0.9965937       182.3984
2011    27      6       0.9546793       177.7566
2011    27      7       0.9062891       172.9794
2011    28      0       0.8371674       164.7636
2011    28      1       0.8074288       160.8258
2011    28      2       0.8169042       161.7818
2011    28      3       0.7804279       157.074
2011    28      4       0.7205728       149.4167
2011    28      5       0.6950058       145.5947
2011    28      6       0.7921214       157.3545
2011    28      7       0.9136526       171.1273
2011    29      0       1.022058        182.1486
2011    29      1       0.9812014       178.1858
2011    29      2       0.9104926       170.696
2011    29      3       0.8368409       162.0115
2011    29      4       0.687586        142.7332
2011    29      5       0.6895232       142.1863
2011    29      6       0.7406915       149.4654
2011    29      7       0.6212723       133.4645
2011    30      0       0.5481909       122.3774
2011    30      1       0.5664006       125.0064
2011    30      2       0.6269056       134.2879
2011    30      3       0.681821        142.3289
2011    30      4       0.7524585       151.8556
2011    30      5       0.8022953       157.9535
2011    30      6       0.848212        163.5113
2011    30      7       0.856702        164.9427
2011    31      0       0.8730867       166.7317
2011    31      1       0.8409623       162.3694
2011    31      2       0.7921669       156.7688
2011    31      3       0.7564239       152.8022
2011    31      4       0.7605748       153.6659
2011    31      5       0.7141299       147.4537
2011    31      6       0.6690908       141.304
2011    31      7       0.6999981       146.442
2012    1       0       0.3161818       79.25767
2012    1       1       0.3069951       77.2816
2012    1       2       0.2872887       73.24976
2012    1       3       0.262676        68.23646
2012    1       4       0.2624434       68.02078
2012    1       5       0.248213        65.19155
2012    1       6       0.2406923       63.77975
2012    1       7       0.2397032       63.60857
2012    2       0       0.2345622       62.44227
2012    2       1       0.2095024       57.03354
2012    2       2       0.2228653       60.09968
2012    2       3       0.2312151       61.79211
2012    2       4       0.2122853       57.4852
2012    2       5       0.2126419       57.51689
2012    2       6       0.2426826       64.19805
2012    2       7       0.2969774       75.50648
2012    3       0       0.3504818       85.86669
2012    3       1       0.4774147       108.0586
2012    3       2       0.5998428       127.2196
2012    3       3       0.767579        149.6527
2012    3       4       0.8174478       155.7917
2012    3       5       0.7141838       143.2168
2012    3       6       0.6981136       141.5945
2012    3       7       0.6670824       137.3313
2012    4       0       0.7069219       143.7268
2012    4       1       0.6019106       128.2152
2012    4       2       0.4618192       106.0051
2012    4       3       0.2733883       70.71621
2012    4       4       0.2552589       66.63357
2012    4       5       0.3332042       82.69397
2012    4       6       0.3568645       87.62888
2012    4       7       0.3393047       84.25941
2012    5       0       0.3209515       80.52398
2012    5       1       0.2976728       75.68567
2012    5       2       0.2673157       69.47339
2012    5       3       0.2615939       68.42331
2012    5       4       0.2669806       69.80097
2012    5       5       0.2670174       69.95969
2012    5       6       0.2673155       70.08509
2012    5       7       0.2739451       71.48286
2012    6       0       0.2757296       71.89073
2012    6       1       0.2762227       71.91071
2012    6       2       0.315277        80.11869
2012    6       3       0.3109607       79.3233
2012    6       4       0.2834823       73.86903
2012    6       5       0.2529043       67.49197
2012    6       6       0.2507052       67.00795
2012    6       7       0.2651886       70.02367
2012    7       0       0.2768155       72.46341
2012    7       1       0.3072978       78.62606
2012    7       2       0.3778833       92.48403
2012    7       3       0.4260528       101.4589
2012    7       4       0.461266        107.6832
2012    7       5       0.4788994       110.5361
2012    7       6       0.5135626       116.2226
2012    7       7       0.543432        121.2629
2012    8       0       0.5522065       122.9597
2012    8       1       0.5504158       122.7273
2012    8       2       0.5947807       129.6556
2012    8       3       0.6694732       140.3215
2012    8       4       0.6480926       137.0967
2012    8       5       0.4912232       112.4652
2012    8       6       0.7043782       146.0291
2012    8       7       0.4250951       100.7518
2012    9       0       0.4930611       112.414
2012    9       1       0.4990614       113.2235
2012    9       2       0.5359576       119.2706
2012    9       3       0.5180528       116.4359
2012    9       4       0.5834826       127.2398
2012    9       5       0.6204742       132.9111
2012    9       6       0.6198105       132.6236
2012    9       7       0.6074057       130.5638
2012    10      0       0.6297491       133.5586
2012    10      1       0.6679934       138.7269
2012    10      2       0.6852719       140.9229
2012    10      3       0.6622968       138.1793
2012    10      4       0.7278732       147.6122
2012    10      5       0.7548863       151.1461
2012    10      6       0.6246859       133.36
2012    10      7       0.5310713       119.129
2012    11      0       0.4793107       110.5119
2012    11      1       0.4633352       107.6907
2012    11      2       0.4233062       100.6781
2012    11      3       0.4347788       102.7186
2012    11      4       0.4526096       105.9434
2012    11      5       0.4806062       110.7845
2012    11      6       0.5232536       117.8492
2012    11      7       0.5596259       123.7624
2012    12      0       0.5673056       125.042
2012    12      1       0.5350367       119.8331
2012    12      2       0.5240971       118.1554
2012    12      3       0.6148678       131.8654
2012    12      4       0.6943572       142.8209
2012    12      5       0.7143082       145.4177
2012    12      6       0.6197774       132.3169
2012    12      7       0.59048         128.1656
2012    13      0       0.5645928       124.3156
2012    13      1       0.4795446       110.5628
2012    13      2       0.4589014       106.9975
2012    13      3       0.4994704       113.7204
2012    13      4       0.555667        122.7796
2012    13      5       0.5884832       127.7681
2012    13      6       0.5575824       123.1103
2012    13      7       0.4904227       112.5002
2012    14      0       0.4295013       102.098
2012    14      1       0.3983552       96.49452
2012    14      2       0.4116296       98.96204
2012    14      3       0.4878466       111.7672
2012    14      4       0.4986725       113.5286
2012    14      5       0.4736054       109.1798
2012    14      6       0.4409402       103.36
2012    14      7       0.4102584       97.89829
2012    15      0       0.3971551       95.59954
2012    15      1       0.3899519       94.38282
2012    15      2       0.5051144       115.0336
2012    15      3       0.6799513       141.7362
2012    15      4       0.8318477       160.4949
2012    15      5       1.023875        180.4757
2012    15      6       0.9337011       172.0305
2012    15      7       0.731514        148.4912
2012    16      0       0.6582357       138.4893
2012    16      1       0.7336287       148.4279
2012    16      2       0.7472972       150.1279
2012    16      3       0.8040707       157.3885
2012    16      4       0.7493214       150.8282
2012    16      5       0.6871743       142.5977
2012    16      6       0.6839796       142.2924
2012    16      7       0.6104242       131.9102
2012    17      0       0.5457543       121.5816
2012    17      1       0.5336774       119.5081
2012    17      2       0.5277933       118.6971
2012    17      3       0.5704741       125.62
2012    17      4       0.6449451       136.5767
2012    17      5       0.7363737       148.7652
2012    17      6       0.7420771       149.5352
2012    17      7       0.6882687       142.517
2012    18      0       0.6213177       132.8129
2012    18      1       0.5659682       124.2588
2012    18      2       0.6338688       134.7315
2012    18      3       0.7815837       154.7321
2012    18      4       0.8782081       166.194
2012    18      5       1.010822        180.0664
2012    18      6       1.047505        183.0932
2012    18      7       0.8612621       164.1662
2012    19      0       0.7079214       145.1627
2012    19      1       0.7048872       144.3822
2012    19      2       0.6994283       143.6707
2012    19      3       0.6434578       136.1177
2012    19      4       0.5611129       124.1688
2012    19      5       0.4978181       114.1463
2012    19      6       0.4817422       111.4241
2012    19      7       0.4922032       113.1294
2012    20      0       0.456326        106.9836
2012    20      1       0.4494507       105.7503
2012    20      2       0.4040615       97.82802
2012    20      3       0.4726101       110.2306
2012    20      4       0.5471079       122.3233
2012    20      5       0.5304892       119.5954
2012    20      6       0.5270501       118.9427
2012    20      7       0.6644566       140.4673
2012    21      0       0.6026009       131.0788
2012    21      1       0.6055557       131.136
2012    21      2       0.5835913       127.6976
2012    21      3       0.6359199       135.8436
2012    21      4       0.807085        158.2614
2012    21      5       1.027805        181.6577
2012    21      6       0.7483147       151.0075
2012    21      7       0.575519        126.8401
2012    22      0       0.4505692       105.8426
2012    22      1       0.3996015       96.45371
2012    22      2       0.4213563       100.5434
2012    22      3       0.5344322       119.2655
2012    22      4       0.5981805       128.7509
2012    22      5       0.6596042       137.3939
2012    22      6       0.6317912       133.7292
2012    22      7       0.6262688       133.6091
2012    23      0       0.6217993       132.993
2012    23      1       0.6235573       133.2206
2012    23      2       0.6406204       135.9702
2012    23      3       0.7903545       156.1545
2012    23      4       1.070635        185.8559
2012    23      5       1.076731        186.336
2012    23      6       0.8726272       166.3287
2012    23      7       0.6593494       139.8533
2012    24      0       0.4951575       114.0009
2012    24      1       0.6023716       130.3424
2012    24      2       0.650485        137.9376
2012    24      3       0.8101132       158.9071
2012    24      4       1.144461        191.6049
2012    24      5       1.027061        181.028
2012    24      6       0.9771744       176.8589
2012    24      7       1.011667        180.1001
2012    25      0       0.9881655       177.4598
2012    25      1       0.858956        163.3579
2012    25      2       0.7014668       143.607
2012    25      3       0.5475996       121.7387
2012    25      4       0.6025367       129.769
2012    25      5       0.5508675       121.4166
2012    25      6       0.4375162       102.8734
2012    25      7       0.3531696       87.79435
2012    26      0       0.3149396       80.17135
2012    26      1       0.3114953       79.43142
2012    26      2       0.3164612       80.60076
2012    26      3       0.3480793       87.02788
2012    26      4       0.3789265       93.09581
2012    26      5       0.4082757       98.48061
2012    26      6       0.4353396       103.1583
2012    26      7       0.5166406       116.4902
2012    27      0       0.5605521       123.5262
2012    27      1       0.5667723       124.4998
2012    27      2       0.5861696       127.7464
2012    27      3       0.5645863       124.4396
2012    27      4       0.5829671       127.1631
2012    27      5       0.5610064       123.2451
2012    27      6       0.5307846       118.2024
2012    27      7       0.4935346       112.3264
2012    28      0       0.4492684       104.8883
2012    28      1       0.4267859       100.7868
2012    28      2       0.447705        104.3264
2012    28      3       0.4513616       104.7056
2012    28      4       0.5380273       119.3143
2012    28      5       0.6500573       136.2072
2012    28      6       0.6365758       134.2726
2012    28      7       0.5895752       127.6375
2012    29      0       0.5260366       118.0378
2012    29      1       0.5454967       121.0496
2012    29      2       0.6663471       138.9855
2012    29      3       0.796679        155.6642
2012    29      4       0.9827427       177.1362
2012    29      5       1.201526        196.9765
2012    29      6       0.6354676       135.1917
2012    29      7       0.8573204       163.2941
2012    30      0       0.7805161       154.3265
2012    30      1       0.6369626       135.1751
2012    30      2       0.6389928       135.4329
2012    30      3       0.6452759       136.4926
2012    30      4       0.7043473       144.633
2012    30      5       0.7423278       149.3242
2012    30      6       0.6927115       142.5015
2012    30      7       0.8234532       158.8775
2012    31      0       0.8885325       166.2105
2012    31      1       0.8590918       162.8607
2012    31      2       0.6278981       133.7349
2012    31      3       0.5196885       116.3985
2012    31      4       0.4554232       106.0439
2012    31      5       0.5265321       118.3655
2012    31      6       0.5381989       121.0917
2012    31      7       0.7067445       146.166
2013    1       0       0.3184275       81.35446
2013    1       1       0.2991325       77.34051
2013    1       2       0.2710082       71.2827
2013    1       3       0.267671        70.69051
2013    1       4       0.2530861       67.64034
2013    1       5       0.1807657       51.20253
2013    1       6       0.1308596       39.14332
2013    1       7       0.1430507       42.21782
2013    2       0       0.1254492       37.69715
2013    2       1       0.1288521       38.46334
2013    2       2       0.1730092       49.12528
2013    2       3       0.1926282       53.68911
2013    2       4       0.2238177       60.88388
2013    2       5       0.2700847       71.03531
2013    2       6       0.3435084       85.92112
2013    2       7       0.4637034       107.8359
2013    3       0       0.5474129       121.4654
2013    3       1       0.5884561       127.5396
2013    3       2       0.6615072       138.1468
2013    3       3       0.6923148       142.5132
2013    3       4       0.664197        138.9665
2013    3       5       0.6191427       132.61
2013    3       6       0.5387597       120.3925
2013    3       7       0.5127557       116.1031
2013    4       0       0.5094133       115.3945
2013    4       1       0.4874222       111.6407
2013    4       2       0.5118027       115.7813
2013    4       3       0.4908918       112.591
2013    4       4       0.4748348       110.0777
2013    4       5       0.4098794       98.6371
2013    4       6       0.3704964       91.18442
2013    4       7       0.370134        91.11428
2013    5       0       0.3501497       87.24837
2013    5       1       0.3501156       87.24239
2013    5       2       0.4006046       97.07228
2013    5       3       0.4485153       105.7405
2013    5       4       0.4314329       102.8
2013    5       5       0.3169372       81.00578
2013    5       6       0.2371363       64.20444
2013    5       7       0.2233228       61.12664
2013    6       0       0.2414515       65.07048
2013    6       1       0.2430181       65.37021
2013    6       2       0.2806553       73.56599
2013    6       3       0.3399103       85.74068
2013    6       4       0.344508        86.73841
2013    6       5       0.2792487       73.48387
2013    6       6       0.2457232       66.15447
2013    6       7       0.2272205       61.93402
2013    7       0       0.208184        57.73852
2013    7       1       0.1952099       54.75214
2013    7       2       0.2040465       56.75768
2013    7       3       0.2173319       59.7643
2013    7       4       0.2341212       63.65939
2013    7       5       0.2397116       65.01473
2013    7       6       0.2227433       61.29169
2013    7       7       0.2250237       61.75772
2013    8       0       0.2372554       64.37871
2013    8       1       0.2586179       68.93342
2013    8       2       0.295611        76.67461
2013    8       3       0.3127005       80.12645
2013    8       4       0.2942307       76.39882
2013    8       5       0.2718392       71.6317
2013    8       6       0.2596006       68.97626
2013    8       7       0.2589171       68.98729
2013    9       0       0.3001953       77.79962
2013    9       1       0.3468947       87.36634
2013    9       2       0.3992429       97.39077
2013    9       3       0.4340867       103.8473
2013    9       4       0.4564224       108.0128
2013    9       5       0.4941029       114.6066
2013    9       6       0.489004        113.7962
2013    9       7       0.4173267       100.9773
2013    10      0       0.3704291       92.05119
2013    10      1       0.3753276       92.81238
2013    10      2       0.400645        97.47494
2013    10      3       0.4249972       102.0381
2013    10      4       0.4451592       105.9692
2013    10      5       0.4529952       107.5743
2013    10      6       0.4404408       105.2979
2013    10      7       0.4602749       108.5699
2013    11      0       0.4423249       105.2888
2013    11      1       0.4258844       102.1693
2013    11      2       0.4074812       98.78087
2013    11      3       0.3986161       97.24759
2013    11      4       0.3948446       96.78152
2013    11      5       0.4002612       98.00602
2013    11      6       0.3973639       97.41188
2013    11      7       0.3872328       95.28724
2013    12      0       0.3484562       87.63578
2013    12      1       0.3259863       82.99871
2013    12      2       0.3362961       84.84351
2013    12      3       0.3631753       90.02355
2013    12      4       0.3927414       95.79434
2013    12      5       0.4233284       101.4707
2013    12      6       0.4745163       110.451
2013    12      7       0.8357724       163.3244
2013    13      0       0.8905796       169.4752
2013    13      1       0.5798791       127.0174
2013    13      2       0.6773          141.3515
2013    13      3       0.8047591       158.2127
2013    13      4       0.949172        174.8922
2013    13      5       0.9990167       180.5245
2013    13      6       0.9882696       180.0281
2013    13      7       0.7543113       152.5695
2013    14      0       0.6963412       144.8287
2013    14      1       0.6723525       141.402
2013    14      2       0.6192946       133.6252
2013    14      3       0.5925389       129.6439
2013    14      4       0.6292767       135.4055
2013    14      5       0.6326131       136.1658
2013    14      6       0.5802852       128.4705
2013    14      7       0.5727778       127.1703
2013    15      0       0.5468574       122.8485
2013    15      1       0.4914675       113.6178
2013    15      2       0.4422904       105.0567
2013    15      3       0.4363425       104.0843
2013    15      4       0.404101        98.43551
2013    15      5       0.3371364       85.54662
2013    15      6       0.2872959       75.21742
2013    15      7       0.2646669       70.29088
2013    16      0       0.2417177       65.23399
2013    16      1       0.2282462       62.19021
2013    16      2       0.2240001       61.15198
2013    16      3       0.2112845       58.23939
2013    16      4       0.2071347       57.3496
2013    16      5       0.2096279       58.02238
2013    16      6       0.2128646       58.7513
2013    16      7       0.2130516       58.75111
2013    17      0       0.2000438       55.69045
2013    17      1       0.2020993       55.92462
2013    17      2       0.2447626       64.75479
2013    17      3       0.3302065       81.38923
2013    17      4       0.2749335       70.99471
2013    17      5       0.271419        70.56081
2013    17      6       0.2307694       61.66679
2013    17      7       0.1604843       45.35637
2013    18      0       0.1222889       36.18588
2013    18      1       0.09371297      29.11056
2013    18      2       0.1272471       37.7296
2013    18      3       0.1455835       42.61122
2013    18      4       0.1802846       51.11223
2013    18      5       0.2140201       58.64896
2013    18      6       0.2169077       58.96572
2013    18      7       0.1998831       55.13372
2013    19      0       0.1809951       50.71058
2013    19      1       0.1932296       53.2687
2013    19      2       0.2367477       62.85667
2013    19      3       0.2726472       70.58458
2013    19      4       0.3065494       77.62098
2013    19      5       0.3033497       77.04834
2013    19      6       0.2776007       71.97467
2013    19      7       0.255085        67.44708
2013    20      0       0.2486257       66.37044
2013    20      1       0.2077943       57.52151
2013    20      2       0.2288789       62.2457
2013    20      3       0.3508017       87.65529
2013    20      4       0.4341078       103.2356
2013    20      5       0.4805079       111.4759
2013    20      6       0.5089688       116.1724
2013    20      7       0.4692498       109.5673
2013    21      0       0.4218836       101.2058
2013    21      1       0.4205295       100.9225
2013    21      2       0.4269853       101.9376
2013    21      3       0.5000029       114.591
2013    21      4       0.5921223       129.615
2013    21      5       0.627016        134.9813
2013    21      6       0.6294928       135.2346
2013    21      7       1.369661        214.299
2013    22      0       0.5838529       128.0518
2013    22      1       0.5513674       123.0684
2013    22      2       0.5789683       127.3913
2013    22      3       0.6625658       140.0909
2013    22      4       0.6773142       142.6799
2013    22      5       0.6204357       134.6515
2013    22      6       0.5829469       128.9182
2013    22      7       0.5381318       121.6576
2013    23      0       0.4812802       112.219
2013    23      1       0.45494         107.6372
2013    23      2       0.4296088       103.1285
2013    23      3       0.3619839       90.57501
2013    23      4       0.3073089       79.72662
2013    23      5       0.2819969       74.50818
2013    23      6       0.2672875       71.23623
2013    23      7       0.2309891       63.64707
2013    24      0       0.1801315       51.80416
2013    24      1       0.1533508       45.24534
2013    24      2       0.1767966       50.88282
2013    24      3       0.1717178       49.43668
2013    24      4       0.1831991       52.18964
2013    24      5       0.1827962       52.13892
2013    24      6       0.1554656       45.59869
2013    24      7       0.1493053       44.07711
2013    25      0       0.1528196       44.8418
2013    25      1       0.1524473       44.90409
2013    25      2       0.1965209       55.4683
2013    25      3       0.2156004       59.54201
2013    25      4       0.1840963       52.32403
2013    25      5       0.1617643       46.9825
2013    25      6       0.1637878       47.45393
2013    25      7       0.1825076       51.84728
2013    26      0       0.2005294       56.05843
2013    26      1       0.1933769       54.3564
2013    26      2       0.2390925       64.65511
2013    26      3       0.3146938       80.48671
2013    26      4       0.3569019       89.03032
2013    26      5       0.383332        94.22766
2013    26      6       0.4839688       112.3509
2013    26      7       0.4947644       114.321
2013    27      0       0.4341163       103.7576
2013    27      1       0.4070934       98.86496
2013    27      2       0.403349        98.05504
2013    27      3       0.5064758       116.3013
2013    27      4       0.5259616       119.9633
2013    27      5       0.4451185       106.4746
2013    27      6       0.3840195       94.86675
2013    27      7       0.3281187       83.42737
2013    28      0       0.2884688       75.01791
2013    28      1       0.2369944       63.77863
2013    28      2       0.176043        49.82567
2013    28      3       0.167756        47.88458
2013    28      4       0.2284342       61.62253
2013    28      5       0.3034          77.52027
2013    28      6       0.2799354       72.78845
2013    28      7       0.2800837       72.73615
2013    29      0       0.3014995       76.96524
2013    29      1       0.3097476       78.48389
2013    29      2       0.3589313       88.04838
2013    29      3       0.4248577       100.1998
2013    29      4       0.4413033       103.2292
2013    29      5       0.4180593       99.17821
2013    29      6       0.4190649       99.41778
2013    29      7       0.442422        103.6091
2013    30      0       0.4127641       98.42035
2013    30      1       0.4194844       99.53083
2013    30      2       0.5010048       113.6791
2013    30      3       0.5373346       119.8434
2013    30      4       0.5012277       114.2979
2013    30      5       0.4182654       100.0466
2013    30      6       0.3318977       83.66703
2013    30      7       0.302884        77.84179
2013    31      0       0.2941276       76.00326
2013    31      1       0.2933194       75.74124
2013    31      2       0.3101118       79.14137
2013    31      3       0.3391566       85.03452
2013    31      4       0.3289891       83.2038
2013    31      5       0.2714522       71.41177
2013    31      6       0.2571035       68.39539
2013    31      7       0.255714        68.11271
2014    1       0       0.2770564       72.41571
2014    1       1       0.2829024       73.84603
2014    1       2       0.324417        82.53119
2014    1       3       0.3957063       96.32872
2014    1       4       0.383732        93.97112
2014    1       5       0.2905379       75.41173
2014    1       6       0.2349969       63.52455
2014    1       7       0.2877912       74.93502
2014    2       0       0.3908368       95.63936
2014    2       1       0.4347264       103.8211
2014    2       2       0.5333969       121.0402
2014    2       3       0.600465        131.9423
2014    2       4       0.6068716       132.8099
2014    2       5       0.5584168       124.9059
2014    2       6       0.6237881       134.971
2014    2       7       0.626283        135.3901
2014    3       0       0.5025449       115.6877
2014    3       1       0.4234616       101.5757
2014    3       2       0.4468612       105.5449
2014    3       3       0.5713088       126.4386
2014    3       4       0.561922        125.1808
2014    3       5       0.5643591       125.4414
2014    3       6       0.49941         114.5797
2014    3       7       0.4514375       106.2013
2014    4       0       0.5502857       122.499
2014    4       1       0.669371        140.3241
2014    4       2       0.7511286       151.154
2014    4       3       0.891972        167.8116
2014    4       4       0.8723784       165.9411
2014    4       5       0.9071668       169.5448
2014    4       6       0.9702762       176.2808
2014    4       7       0.896536        168.646
2014    5       0       0.8330296       161.4059
2014    5       1       0.9087854       169.5003
2014    5       2       0.787682        154.7027
2014    5       3       0.5333982       118.0538
2014    5       4       0.5040632       113.4183
2014    5       5       0.5755569       124.871
2014    5       6       0.7489425       149.0378
2014    5       7       0.8591414       162.1099
2014    6       0       0.9425104       170.5188
2014    6       1       0.747846        148.3249
2014    6       2       0.6831497       140.1936
2014    6       3       0.6199287       131.4621
2014    6       4       0.5033782       113.3645
2014    6       5       0.4710385       108.1366
2014    6       6       0.5417039       120.0888
2014    6       7       0.5681321       124.2492
2014    7       0       0.5596838       122.9092
2014    7       1       0.531842        118.7931
2014    7       2       0.4434557       104.1207
2014    7       3       0.3294686       82.97795
2014    7       4       0.2505148       66.54546
2014    7       5       0.2432667       64.87828
2014    7       6       0.2460981       65.55897
2014    7       7       0.2682756       70.30861
2014    8       0       0.2827451       73.20306
2014    8       1       0.259301        68.1467
2014    8       2       0.2622044       68.66186
2014    8       3       0.3117126       78.76898
2014    8       4       0.3287085       82.29551
2014    8       5       0.3377383       84.02859
2014    8       6       0.3749314       90.97111
2014    8       7       0.4092305       97.14023
2014    9       0       0.4268462       100.3401
2014    9       1       0.4499955       104.4285
2014    9       2       0.7855736       154.8687
2014    9       3       0.5120514       114.9101
2014    9       4       0.4168019       98.8876
2014    9       5       0.3622207       88.67253
2014    9       6       0.340304        84.40985
2014    9       7       0.3189003       80.25158
2014    10      0       0.3040244       77.28161
2014    10      1       0.3122038       78.80829
2014    10      2       0.2949504       75.16637
2014    10      3       0.3017405       76.6462
2014    10      4       0.3083505       78.10567
2014    10      5       0.3008418       76.6307
2014    10      6       0.3093698       78.31043
2014    10      7       0.3032006       77.12378
2014    11      0       0.2892481       74.34644
2014    11      1       0.2912373       74.72005
2014    11      2       0.3029714       77.35488
2014    11      3       0.339239        84.78433
2014    11      4       0.3868617       93.87803
2014    11      5       0.4348924       102.7413
2014    11      6       0.3803604       92.89076
2014    11      7       0.3473672       86.67184
2014    12      0       0.4736074       109.9717
2014    12      1       0.5695235       126.386
2014    12      2       0.543637        122.1334
2014    12      3       0.5573228       124.3521
2014    12      4       0.5867892       128.6583
2014    12      5       0.6060261       131.2666
2014    12      6       0.6709731       140.4086
2014    12      7       0.7279123       147.8344
2014    13      0       0.732011        148.6025
2014    13      1       0.7329051       150.1531
2014    13      2       0.7040202       145.6555
2014    13      3       0.6571229       138.9469
2014    13      4       0.6279938       135.3616
2014    13      5       0.4469666       105.3373
2014    13      6       0.3979159       96.52584
2014    13      7       0.3894192       94.67871
2014    14      0       0.3914342       94.92918
2014    14      1       0.3603005       88.93711
2014    14      2       0.3728128       91.53008
2014    14      3       0.3720345       91.47892
2014    14      4       0.3089152       79.33663
2014    14      5       0.2584123       68.93099
2014    14      6       0.252286        67.4808
2014    14      7       0.2945286       76.21984
2014    15      0       0.3657841       90.39789
2014    15      1       0.3863864       94.30122
2014    15      2       0.4252727       101.4996
2014    15      3       0.5001259       114.7768
2014    15      4       0.4266999       101.8677
2014    15      5       0.3648592       90.31685
2014    15      6       0.3499141       87.22115
2014    15      7       0.3856712       93.53603
2014    16      0       0.3543617       87.92875
2014    16      1       0.3617644       89.70729
2014    16      2       0.4342481       103.5288
2014    16      3       0.4632096       108.77
2014    16      4       0.3941655       96.07077
2014    16      5       0.3799286       93.26938
2014    16      6       0.4032742       97.31005
2014    16      7       0.4312326       102.1233
2014    17      0       0.4018894       96.6938
2014    17      1       0.3869975       93.84688
2014    17      2       0.3857742       93.96167
2014    17      3       0.3640436       89.82501
2014    17      4       0.3425686       85.75281
2014    17      5       0.316728        80.64793
2014    17      6       0.263643        69.64512
2014    17      7       0.2308612       62.40892
2014    18      0       0.2671868       70.11868
2014    18      1       0.2772726       72.18074
2014    18      2       0.2745065       71.88177
2014    18      3       0.2398677       64.729
2014    18      4       0.2127099       58.86221
2014    18      5       0.1654652       48.0044
2014    18      6       0.1462675       43.28841
2014    18      7       0.1528497       44.77901
2014    19      0       0.1419653       42.0155
2014    19      1       0.1499485       43.94226
2014    19      2       0.1691005       48.55613
2014    19      3       0.176415        50.38456
2014    19      4       0.1808024       51.46239
2014    19      5       0.2036042       56.83435
2014    19      6       0.2451893       66.18921
2014    19      7       0.2957275       76.91956
2014    20      0       0.3098514       79.86679
2014    20      1       0.3506134       87.95471
2014    20      2       0.3804464       93.66089
2014    20      3       0.3985069       97.13492
2014    20      4       0.4310031       103.0927
2014    20      5       0.3743331       92.50651
2014    20      6       0.3334393       84.45942
2014    20      7       0.3533507       88.26513
2014    21      0       0.4607284       108.0608
2014    21      1       0.6335385       135.5972
2014    21      2       0.5604564       124.2332
2014    21      3       0.4739418       109.8799
2014    21      4       0.5133043       116.3126
2014    21      5       0.5410949       120.6351
2014    21      6       0.5403823       120.4211
2014    21      7       0.5471679       121.2865
2014    22      0       0.5991972       128.9764
2014    22      1       0.6872388       141.3257
2014    22      2       0.7901111       154.4569
2014    22      3       0.8979899       167.365
2014    22      4       1.004007        178.8753
2014    22      5       1.11248         189.1242
2014    22      6       0.9392886       172.3028
2014    22      7       0.7920105       155.6017
2014    23      0       0.6991389       143.5495
2014    23      1       0.606975        130.2543
2014    23      2       0.5856596       126.8858
2014    23      3       0.5724999       125.0388
2014    23      4       0.5367468       119.7511
2014    23      5       0.4957178       113.2851
2014    23      6       0.4570898       106.7986
2014    23      7       0.4783641       110.3793
2014    24      0       0.4750415       109.943
2014    24      1       0.5027393       114.7726
2014    24      2       0.5194323       117.7008
2014    24      3       0.5459073       122.2102
2014    24      4       0.5614753       124.9357
2014    24      5       0.5016321       115.3419
2014    24      6       0.4592652       108.0496
2014    24      7       0.5348917       120.4164
2014    25      0       0.5283832       119.2839
2014    25      1       0.4840941       111.905
2014    25      2       0.449912        106.0125
2014    25      3       0.4490903       105.7532
2014    25      4       0.4921617       113.1578
2014    25      5       0.5633902       124.8655
2014    25      6       0.6683535       140.3533
2014    25      7       0.7681463       153.3011
2014    26      0       0.8164816       158.6634
2014    26      1       0.7451717       149.6373
2014    26      2       0.7274445       147.7919
2014    26      3       0.7027556       144.9042
2014    26      4       0.643849        136.7646
2014    26      5       0.5656164       124.9743
2014    26      6       0.5187658       117.4945
2014    26      7       0.4172967       100.0919
2014    27      0       0.3422598       85.72252
2014    27      1       0.2768134       72.09335
2014    27      2       0.246413        65.46982
2014    27      3       0.3038708       77.58988
2014    27      4       0.2729098       71.20828
2014    27      5       0.2495712       66.15619
2014    27      6       0.2863056       73.93374
2014    27      7       0.2985987       76.41282
2014    28      0       0.3142085       79.59439
2014    28      1       0.3933908       94.81118
2014    28      2       0.3953911       95.06786
2014    28      3       0.4499023       104.9275
2014    28      4       0.5362869       119.5306
2014    28      5       0.5819174       126.802
2014    28      6       0.5900351       127.9132
2014    28      7       0.5721481       125.4301
2014    29      0       0.5363441       120.1826
2014    29      1       0.5388389       120.6554
2014    29      2       0.5259976       118.5681
2014    29      3       0.5708524       125.5653
2014    29      4       0.6894369       142.5982
2014    29      5       0.7511412       150.6335
2014    29      6       0.7065015       144.9065
2014    29      7       0.6134839       132.4224
2014    30      0       0.5581517       124.1888
2014    30      1       0.5399482       121.2242
2014    30      2       0.5088578       115.9964
2014    30      3       0.4835538       111.712
2014    30      4       0.4952141       113.7912
2014    30      5       0.4897861       112.8873
2014    30      6       0.4720068       109.8909
2014    30      7       0.4852334       111.9922
2014    31      0       0.460693        108.1663
2014    31      1       0.4526162       106.9276
2014    31      2       0.4624915       108.4716
2014    31      3       0.4793896       111.3589
2014    31      4       0.5067907       115.7881
2014    31      5       0.5186392       117.6474
2014    31      6       0.4822096       111.6238
2014    31      7       0.4053977       98.1414
2015    1       0       0.2218843       59.68927
2015    1       1       0.2293754       61.31151
2015    1       2       0.2561008       67.37344
2015    1       3       0.281432        73.00207
2015    1       4       0.3022619       77.44209
2015    1       5       0.3641426       89.64737
2015    1       6       0.4729931       109.3138
2015    1       7       0.4915302       112.5087
2015    2       0       0.515044        116.5901
2015    2       1       0.5698627       125.4458
2015    2       2       0.6439323       137.1228
2015    2       3       0.6772216       142.1913
2015    2       4       0.6131121       132.5355
2015    2       5       0.5411094       120.7648
2015    2       6       0.567702        124.5324
2015    2       7       0.5644416       123.8137
2015    3       0       0.5166556       116.1231
2015    3       1       0.4923435       112.0842
2015    3       2       0.5020794       113.5627
2015    3       3       0.4881091       110.9725
2015    3       4       0.4521802       104.9295
2015    3       5       0.4531243       105.2913
2015    3       6       0.4812931       110.4138
2015    3       7       0.5145002       116.0453
2015    4       0       0.5069076       114.6403
2015    4       1       0.480161        109.9764
2015    4       2       0.4326582       101.6755
2015    4       3       0.3890159       93.75115
2015    4       4       0.4413964       103.5638
2015    4       5       0.5057386       114.9758
2015    4       6       0.5192335       117.3814
2015    4       7       0.5413981       120.9778
2015    5       0       0.5996662       130.2927
2015    5       1       0.6743981       141.563
2015    5       2       0.7174304       147.64
2015    5       3       0.7077775       146.4297
2015    5       4       0.6768656       141.9987
2015    5       5       0.6218269       133.6694
2015    5       6       0.6174247       132.8418
2015    5       7       0.6752446       140.7675
2015    6       0       0.7074011       145.0334
2015    6       1       0.7009289       144.3625
2015    6       2       0.59389         128.7886
2015    6       3       0.5459829       121.1493
2015    6       4       0.516293        115.8851
2015    6       5       0.4803095       109.8122
2015    6       6       0.4056142       96.95556
2015    6       7       0.3676591       89.95079
2015    7       0       0.3405034       84.6074
2015    7       1       0.3523971       86.97915
2015    7       2       0.3394222       84.90379
2015    7       3       0.294289        76.02409
2015    7       4       0.2666583       70.22971
2015    7       5       0.2640804       69.77872
2015    7       6       0.2564731       68.13176
2015    7       7       0.2536379       67.08832
2015    8       0       0.2878577       74.45064
2015    8       1       0.38804         94.4592
2015    8       2       0.4546571       106.4815
2015    8       3       0.5206443       117.9008
2015    8       4       0.4687162       108.8221
2015    8       5       0.4118152       98.28603
2015    8       6       0.4676658       108.4064
2015    8       7       0.5590355       123.121
2015    9       0       0.599099        129.8708
2015    9       1       0.5748054       126.2105
2015    9       2       0.5275859       118.9029
2015    9       3       0.4684254       108.8271
2015    9       4       0.4410061       103.9306
2015    9       5       0.3870835       94.35044
2015    9       6       0.2979785       76.55664
2015    9       7       0.2606291       68.44053
2015    10      0       0.2458416       65.3037
2015    10      1       0.2336544       62.89945
2015    10      2       0.1965546       54.76662
2015    10      3       0.178338        50.67414
2015    10      4       0.1687306       48.47666
2015    10      5       0.1538643       44.95088
2015    10      6       0.1320981       39.53252
2015    10      7       0.1139196       34.82283
2015    11      0       0.1025686       31.90517
2015    11      1       0.1064099       32.96381
2015    11      2       0.1348932       40.33556
2015    11      3       0.1335928       40.14432
2015    11      4       0.1482397       43.81313
2015    11      5       0.1647583       47.84601
2015    11      6       0.1716728       49.54192
2015    11      7       0.1665084       48.30499
2015    12      0       0.2161652       59.97796
2015    12      1       0.2087347       58.14622
2015    12      2       0.2545919       68.5111
2015    12      3       0.2602624       69.75853
2015    12      4       0.2708118       71.42973
2015    12      5       0.3160235       80.75531
2015    12      6       0.4365884       103.6837
2015    12      7       0.5620183       124.3117
2015    13      0       0.4562569       106.9951
2015    13      1       0.4753826       110.1063
2015    13      2       0.486191        111.5689
2015    13      3       0.3962187       95.60649
2015    13      4       0.3137639       79.80977
2015    13      5       0.3545001       87.33555
2015    13      6       0.3661753       89.6835
2015    13      7       0.3484416       86.46831
2015    14      0       0.3431313       85.30162
2015    14      1       0.3555272       87.78981
2015    14      2       0.31645         79.93033
2015    14      3       0.2959511       75.62498
2015    14      4       0.2918015       74.83815
2015    14      5       0.2989527       76.43476
2015    14      6       0.3278953       82.3172
2015    14      7       0.3805193       92.28525
2015    15      0       0.3963368       95.10513
2015    15      1       0.3994409       95.81764
2015    15      2       0.4521618       105.0863
2015    15      3       0.5004913       112.9567
2015    15      4       0.5615519       122.3076
2015    15      5       0.6487571       135.055
2015    15      6       0.6669201       137.9283
2015    15      7       0.6743402       139.2831
2015    16      0       0.7067311       143.7439
2015    16      1       0.695436        142.6509
2015    16      2       0.6738479       139.9198
2015    16      3       0.7037011       143.7777
2015    16      4       0.6170369       131.5382
2015    16      5       0.5262694       117.6246
2015    16      6       0.5696439       124.7202
2015    16      7       0.6899388       141.9857
2015    17      0       0.7216637       146.5728
2015    17      1       0.6731717       140.0366
2015    17      2       0.6833289       141.5608
2015    17      3       0.7220018       147.0919
2015    17      4       0.7721843       153.2386
2015    17      5       0.6029674       129.6626
2015    17      6       0.5695497       124.9004
2015    17      7       0.6420752       136.2021
2015    18      0       0.5675491       124.7334
2015    18      1       0.6237046       132.7982
2015    18      2       0.7610933       151.4997
2015    18      3       0.9113275       169.2392
2015    18      4       0.8540151       163.1598
2015    18      5       0.7900109       155.3313
2015    18      6       0.831901        160.0307
2015    18      7       0.7151626       145.5243
2015    19      0       0.7032306       143.8528
2015    19      1       0.5826151       126.7066
2015    19      2       0.5435509       120.9659
2015    19      3       0.626657        133.7095
2015    19      4       0.7853548       154.3927
2015    19      5       0.793117        154.9954
2015    19      6       0.6308941       134.2876
2015    19      7       0.5098403       115.7769
2015    20      0       0.4293431       101.6925
2015    20      1       0.3736038       91.10635
2015    20      2       0.3214774       80.77653
2015    20      3       0.3923576       94.6836
2015    20      4       0.4896344       111.7247
2015    20      5       0.5545207       122.2143
2015    20      6       0.5155088       116.171
2015    20      7       0.453415        106.1264
2015    21      0       0.4444397       104.3904
2015    21      1       0.4055169       97.26258
2015    21      2       0.3471744       86.15294
2015    21      3       0.3300345       82.81835
2015    21      4       0.3531977       87.29323
2015    21      5       0.3710143       90.59611
2015    21      6       0.3665207       89.771
2015    21      7       0.3126567       79.34474
2015    22      0       0.3129681       79.30323
2015    22      1       0.3507787       86.68422
2015    22      2       0.3783974       92.09229
2015    22      3       0.4476376       104.6097
2015    22      4       0.4568902       105.7664
2015    22      5       0.4547581       104.9176
2015    22      6       0.5164126       114.4631
2015    22      7       0.5262239       115.7711
2015    23      0       0.5394445       118.0617
2015    23      1       0.5770215       124.3234
2015    23      2       0.6487553       135.4825
2015    23      3       0.759246        150.5003
2015    23      4       0.9465726       172.0217
2015    23      5       1.049994        182.0678
2015    23      6       0.9009175       166.8601
2015    23      7       0.7776648       152.6349
2015    24      0       0.7281552       146.4652
2015    24      1       0.7141342       144.9209
2015    24      2       0.7324362       147.4149
2015    24      3       0.7960735       155.2909
2015    24      4       0.9563913       173.2777
2015    24      5       1.037601        180.734
2015    24      6       0.8319066       158.6028
2015    24      7       0.6850593       140.1528
2015    25      0       0.6674607       138.414
2015    25      1       0.669255        138.6234
2015    25      2       0.645923        135.2346
2015    25      3       0.6319436       133.417
2015    25      4       0.7138511       144.7785
2015    25      5       0.7746048       152.4624
2015    25      6       0.7283553       146.9739
2015    25      7       0.6878538       141.8529
2015    26      0       0.6559561       137.5669
2015    26      1       0.6451216       135.9693
2015    26      2       0.6398849       135.271
2015    26      3       0.6373301       134.9209
2015    26      4       0.5972673       129.1671
2015    26      5       0.4959574       113.1674
2015    26      6       0.4369469       102.9602
2015    26      7       0.3827457       92.98595
2015    27      0       0.3193523       80.78276
2015    27      1       0.2149237       58.6724
2015    27      2       0.1754202       49.74287
2015    27      3       0.1851912       52.11176
2015    27      4       0.2410079       64.70983
2015    27      5       0.3226887       81.72004
2015    27      6       0.3577821       88.57431
2015    27      7       0.4155727       99.50057
2015    28      0       0.4226084       100.7221
2015    28      1       0.4085137       98.04972
2015    28      2       0.3849213       93.63575
2015    28      3       0.3977548       95.87547
2015    28      4       0.4067768       97.32123
2015    28      5       0.4342869       102.5507
2015    28      6       0.4817173       110.9011
2015    28      7       0.4965466       113.2861
2015    29      0       0.5266006       117.5206
2015    29      1       0.5676214       123.6043
2015    29      2       0.6237974       131.5734
2015    29      3       0.6618703       137.2181
2015    29      4       0.729234        146.7188
2015    29      5       0.8412142       160.5477
2015    29      6       0.8011894       156.2709
2015    29      7       0.6714477       139.6982
2015    30      0       0.6500438       136.588
2015    30      1       0.68279         141.0188
2015    30      2       0.6952072       142.6739
2015    30      3       0.7189289       145.886
2015    30      4       0.760645        151.2083
2015    30      5       0.8159508       157.9531
2015    30      6       0.7016954       143.8101
2015    30      7       0.658343        137.646
2015    31      0       0.7093886       144.441
2015    31      1       0.7283818       147.0859
2015    31      2       0.731233        147.2118
2015    31      3       0.7628546       151.2208
2015    31      4       0.7227899       146.3323
2015    31      5       0.7234178       146.3682
2015    31      6       0.7517305       150.2322
2015    31      7       0.679635        140.8491
2016    1       0       0.3408347       85.66157
2016    1       1       0.2934763       75.90729
2016    1       2       0.2810608       73.24752
2016    1       3       0.2784425       72.67501
2016    1       4       0.2476506       65.90609
2016    1       5       0.2237896       60.66832
2016    1       6       0.204504        56.38545
2016    1       7       0.2153259       58.8781
2016    2       0       0.2285258       61.94569
2016    2       1       0.2678397       70.51058
2016    2       2       0.2989899       76.99343
2016    2       3       0.3289326       82.95486
2016    2       4       0.33984         85.16541
2016    2       5       0.3231598       81.97804
2016    2       6       0.3363404       84.62438
2016    2       7       0.4169228       99.71386
2016    3       0       0.411991        98.95204
2016    3       1       0.439987        103.9651
2016    3       2       0.4646349       108.1978
2016    3       3       0.580439        126.9545
2016    3       4       0.7199827       146.717
2016    3       5       0.8222482       159.5704
2016    3       6       0.711332        145.6792
2016    3       7       0.624989        133.8323
2016    4       0       0.5512337       122.9528
2016    4       1       0.5335236       120.0755
2016    4       2       0.5899727       128.6246
2016    4       3       0.6404016       135.8586
2016    4       4       0.7253572       147.5455
2016    4       5       0.7157639       146.1921
2016    4       6       0.6461191       136.6277
2016    4       7       0.669103        139.884
2016    5       0       0.6357781       135.2782
2016    5       1       0.6376064       135.5848
2016    5       2       0.7025538       144.392
2016    5       3       0.8334226       160.5744
2016    5       4       0.9712555       175.952
2016    5       5       0.9687724       175.7033
2016    5       6       0.9315998       172.9939
2016    5       7       0.8935652       167.8536
2016    6       0       0.752339        151.0542
2016    6       1       0.6727307       140.1766
2016    6       2       0.7581573       151.2511
2016    6       3       0.8579782       163.2826
2016    6       4       1.011829        179.6137
2016    6       5       0.8961238       167.6504
2016    6       6       0.8455231       161.8054
2016    6       7       0.8898564       166.5091
2016    7       0       0.7849721       154.0587
2016    7       1       0.7589082       150.5551
2016    7       2       0.8986739       166.8258
2016    7       3       1.04924         182.2473
2016    7       4       1.019397        180.0433
2016    7       5       1.031486        182.2811
2016    7       6       0.8402674       161.973
2016    7       7       0.7656978       152.8786
2016    8       0       0.7623809       152.3879
2016    8       1       0.7105446       145.7685
2016    8       2       0.6786355       141.4695
2016    8       3       0.6205183       133.3243
2016    8       4       0.5482518       122.4588
2016    8       5       0.5195616       117.7408
2016    8       6       0.5307376       119.391
2016    8       7       0.5796134       126.664
2016    9       0       0.604999        130.3377
2016    9       1       0.6098456       130.9494
2016    9       2       0.6304568       134.1606
2016    9       3       0.7145782       146.1286
2016    9       4       0.7893459       155.7788
2016    9       5       0.7077461       145.0486
2016    9       6       0.6071007       130.7731
2016    9       7       0.5930973       128.8875
2016    10      0       0.5873892       128.1927
2016    10      1       0.5410201       120.7268
2016    10      2       0.5925712       129.0389
2016    10      3       0.5614022       124.2893
2016    10      4       0.4897092       112.6788
2016    10      5       0.3728694       91.68736
2016    10      6       0.3125831       79.79821
2016    10      7       0.3049555       78.23
2016    11      0       0.3067051       78.67258
2016    11      1       0.3156873       80.30695
2016    11      2       0.2959955       76.14271
2016    11      3       0.2870061       74.45029
2016    11      4       0.2740316       71.91341
2016    11      5       0.2609049       69.10991
2016    11      6       0.2696646       70.94217
2016    11      7       0.2922829       75.80256
2016    12      0       0.2679766       70.6956
2016    12      1       0.2928923       75.75335
2016    12      2       0.3394311       85.24037
2016    12      3       0.4264733       102.0634
2016    12      4       0.4713137       109.8951
2016    12      5       0.4885721       112.7943
2016    12      6       0.4891779       112.8679
2016    12      7       0.4157721       100.1382
2016    13      0       0.3280296       83.34133
2016    13      1       0.2961124       76.77135
2016    13      2       0.2880275       75.09229
2016    13      3       0.3646299       90.5136
2016    13      4       0.3688414       91.54463
2016    13      5       0.3442936       86.97072
2016    13      6       0.3189998       81.82577
2016    13      7       0.3369436       85.45415
2016    14      0       0.4317487       103.5027
2016    14      1       0.5620875       125.6464
2016    14      2       0.5616912       125.5061
2016    14      3       0.5496511       123.7804
2016    14      4       0.6040977       132.2725
2016    14      5       0.6608626       140.6958
2016    14      6       0.6462952       138.8311
2016    14      7       0.6416865       138.0982
2016    15      0       0.5750034       127.908
2016    15      1       0.5284968       120.2724
2016    15      2       0.4821274       112.3831
2016    15      3       0.4676361       109.9319
2016    15      4       0.4597011       108.6202
2016    15      5       0.4070299       99.03564
2016    15      6       0.3761244       93.11302
2016    15      7       0.3844269       94.40455
2016    16      0       0.417948        100.3696
2016    16      1       0.7257973       149.9576
2016    16      2       0.479513        111.467
2016    16      3       0.5224219       118.7272
2016    16      4       0.5560109       124.301
2016    16      5       0.5627129       125.4798
2016    16      6       0.7315944       150.9388
2016    16      7       0.6678676       141.597
2016    17      0       0.677375        143.1487
2016    17      1       0.7191524       148.9866
2016    17      2       0.6680425       141.6261
2016    17      3       0.6285678       135.6679
2016    17      4       0.6364886       136.8481
2016    17      5       0.7176728       147.9822
2016    17      6       0.6977029       145.5964
2016    17      7       0.6636305       140.9093
2016    18      0       0.6530563       139.6626
2016    18      1       0.634715        137.0103
2016    18      2       0.6347517       136.7636
2016    18      3       0.6960145       145.4438
2016    18      4       0.726156        149.698
2016    18      5       0.6014626       131.8555
2016    18      6       0.5221038       118.928
2016    18      7       0.5267958       119.2399
2016    19      0       0.4643656       108.4882
2016    19      1       0.4333298       102.9025
2016    19      2       0.359751        88.90546
2016    19      3       0.5562466       123.3538
2016    19      4       0.6356566       135.6916
2016    19      5       0.6515398       137.9755
2016    19      6       0.6102144       131.9475
2016    19      7       0.5733602       126.2365
2016    20      0       0.6012528       130.2382
2016    20      1       0.5893382       128.2569
2016    20      2       0.5583372       123.4225
2016    20      3       0.5495882       122.1528
2016    20      4       0.5839495       127.9385
2016    20      5       0.5093268       116.4972
2016    20      6       0.4509937       106.5425
2016    20      7       0.4382973       104.3234
2016    21      0       0.4252957       101.7954
2016    21      1       0.4730302       109.534
2016    21      2       0.5281364       118.5789
2016    21      3       0.5150743       116.4563
2016    21      4       0.5059908       115.2022
2016    21      5       0.4488999       105.6638
2016    21      6       0.4425993       104.5027
2016    21      7       0.4518412       105.9837
2016    22      0       0.4327769       102.6616
2016    22      1       0.3849702       94.00035
2016    22      2       0.3444779       86.23707
2016    22      3       0.3382358       85.25381
2016    22      4       0.3433251       86.50446
2016    22      5       0.3510286       88.16958
2016    22      6       0.33457         84.84479
2016    22      7       0.3134625       80.73889
2016    23      0       0.3088381       79.635
2016    23      1       0.3191415       81.58448
2016    23      2       0.3232635       82.34621
2016    23      3       0.3557578       88.84019
2016    23      4       0.3700875       91.80543
2016    23      5       0.3795084       93.6069
2016    23      6       0.5950812       131.4774
2016    23      7       0.4017001       97.99415
2016    24      0       0.399354        97.74875
2016    24      1       0.3987538       97.56254
2016    24      2       0.4246282       102.277
2016    24      3       0.5823348       128.7878
2016    24      4       0.6003379       131.869
2016    24      5       0.5196773       119.1934
2016    24      6       0.4587689       108.4372
2016    24      7       0.4263665       102.1696
2016    25      0       0.4078704       98.49726
2016    25      1       0.4921342       113.2114
2016    25      2       0.615334        132.3622
2016    25      3       0.6009676       130.0073
2016    25      4       0.5395159       120.6803
2016    25      5       0.6836082       143.0983
2016    25      6       0.551066        122.2564
2016    25      7       0.5377687       120.0233
2016    26      0       0.8877481       168.922
2016    26      1       0.9023537       170.4801
2016    26      2       0.4900058       111.9874
2016    26      3       0.4424003       103.8274
2016    26      4       0.4108764       98.39194
2016    26      5       0.3917874       94.90569
2016    26      6       0.3870291       93.77061
2016    26      7       0.3505573       86.78799
2016    27      0       0.2840546       73.66042
2016    27      1       0.2541569       67.34883
2016    27      2       0.2402812       64.23641
2016    27      3       0.2400357       64.14152
2016    27      4       0.2662412       69.949
2016    27      5       0.3127446       79.78146
2016    27      6       0.3089412       79.17394
2016    27      7       0.2667042       70.50667
2016    28      0       0.2476997       66.38854
2016    28      1       0.2596125       68.88173
2016    28      2       0.3141919       80.20348
2016    28      3       0.340192        85.26
2016    28      4       0.3298954       83.36427
2016    28      5       0.3407795       85.55078
2016    28      6       0.3972811       96.13324
2016    28      7       0.4580588       106.8313
2016    29      0       0.4515584       105.7839
2016    29      1       0.5045464       114.6334
2016    29      2       0.6093128       131.0713
2016    29      3       0.6657933       139.3931
2016    29      4       0.6753839       140.9546
2016    29      5       0.6883092       142.6138
2016    29      6       0.6672303       139.525
2016    29      7       0.6257152       133.6929
2016    30      0       0.572002        125.6275
2016    30      1       0.5522892       122.3675
2016    30      2       0.5895037       128.2953
2016    30      3       0.5443815       121.4045
2016    30      4       0.410457        98.71343
2016    30      5       0.3042103       78.09691
2016    30      6       0.298857        77.02035
2016    30      7       0.3583702       88.81577
2016    31      0       0.413064        99.28326
2016    31      1       0.4413536       104.5583
2016    31      2       0.4550702       106.837
2016    31      3       0.4757258       110.341
2016    31      4       0.4790962       111.0088
2016    31      5       0.4552129       106.6797
2016    31      6       0.4133104       98.92171
2016    31      7       0.3613987       89.18112
2017    1       0       0.5534158       121.5229
2017    1       1       0.6127044       130.0394
2017    1       2       0.5870516       126.2812
2017    1       3       0.5776823       125.1359
2017    1       4       0.5603765       122.5218
2017    1       5       0.5919644       127.506
2017    1       6       0.5739896       125.0777
2017    1       7       0.5232881       117.25
2017    2       0       0.5764928       125.5249
2017    2       1       0.6242295       132.5428
2017    2       2       0.6083148       129.8828
2017    2       3       0.6600384       137.6801
2017    2       4       0.6855528       141.5712
2017    2       5       0.7123053       145.3439
2017    2       6       0.773645        153.3153
2017    2       7       0.7799464       154.0296
2017    3       0       0.6651472       138.7585
2017    3       1       0.5678976       124.3879
2017    3       2       0.5284545       118.3151
2017    3       3       0.5556156       123.1592
2017    3       4       0.5858636       127.6268
2017    3       5       0.6609966       138.3709
2017    3       6       0.6575148       137.9606
2017    3       7       0.6268156       133.6693
2017    4       0       0.61146         131.3708
2017    4       1       0.5706731       125.2566
2017    4       2       0.5416384       120.8044
2017    4       3       0.5495395       121.6789
2017    4       4       0.5530692       122.0165
2017    4       5       0.5157635       116.2339
2017    4       6       0.4985576       113.8573
2017    4       7       0.4857126       111.8674
2017    5       0       0.4952869       113.2604
2017    5       1       0.4869094       111.4364
2017    5       2       0.4525384       105.3783
2017    5       3       0.4049936       96.6078
2017    5       4       0.4570923       106.1467
2017    5       5       0.4769755       109.787
2017    5       6       0.5964987       128.5613
2017    5       7       0.6576515       137.0557
2017    6       0       0.6083576       129.1567
2017    6       1       0.5611949       121.2964
2017    6       2       0.5409102       118.5732
2017    6       3       0.4944329       111.1509
2017    6       4       0.458696        105.2118
2017    6       5       0.4411564       102.5031
2017    6       6       0.4111862       97.67215
2017    6       7       0.5448521       120.518
2017    7       0       0.665763        139.1374
2017    7       1       0.7110408       145.2566
2017    7       2       0.7809188       153.6864
2017    7       3       0.8057561       156.6476
2017    7       4       0.7774964       153.4263
2017    7       5       0.7378397       148.7657
2017    7       6       0.8043868       155.8846
2017    7       7       0.8153073       156.9443
2017    8       0       0.7513837       149.6948
2017    8       1       0.7120993       144.3857
2017    8       2       0.8869236       164.4282
2017    8       3       0.8331838       158.4187
2017    8       4       0.6581665       137.1564
2017    8       5       0.8989155       166.1987
2017    8       6       1.120453        188.4584
2017    8       7       1.049657        182.3316
2017    9       0       0.9036944       167.732
2017    9       1       0.6813178       139.9641
2017    9       2       0.4111449       96.76806
2017    9       3       0.28151         71.75071
2017    9       4       0.2165286       58.20658
2017    9       5       0.1989258       54.57345
2017    9       6       0.2601777       68.16544
2017    9       7       0.3745328       91.12467
2017    10      0       0.4986787       112.9224
2017    10      1       0.6255282       132.1961
2017    10      2       0.6110013       129.2309
2017    10      3       0.484229        109.6466
2017    10      4       0.455721        105.1529
2017    10      5       0.3447457       85.0742
2017    10      6       0.2082457       56.97995
2017    10      7       0.1824052       51.18849
2017    11      0       0.1624612       46.6483
2017    11      1       0.1628369       46.81636
2017    11      2       0.199002        55.21974
2017    11      3       0.2442159       65.09306
2017    11      4       0.3279616       82.20794
2017    11      5       0.4257178       100.3368
2017    11      6       0.5510714       121.4664
2017    11      7       0.591284        127.93
2017    12      0       0.5313087       118.4792
2017    12      1       0.499596        113.4005
2017    12      2       0.5548647       122.552
2017    12      3       0.6715917       139.7353
2017    12      4       0.9461954       172.539
2017    12      5       1.268268        201.2157
2017    12      6       1.073503        184.3671
2017    12      7       0.8454776       161.021
2017    13      0       0.7380207       148.33
2017    13      1       0.7017097       143.5826
2017    13      2       0.7132177       144.7101
2017    13      3       0.7948559       155.1253
2017    13      4       0.9999748       177.2723
2017    13      5       0.9495585       171.9068
2017    13      6       0.7249545       146.1558
2017    13      7       0.6165293       131.4844
2017    14      0       0.6387698       135.0898
2017    14      1       0.6934766       142.8263
2017    14      2       0.6638684       138.5145
2017    14      3       0.6441492       135.6368
2017    14      4       0.5922697       127.8596
2017    14      5       0.4860841       110.8431
2017    14      6       0.4283077       100.7792
2017    14      7       0.435299        102.0388
2017    15      0       0.4643016       107.1233
2017    15      1       0.4939743       112.1274
2017    15      2       0.5283554       118.0805
2017    15      3       0.500702        113.4512
2017    15      4       0.4781152       109.5725
2017    15      5       0.4254895       100.4218
2017    15      6       0.4641164       107.6954
2017    15      7       0.3588653       88.34056
2017    16      0       0.2952506       75.8192
2017    16      1       0.2630315       69.17413
2017    16      2       0.2487125       66.09325
2017    16      3       0.2208449       59.94503
2017    16      4       0.2158313       58.8631
2017    16      5       0.2426014       64.72191
2017    16      6       0.2911511       74.82992
2017    16      7       0.3297599       82.86332
2017    17      0       0.3086523       78.82982
2017    17      1       0.2985349       76.87678
2017    17      2       0.3309184       83.58253
2017    17      3       0.4204364       100.5253
2017    17      4       0.458792        107.2064
2017    17      5       0.4423985       104.2948
2017    17      6       0.4048689       97.4043
2017    17      7       0.4260725       101.0012
2017    18      0       0.4816151       110.6815
2017    18      1       0.5365969       120.3949
2017    18      2       0.5216064       117.8795
2017    18      3       0.5323123       119.3864
2017    18      4       0.5162377       116.4986
2017    18      5       0.4434191       104.008
2017    18      6       0.4489393       104.8473
2017    18      7       0.4913034       112.1069
2017    19      0       0.521478        117.2013
2017    19      1       0.5472463       121.3657
2017    19      2       0.4698254       109.0049
2017    19      3       0.3798389       92.95559
2017    19      4       0.3152456       80.30682
2017    19      5       0.2849284       74.25673
2017    19      6       0.2856744       74.5637
2017    19      7       0.3301786       83.50493
2017    20      0       0.3581894       89.11564
2017    20      1       0.3590795       89.46037
2017    20      2       0.346645        87.15066
2017    20      3       0.3049185       78.91984
2017    20      4       0.2567428       68.73528
2017    20      5       0.1953588       55.03792
2017    20      6       0.1673984       48.5659
2017    20      7       0.1598723       46.64474
2017    21      0       0.1774101       50.64522
2017    21      1       0.1788551       51.02257
2017    21      2       0.170568        49.11997
2017    21      3       0.1479661       43.59505
2017    21      4       0.1650166       47.60012
2017    21      5       0.1993776       55.75979
2017    21      6       0.2485757       66.93693
2017    21      7       0.2820219       73.97912
2017    22      0       0.3233703       82.09672
2017    22      1       0.3811          93.0583
2017    22      2       0.4318584       102.2805
2017    22      3       0.4850692       111.5765
2017    22      4       0.5733616       125.8298
2017    22      5       0.6015279       130.0771
2017    22      6       0.626944        134.0887
2017    22      7       0.6317558       134.3829
2017    23      0       0.5269992       117.5578
2017    23      1       0.5678322       124.5132
2017    23      2       0.5787648       126.5702
2017    23      3       0.5827586       127.7725
2017    23      4       0.47968         111.1336
2017    23      5       0.3598972       89.73531
2017    23      6       0.3225295       82.68433
2017    23      7       0.2993011       77.68927
2017    24      0       0.2770972       72.86219
2017    24      1       0.2821619       73.8373
2017    24      2       0.3096111       79.3592
2017    24      3       0.3036837       78.18823
2017    24      4       0.3126719       79.95635
2017    24      5       0.2953413       76.42312
2017    24      6       0.2738391       71.90548
2017    24      7       0.2522562       67.33573
2017    25      0       0.2480226       66.49956
2017    25      1       0.2321483       62.90663
2017    25      2       0.2230454       60.75581
2017    25      3       0.2355604       63.56884
2017    25      4       0.3017291       77.65611
2017    25      5       0.3306948       83.55574
2017    25      6       0.3310895       83.54029
2017    25      7       0.325245        82.21811
2017    26      0       0.3252462       82.21654
2017    26      1       0.3421401       85.56302
2017    26      2       0.3289666       82.97765
2017    26      3       0.3400645       85.18051
2017    26      4       0.377017        92.25841
2017    26      5       0.4106509       98.38591
2017    26      6       0.4284342       101.5916
2017    26      7       0.4231063       100.8002
2017    27      0       0.404805        97.59032
2017    27      1       0.4026304       97.34652
2017    27      2       0.4386013       104.3455
2017    27      3       0.4883323       113.1788
2017    27      4       0.521858        118.6041
2017    27      5       0.5158468       117.5069
2017    27      6       0.4840761       112.1148
2017    27      7       0.4244209       101.7054
2017    28      0       0.3643124       90.29053
2017    28      1       0.3255303       82.50402
2017    28      2       0.3094956       79.32321
2017    28      3       0.2633404       69.70398
2017    28      4       0.2208156       60.33893
2017    28      5       0.2253421       61.30663
2017    28      6       0.2993443       77.09887
2017    28      7       0.357595        88.60537
2017    29      0       0.3896484       94.3666
2017    29      1       0.3930676       94.78964
2017    29      2       0.4506951       105.1792
2017    29      3       0.5071494       115.0293
2017    29      4       0.5541526       122.8211
2017    29      5       0.588682        128.5158
2017    29      6       0.5051148       115.466
2017    29      7       0.3874377       94.74104
2017    30      0       0.3143651       80.40992
2017    30      1       0.2642735       69.82519
2017    30      2       0.2973078       76.89026
2017    30      3       0.3238312       82.21569
2017    30      4       0.3398108       85.15759
2017    30      5       0.3364317       84.2191
2017    30      6       0.3793078       92.14798
2017    30      7       0.479191        109.8023
2017    31      0       0.6654462       139.8547
2017    31      1       0.681808        142.1572
2017    31      2       0.695095        144.1857
2017    31      3       0.7851432       155.8476
2017    31      4       0.8234204       160.8383
2017    31      5       0.8409929       162.9468
2017    31      6       1.041284        186.9698
2017    31      7       0.7869861       156.5511
2018    1       0       0.06087366      21.27203
2018    1       1       0.04966198      18.16048
2018    1       2       0.09123334      29.20432
2018    1       3       0.126789        38.24708
2018    1       4       0.1410927       41.87438
2018    1       5       0.1612975       46.82512
2018    1       6       0.2138786       59.07482
2018    1       7       0.3017746       77.9565
2018    2       0       0.37358         92.63692
2018    2       1       0.3635556       90.65444
2018    2       2       0.4802555       112.154
2018    2       3       0.5814593       129.0637
2018    2       4       0.5918384       130.6329
2018    2       5       0.6253168       135.4777
2018    2       6       0.583923        129.1659
2018    2       7       0.5098969       117.4057
2018    3       0       0.4317701       103.3557
2018    3       1       0.3213882       81.68622
2018    3       2       0.2754059       72.38754
2018    3       3       0.3937477       96.46383
2018    3       4       0.5290271       120.1009
2018    3       5       0.595197        130.3245
2018    3       6       0.5384537       121.3592
2018    3       7       0.5238563       119.0982
2018    4       0       0.5132594       116.773
2018    4       1       0.583864        128.1214
2018    4       2       0.5424084       121.3065
2018    4       3       0.5657016       125.2696
2018    4       4       0.5926453       129.4303
2018    4       5       0.6081589       131.7065
2018    4       6       0.5945476       129.6873
2018    4       7       0.6037202       131.0861
2018    5       0       0.6227517       133.9144
2018    5       1       0.615333        132.5646
2018    5       2       0.5713943       125.6481
2018    5       3       0.5307388       119.2317
2018    5       4       0.5435502       121.7706
2018    5       5       0.5233704       118.763
2018    5       6       0.4702457       109.7533
2018    5       7       0.3866246       94.52303
2018    6       0       0.2655344       70.12634
2018    6       1       0.2716507       71.38274
2018    6       2       0.268765        70.74428
2018    6       3       0.2836619       73.90327
2018    6       4       0.3282878       83.14106
2018    6       5       0.3651856       90.37635
2018    6       6       0.3542456       88.19377
2018    6       7       0.3792978       92.89898
2018    7       0       0.3539836       88.03926
2018    7       1       0.3181855       80.79165
2018    7       2       0.3081685       78.65755
2018    7       3       0.2828413       73.53663
2018    7       4       0.2963332       76.42624
2018    7       5       0.3161063       80.51983
2018    7       6       0.3276924       82.80042
2018    7       7       0.3042538       78.09055
2018    8       0       0.2945714       76.15481
2018    8       1       0.2998679       77.21996
2018    8       2       0.2826489       73.55485
2018    8       3       0.3034136       77.77251
2018    8       4       0.3211164       81.57653
2018    8       5       0.3293813       83.41483
2018    8       6       0.3402382       85.48993
2018    8       7       0.3107493       79.61181
2018    9       0       0.2856034       74.56289
2018    9       1       0.2537143       67.81886
2018    9       2       0.2384525       64.47279
2018    9       3       0.2617119       69.52848
2018    9       4       0.2599367       69.32548
2018    9       5       0.2402925       65.14788
2018    9       6       0.2370446       64.40445
2018    9       7       0.2304745       62.98794
2018    10      0       0.2232221       61.34923
2018    10      1       0.2576178       68.82711
2018    10      2       0.3443196       87.07163
2018    10      3       0.4821211       112.9085
2018    10      4       0.4979051       115.6755
2018    10      5       0.4768885       111.52
2018    10      6       0.4371941       103.8805
2018    10      7       0.476949        111.1285
2018    11      0       0.5122113       116.9803
2018    11      1       0.519265        117.7606
2018    11      2       0.5671365       125.6297
2018    11      3       0.6497033       138.7214
2018    11      4       0.6842934       143.5417
2018    11      5       0.6387259       136.7795
2018    11      6       0.647978        137.9769
2018    11      7       0.660316        139.8687
2018    12      0       0.6365081       136.4105
2018    12      1       0.6220732       134.0777
2018    12      2       0.6070457       131.8387
2018    12      3       0.579849        127.8251
2018    12      4       0.6140921       133.4356
2018    12      5       0.6412284       136.9193
2018    12      6       0.6261949       134.9378
2018    12      7       0.5927885       130.1814
2018    13      0       0.5754437       127.3256
2018    13      1       0.5752071       127.0453
2018    13      2       0.581373        128.1572
2018    13      3       0.5205522       118.5804
2018    13      4       0.5262796       119.6996
2018    13      5       0.5781956       128.1635
2018    13      6       0.5408356       122.2498
2018    13      7       0.5134514       117.1617
2018    14      0       0.5929116       129.5386
2018    14      1       0.6428208       136.6476
2018    14      2       0.6325105       135.2805
2018    14      3       0.6012687       131.028
2018    14      4       0.5329462       120.6332
2018    14      5       0.4739636       110.7443
2018    14      6       0.5015361       115.2732
2018    14      7       0.4900191       113.1738
2018    15      0       0.4864432       112.3768
2018    15      1       0.4705442       109.3948
2018    15      2       0.4792876       110.4888
2018    15      3       0.7072591       144.9335
2018    15      4       0.8942585       168.3124
2018    15      5       0.7218058       147.4976
2018    15      6       0.5936616       128.8397
2018    15      7       0.6726885       139.9818
2018    16      0       0.7179408       146.0202
2018    16      1       0.7553017       150.6703
2018    16      2       0.9014082       167.7657
2018    16      3       0.9608949       174.3671
2018    16      4       0.9041051       168.7376
2018    16      5       0.9588772       174.7507
2018    16      6       0.7718054       153.5483
2018    16      7       0.5733824       126.0541
2018    17      0       0.5003196       114.4413
2018    17      1       0.5581108       123.5246
2018    17      2       0.5489179       121.9979
2018    17      3       0.4541246       106.6023
2018    17      4       0.3814413       93.62263
2018    17      5       0.3172788       81.2663
2018    17      6       0.3002558       77.85171
2018    17      7       0.4431395       105.4595
2018    18      0       0.3429938       86.51597
2018    18      1       0.333943        84.63499
2018    18      2       0.4204724       101.2936
2018    18      3       0.4637239       109.1666
2018    18      4       0.3974974       97.41177
2018    18      5       0.3121512       80.70325
2018    18      6       0.2530422       68.20895
2018    18      7       0.1944363       54.85639
2018    19      0       0.1736339       49.82504
2018    19      1       0.1737378       49.70113
2018    19      2       0.1740399       49.71182
2018    19      3       0.1873606       52.83618
2018    19      4       0.2066878       57.30617
2018    19      5       0.1966006       55.0917
2018    19      6       0.2054968       57.23875
2018    19      7       0.224774        61.57061
2018    20      0       0.2186975       60.06105
2018    20      1       0.1718485       49.28922
2018    20      2       0.1698678       48.85393
2018    20      3       0.1801052       51.38775
2018    20      4       0.2309634       63.11694
2018    20      5       0.2344995       63.98204
2018    20      6       0.1984948       55.70025
2018    20      7       0.1177817       36.13785
2018    21      0       0.1047117       32.78051
2018    21      1       0.1010007       31.76362
2018    21      2       0.1450544       42.76605
2018    21      3       0.1579525       45.93126
2018    21      4       0.1779539       50.73525
2018    21      5       0.2041787       56.88423
2018    21      6       0.2242274       61.4258
2018    21      7       0.2566877       68.43724
2018    22      0       0.3063078       78.72646
2018    22      1       0.3647322       90.08646
2018    22      2       0.3810507       93.24593
2018    22      3       0.4148317       99.55261
2018    22      4       0.4246084       101.4505
2018    22      5       0.3707624       91.51014
2018    22      6       0.3525462       87.93898
2018    22      7       0.3796038       92.9115
2018    23      0       0.4785869       110.3266
2018    23      1       0.5353017       119.4396
2018    23      2       0.5594526       123.3619
2018    23      3       0.5821336       126.9123
2018    23      4       0.6016778       130.1938
2018    23      5       0.5594104       124.0484
2018    23      6       0.5768321       126.4966
2018    23      7       0.6306968       134.238
2018    24      0       0.6320678       134.5802
2018    24      1       0.6433168       136.3886
2018    24      2       0.6517572       137.8977
2018    24      3       0.687011        143.0992
2018    24      4       0.70716         146.2451
2018    24      5       0.6280696       135.5731
2018    24      6       0.5307458       120.7142
2018    24      7       0.5231349       119.4263
2018    25      0       0.5085034       116.8081
2018    25      1       0.5562309       124.1608
2018    25      2       0.5946144       129.7804
2018    25      3       0.6199512       133.5856
2018    25      4       0.6364729       136.3826
2018    25      5       0.604759        131.7342
2018    25      6       0.5937103       129.374
2018    25      7       0.5717067       125.3736
2018    26      0       0.4892138       111.4855
2018    26      1       0.5111658       114.922
2018    26      2       0.5423858       120.0373
2018    26      3       0.5648873       123.8675
2018    26      4       0.6541184       138.0009
2018    26      5       0.6958815       144.1469
2018    26      6       0.6380453       135.8711
2018    26      7       0.5891629       128.8478
2018    27      0       0.6173789       132.9224
2018    27      1       0.6260964       133.8837
2018    27      2       0.604346        130.2091
2018    27      3       0.5799111       126.4907
2018    27      4       0.5878557       127.9387
2018    27      5       0.5955111       129.4786
2018    27      6       0.6147092       132.8408
2018    27      7       0.6098774       131.8483
2018    28      0       0.5587171       123.4952
2018    28      1       0.5514848       122.4386
2018    28      2       0.6102991       132.059
2018    28      3       0.6694934       140.863
2018    28      4       0.6135001       132.3376
2018    28      5       0.4565976       105.912
2018    28      6       0.5215279       117.9309
2018    28      7       0.5789392       126.6251
2018    29      0       0.5678028       124.6355
2018    29      1       0.5722277       125.4147
2018    29      2       0.668385        140.0641
2018    29      3       0.7301487       148.635
2018    29      4       0.6492438       137.9332
2018    29      5       0.5891733       128.9911
2018    29      6       0.5848643       127.4862
2018    29      7       0.5989419       129.1566
2018    30      0       0.5572701       121.5934
2018    30      1       0.6774565       140.3821
2018    30      2       0.7335041       148.1877
2018    30      3       0.7686776       153.4304
2018    30      4       0.7357764       149.5451
2018    30      5       0.6722606       141.2725
2018    30      6       0.6533673       138.2679
2018    30      7       0.6429777       136.3975
2018    31      0       0.6942517       143.4573
2018    31      1       0.7495242       150.9263
2018    31      2       0.761614        152.8127
2018    31      3       0.7868921       156.3936
2018    31      4       0.7448178       151.5753
2018    31      5       0.7313622       150.0943
2018    31      6       0.7832562       156.6145
2018    31      7       0.7954224       157.8008
