####################################################################################################
# Month: 10Oct                                                                                     #
# Station: SPX                                                                                     #
# Frequency: 345 GHz                                                                               #
# Columns are: year    day     segment         tau     Tb (K)                                      #
####################################################################################################
2009    1       0       0.4681719       101.2045
2009    1       1       0.4291187       94.65466
2009    1       2       0.4071936       91.04321
2009    1       3       0.3732501       85.06902
2009    1       4       0.3882752       87.57156
2009    1       5       0.3743771       85.19735
2009    1       6       0.3571255       82.09176
2009    1       7       0.3137192       74.93044
2009    2       0       0.2967047       71.75581
2009    2       1       0.2501476       62.60096
2009    2       2       0.2676132       65.61389
2009    2       3       0.3449789       79.11386
2009    2       4       0.3756884       84.15871
2009    2       5       0.4260291       92.69441
2009    2       6       0.6227604       123.152
2009    2       7       0.479558        102.8067
2009    3       0       0.3721184       85.31386
2009    3       1       0.3314083       78.50014
2009    3       2       0.3054999       73.64249
2009    3       3       0.394409        88.99136
2009    3       4       0.5050031       106.3168
2009    3       5       0.4029906       90.49866
2009    3       6       0.263754        65.0374
2009    3       7       0.2480393       61.82453
2009    4       0       0.2306851       58.64536
2009    4       1       0.2362904       59.59515
2009    4       2       0.1741853       46.81843
2009    4       3       0.1623753       44.44124
2009    4       4       0.375389        85.53348
2009    4       5       0.4959945       106.0495
2009    4       6       0.4896798       105.6955
2009    4       7       0.2903579       71.15182
2009    5       0       0.2541087       64.11177
2009    5       1       0.5266625       111.4004
2009    5       2       1.12177         180.0292
2009    5       3       1.288766        193.6342
2009    5       4       1.380705        198.9773
2009    5       5       1.357392        196.9597
2009    5       6       1.165665        183.6414
2009    5       7       0.4205541       94.25803
2009    6       0       0.3579487       83.36332
2009    6       1       0.6342471       126.2303
2009    6       2       0.8432017       151.7462
2009    6       3       1.106694        177.8038
2009    6       4       1.532509        208.0665
2009    6       5       1.369006        198.5983
2009    6       6       1.379652        198.7921
2009    6       7       0.8560386       155.2614
2009    7       0       0.5498052       115.2194
2009    7       1       0.5963504       121.1861
2009    7       2       0.555149        115.2669
2009    7       3       0.3450574       80.92659
2009    7       4       0.5335052       113.1968
2009    7       5       0.9341611       161.9712
2009    7       6       1.037093        171.981
2009    7       7       0.9584362       163.757
2009    8       0       0.9503373       161.9111
2009    8       1       1.094861        175.6459
2009    8       2       1.071383        174.2795
2009    8       3       1.184353        183.9579
2009    8       4       1.278671        191.1716
2009    8       5       1.402804        199.17
2009    8       6       1.161419        181.471
2009    8       7       1.178549        182.5928
2009    9       0       1.194818        184.3296
2009    9       1       1.106542        177.1376
2009    9       2       1.025861        170.4923
2009    9       3       0.9694227       165.1576
2009    9       4       0.8964888       157.7849
2009    9       5       0.868942        154.8107
2009    9       6       0.970944        164.7309
2009    9       7       0.9417791       162.0632
2009    10      0       0.9295497       161.1704
2009    10      1       1.005375        167.7398
2009    10      2       1.020023        169.2199
2009    10      3       1.039872        170.7179
2009    10      4       0.9234282       159.8958
2009    10      5       0.4620586       101.0468
2009    10      6       0.1752902       47.83648
2009    10      7       0.09348759      29.16322
2009    11      0       0.1155764       33.74307
2009    11      1       0.2388884       59.02465
2009    11      2       0.3443546       78.43815
2009    11      3       0.435157        94.1862
2009    11      4       0.8114574       147.3158
2009    11      5       1.194985        185.096
2009    11      6       1.139566        181.0126
2009    11      7       0.5863346       119.8895
2009    12      0       0.2983894       72.59711
2009    12      1       0.2350428       59.71403
2009    12      2       0.1365839       38.52655
2009    12      3       0.3217897       74.31588
2009    12      4       0.2549348       62.83
2009    12      5       0.1356746       38.07286
2009    12      6       0.1419971       39.08503
2009    12      7       0.1647099       44.01257
2009    13      0       0.1919704       49.75205
2009    13      1       0.2384181       59.29935
2009    13      2       0.3109165       73.51271
2009    13      3       0.3214446       75.33851
2009    13      4       0.2833926       68.41962
2009    13      5       0.2585503       63.54651
2009    13      6       0.2521103       61.93
2009    13      7       0.2022936       52.09742
2009    14      0       0.1433707       39.57128
2009    14      1       0.1098826       32.22403
2009    14      2       0.1207367       34.72239
2009    14      3       0.1319952       37.31443
2009    14      4       0.1508214       41.22704
2009    14      5       0.1054059       31.33545
2009    14      6       0.07299423      23.65363
2009    14      7       0.07771469      24.92829
2009    15      0       0.06973079      23.10322
2009    15      1       0.07652788      24.39495
2009    15      2       0.2567229       62.16011
2009    15      3       0.2650252       65.23614
2009    15      4       0.4696772       99.9144
2009    15      5       0.5579498       113.3166
2009    15      6       0.3608807       81.49559
2009    15      7       0.5201607       107.435
2009    16      0       0.5646426       114.752
2009    16      1       0.4299017       94.47218
2009    16      2       0.2984229       70.51344
2009    16      3       0.5943456       119.325
2009    16      4       0.3795286       86.0399
2009    16      5       0.4313028       94.63674
2009    16      6       0.1993082       51.74757
2009    16      7       0.195743        50.25076
2009    17      0       0.39915         87.61705
2009    17      1       0.4622442       97.54631
2009    17      2       0.3816764       84.81661
2009    17      3       0.1508911       41.37716
2009    17      4       0.2501178       61.02469
2009    17      5       0.4355514       92.05136
2009    17      6       0.3190721       73.00949
2009    17      7       0.2248604       55.75705
2009    18      0       0.261735        62.9527
2009    18      1       0.2684026       64.3475
2009    18      2       0.2568126       62.65417
2009    18      3       0.1755356       46.38468
2009    18      4       0.1846307       48.13004
2009    18      5       0.1682546       44.80178
2009    18      6       0.135023        37.69072
2009    18      7       0.1405889       38.75139
2009    19      0       0.1732117       45.53678
2009    19      1       0.227427        56.58661
2009    19      2       0.2737586       65.94035
2009    19      3       0.2922189       69.87962
2009    19      4       0.2669529       65.29865
2009    19      5       0.2142326       54.66779
2009    19      6       0.1855672       48.68571
2009    19      7       0.1990716       51.34828
2009    20      0       0.2194331       55.22989
2009    20      1       0.2489128       60.84304
2009    20      2       0.274012        65.98772
2009    20      3       0.3265341       75.66214
2009    20      4       0.4449332       95.62692
2009    20      5       0.5002848       104.3119
2009    20      6       0.5434514       111.1609
2009    20      7       0.7877771       143.7647
2009    21      0       0.9618521       162.4604
2009    21      1       0.8297886       148.319
2009    21      2       0.6982413       133.4365
2009    21      3       0.6900797       132.7614
2009    21      4       0.766174        142.2551
2009    21      5       1.078602        174.5484
2009    21      6       1.078963        174.0458
2009    21      7       0.988266        165.7791
2009    22      0       0.9456045       161.8109
2009    22      1       1.013982        167.0665
2009    22      2       0.6334278       124.7442
2009    22      3       0.4343455       94.43969
2009    22      4       0.4060138       89.25035
2009    22      5       0.2563059       63.09783
2009    22      6       0.3084158       73.0761
2009    22      7       0.4447735       96.02477
2009    23      0       0.5973185       118.7294
2009    23      1       0.6475664       125.8681
2009    23      2       0.8315146       147.5791
2009    23      3       0.908438        155.5753
2009    23      4       0.8698525       151.3247
2009    23      5       0.4616479       99.08408
2009    23      6       0.1630545       44.37681
2009    23      7       0.1340797       37.8839
2009    24      0       0.1597689       43.83608
2009    24      1       0.1849917       49.29718
2009    24      2       0.193278        50.69717
2009    24      3       0.2604551       63.61045
2009    24      4       0.4041327       89.57484
2009    24      5       0.6763775       130.5304
2009    24      6       0.9503774       162.3135
2009    24      7       1.184013        183.9749
2009    25      0       1.144448        181.2647
2009    25      1       0.5903934       121.0413
2009    25      2       0.3475659       81.39351
2009    25      3       0.4007244       90.062
2009    25      4       0.4419938       96.6386
2009    25      5       0.412808        92.0287
2009    25      6       0.4683725       100.9455
2009    25      7       0.4730975       102.1424
2009    26      0       0.4052433       91.49683
2009    26      1       0.3210584       76.4586
2009    26      2       0.3751969       86.29097
2009    26      3       0.3485839       81.51347
2009    26      4       0.1488981       41.26326
2009    26      5       0.1089642       32.06147
2009    26      6       0.1019197       30.22243
2009    26      7       0.1104798       32.22628
2009    27      0       0.1540639       41.93858
2009    27      1       0.1782667       47.14376
2009    27      2       0.173908        46.38953
2009    27      3       0.1738756       46.48282
2009    27      4       0.2225654       57.19405
2009    27      5       0.2916014       70.73872
2009    27      6       0.3505527       81.37907
2009    27      7       0.4142913       92.80777
2009    28      0       0.4775963       103.0101
2009    28      1       0.4200151       93.27373
2009    28      2       0.3942471       88.79506
2009    28      3       0.6285754       124.892
2009    28      4       0.7681677       142.7477
2009    28      5       0.8437705       150.881
2009    28      6       0.87891         154.9736
2009    28      7       0.7919684       145.6445
2009    29      0       0.5667954       115.5426
2009    29      1       0.6164788       121.2615
2009    29      2       0.5270618       110.6211
2009    29      3       0.2982082       72.57052
2009    29      4       0.216232        55.50352
2009    29      5       0.2742255       66.94058
2009    29      6       0.2981853       71.66557
2009    29      7       0.2810798       68.15412
2009    30      0       0.3182053       74.098
2009    30      1       0.3876764       86.29049
2009    30      2       0.463232        100.041
2009    30      3       0.3400565       79.90624
2009    30      4       0.1940469       51.34796
2009    30      5       0.1404151       39.72658
2009    30      6       0.1123879       33.43349
2009    30      7       0.1111389       32.94963
2009    31      0       0.1323274       37.30784
2009    31      1       0.2302482       57.20267
2009    31      2       0.3212909       74.54045
2009    31      3       0.4653746       99.17798
2009    31      4       0.7689148       141.4257
2009    31      5       0.8450315       150.8563
2009    31      6       0.6842764       132.2618
2009    31      7       0.5097444       107.9797
2010    1       0       0.5639334       114.4495
2010    1       1       0.612508        120.837
2010    1       2       0.644539        125.3433
2010    1       3       0.5845072       117.2929
2010    1       4       0.4622634       99.88416
2010    1       5       0.4037703       90.61146
2010    1       6       0.5201921       109.1183
2010    1       7       0.8339295       150.1578
2010    2       0       1.142799        179.8199
2010    2       1       1.376522        197.7875
2010    2       2       1.320998        194.0651
2010    2       3       1.192952        185.0189
2010    2       4       0.944428        163.6263
2010    2       5       1.074094        175.9222
2010    2       6       0.9847204       167.3064
2010    2       7       1.053295        173.5334
2010    3       0       1.126163        179.4561
2010    3       1       0.9975192       168.4402
2010    3       2       1.031449        172.0372
2010    3       3       1.195384        185.4626
2010    3       4       0.829166        151.2107
2010    3       5       0.731512        139.6992
2010    3       6       0.4701677       102.4114
2010    3       7       0.5035726       107.5681
2010    4       0       0.4767611       102.843
2010    4       1       0.3658636       84.23219
2010    4       2       0.3370934       79.25711
2010    4       3       0.614225        122.5024
2010    4       4       1.128208        180.0937
2010    4       5       1.181449        184.2092
2010    4       6       1.395232        199.238
2010    4       7       1.479456        205.7344
2010    5       0       1.191448        185.7543
2010    5       1       1.126539        180.2688
2010    5       2       1.209853        186.5112
2010    5       3       1.066002        174.6731
2010    5       4       0.8854761       157.5717
2010    5       5       0.7469743       141.7169
2010    5       6       0.6240984       126.0244
2010    5       7       0.5901939       121.2978
2010    6       0       0.6363807       127.1472
2010    6       1       0.8103541       148.9048
2010    6       2       1.05975         175.6327
2010    6       3       1.132873        182.6281
2010    6       4       0.9087003       160.9193
2010    6       5       0.5254578       111.5742
2010    6       6       0.3412442       80.71807
2010    6       7       0.3155843       76.53032
2010    7       0       0.4270946       96.55885
2010    7       1       0.4589862       101.8055
2010    7       2       0.4428043       98.74527
2010    7       3       0.4348434       97.56257
2010    7       4       0.4860189       105.8445
2010    7       5       0.5908474       121.861
2010    7       6       0.6099575       124.6709
2010    7       7       0.5780786       119.7015
2010    8       0       0.5978405       122.1809
2010    8       1       0.6312856       126.6195
2010    8       2       0.6264451       125.8431
2010    8       3       0.6240444       125.4507
2010    8       4       0.6530129       129.1363
2010    8       5       0.6852159       133.195
2010    8       6       0.6617837       130.0025
2010    8       7       0.6048159       121.9409
2010    9       0       0.5392876       112.1454
2010    9       1       0.4770288       102.5152
2010    9       2       0.4743808       102.0838
2010    9       3       0.4711049       101.4532
2010    9       4       0.4925856       104.8275
2010    9       5       0.5745545       116.8987
2010    9       6       0.6405333       125.9609
2010    9       7       0.6508971       127.5412
2010    10      0       0.6378197       125.9206
2010    10      1       0.6447518       126.6814
2010    10      2       0.6428442       126.2292
2010    10      3       0.5880429       118.6096
2010    10      4       0.5406908       112.158
2010    10      5       0.5213962       109.4698
2010    10      6       0.4686909       101.3361
2010    10      7       0.4974522       105.6232
2010    11      0       0.4516939       98.4629
2010    11      1       0.3086106       73.38355
2010    11      2       0.2240226       56.84658
2010    11      3       0.1852242       49.01327
2010    11      4       0.162147        44.21261
2010    11      5       0.1503147       41.93863
2010    11      6       0.1054558       31.94756
2010    11      7       0.08361799      26.64102
2010    12      0       0.08794322      27.55508
2010    12      1       0.09494161      29.12167
2010    12      2       0.1005894       30.34654
2010    12      3       0.1114182       32.96213
2010    12      4       0.1154333       34.08734
2010    12      5       0.1197567       35.17956
2010    12      6       0.1316027       37.88292
2010    12      7       0.1386034       39.53454
2010    13      0       0.1340416       38.51842
2010    13      1       0.1183694       34.97211
2010    13      2       0.1222984       35.82409
2010    13      3       0.1256546       36.57658
2010    13      4       0.1257642       36.53661
2010    13      5       0.1444828       40.57049
2010    13      6       0.1626952       44.36262
2010    13      7       0.1857161       49.13832
2010    14      0       0.1938945       50.52431
2010    14      1       0.1897169       49.49166
2010    14      2       0.1707133       45.62946
2010    14      3       0.1516504       41.80048
2010    14      4       0.1367201       38.79761
2010    14      5       0.1281017       37.03484
2010    14      6       0.1517878       42.11792
2010    14      7       0.1733849       46.63171
2010    15      0       0.1638408       44.44839
2010    15      1       0.1559217       42.67413
2010    15      2       0.1611355       43.69278
2010    15      3       0.172297        45.98687
2010    15      4       0.2125356       54.41056
2010    15      5       0.2506206       62.1147
2010    15      6       0.2198449       55.59216
2010    15      7       0.2518106       61.72629
2010    16      0       0.5089851       105.4481
2010    16      1       0.8252038       146.3036
2010    16      2       0.7694386       139.3892
2010    16      3       0.6800967       127.957
2010    16      4       0.5706924       113.412
2010    16      5       0.5303488       107.5296
2010    16      6       0.4125675       89.51597
2010    16      7       0.271557        65.15509
2010    17      0       0.2722937       65.24782
2010    17      1       0.353601        79.65666
2010    17      2       0.4262004       91.55531
2010    17      3       0.443081        94.29621
2010    17      4       0.4299338       92.36897
2010    17      5       0.415368        90.23548
2010    17      6       0.4133749       89.92615
2010    17      7       0.3785582       84.3713
2010    18      0       0.3537566       80.40389
2010    18      1       0.3201398       74.63221
2010    18      2       0.2820465       67.813
2010    18      3       0.2291597       57.75252
2010    18      4       0.2107982       54.15733
2010    18      5       0.1883498       49.56363
2010    18      6       0.1391349       38.80451
2010    18      7       0.1726955       45.78572
2010    19      0       0.2777405       66.79231
2010    19      1       0.4156602       91.57545
2010    19      2       0.4723193       100.8274
2010    19      3       0.4871244       102.6399
2010    19      4       0.5370512       110.117
2010    19      5       0.3608814       81.22768
2010    19      6       0.353281        79.94683
2010    19      7       0.1488423       41.13068
2010    20      0       0.2395637       59.8377
2010    20      1       0.3942405       87.18952
2010    20      2       0.3155486       73.05407
2010    20      3       0.2232007       55.80947
2010    20      4       0.1320808       37.15969
2010    20      5       0.1112009       32.58999
2010    20      6       0.1331781       37.38238
2010    20      7       0.1014434       30.35794
2010    21      0       0.1609757       43.05961
2010    21      1       0.2296168       57.10592
2010    21      2       0.1754031       45.86567
2010    21      3       0.1646474       43.46454
2010    21      4       0.1897646       48.96562
2010    21      5       0.2388735       59.48378
2010    21      6       0.2523605       62.32786
2010    21      7       0.219282        55.67183
2010    22      0       0.221698        55.90276
2010    22      1       0.2857839       67.89064
2010    22      2       0.4827485       101.2579
2010    22      3       0.6492671       125.1699
2010    22      4       0.8545703       150.0415
2010    22      5       0.7157406       133.9638
2010    22      6       0.8668417       152.0283
2010    22      7       0.6762587       129.6444
2010    23      0       0.6818836       130.2024
2010    23      1       0.9000737       154.7633
2010    23      2       0.8029337       144.3502
2010    23      3       0.6326747       123.4215
2010    23      4       0.261433        64.151
2010    23      5       0.3693551       83.63551
2010    23      6       0.4891733       103.266
2010    23      7       0.6171388       121.2195
2010    24      0       0.6694575       128.1091
2010    24      1       0.7897477       142.4884
2010    24      2       0.7705346       140.0662
2010    24      3       0.731194        134.8337
2010    24      4       0.6518296       124.807
2010    24      5       0.4246459       92.50473
2010    24      6       0.4695081       98.81278
2010    24      7       0.5947801       116.8362
2010    25      0       0.6456103       123.612
2010    25      1       0.6150189       119.1945
2010    25      2       0.5666108       112.2734
2010    25      3       0.5822987       114.1019
2010    25      4       0.5007011       103.1679
2010    25      5       0.442683        94.59395
2010    25      6       0.4351075       93.61938
2010    25      7       0.4100314       89.74639
2010    26      0       0.2018364       51.77079
2010    26      1       0.05724508      20.00956
2010    26      2       0.06646872      22.1862
2010    26      3       0.07585461      24.27484
2010    26      4       0.1448008       39.52917
2010    26      5       0.2726206       65.65335
2010    26      6       0.5298537       109.4358
2010    26      7       0.7607051       141.0435
2010    27      0       0.7430954       139.512
2010    27      1       0.7170985       136.395
2010    27      2       0.7362094       138.4543
2010    27      3       0.7874643       144.5345
2010    27      4       0.7955962       145.6395
2010    27      5       0.7177234       136.5527
2010    27      6       0.5775432       117.9125
2010    27      7       0.5046542       107.0274
2010    28      0       0.4924566       104.9275
2010    28      1       0.4826628       103.2638
2010    28      2       0.4718638       100.736
2010    28      3       0.2768001       67.32335
2010    28      4       0.1663912       45.00077
2010    28      5       0.2351814       59.1049
2010    28      6       0.3668638       83.76043
2010    28      7       0.4856318       103.8705
2010    29      0       0.5379466       111.7694
2010    29      1       0.4817853       103.4288
2010    29      2       0.4773135       102.8578
2010    29      3       0.4292332       95.43356
2010    29      4       0.3389561       79.67974
2010    29      5       0.2399112       60.6253
2010    29      6       0.1923166       50.98272
2010    29      7       0.2741632       68.26044
2010    30      0       0.6471511       128.335
2010    30      1       1.120476        176.9065
2010    30      2       1.058291        171.4469
2010    30      3       0.4574803       98.80134
2010    30      4       0.4633652       99.10814
2010    30      5       0.6367427       124.8058
2010    30      6       0.6909886       131.9054
2010    30      7       0.9038844       155.6176
2010    31      0       0.8427265       149.2192
2010    31      1       0.6416327       125.2799
2010    31      2       0.55817         113.4336
2010    31      3       0.4456364       96.39831
2010    31      4       0.7468949       137.7326
2010    31      5       0.7496067       139.296
2010    31      6       0.8081872       146.3818
2010    31      7       0.7953079       144.269
2011    1       0       0.5606023       117.9776
2011    1       1       0.5620074       118.2245
2011    1       2       0.5649578       118.6965
2011    1       3       0.554239        117.1981
2011    1       4       0.5184127       111.7745
2011    1       5       0.4924173       107.6778
2011    1       6       0.473272        104.6767
2011    1       7       0.4627183       102.9712
2011    2       0       0.4623569       102.8658
2011    2       1       0.4469988       100.2153
2011    2       2       0.4245041       96.34102
2011    2       3       0.432908        97.724
2011    2       4       0.4620014       102.6383
2011    2       5       0.4726798       104.4783
2011    2       6       0.4649996       103.3509
2011    2       7       0.4564809       101.9871
2011    3       0       0.4284085       97.16963
2011    3       1       0.4163285       95.18312
2011    3       2       0.3747209       87.89285
2011    3       3       0.3373205       81.14547
2011    3       4       0.3157721       76.9942
2011    3       5       0.2740838       68.72644
2011    3       6       0.2457429       62.97829
2011    3       7       0.2506211       63.91307
2011    4       0       0.2420946       62.19655
2011    4       1       0.2321604       60.12339
2011    4       2       0.2095887       55.31199
2011    4       3       0.165699        45.89981
2011    4       4       0.1965061       52.35178
2011    4       5       0.3227351       77.66002
2011    4       6       0.3920089       90.32146
2011    4       7       0.3849791       88.70716
2011    5       0       0.3144907       75.29212
2011    5       1       0.2232805       57.48752
2011    5       2       0.3023358       73.87949
2011    5       3       0.3306886       79.12989
2011    5       4       0.2457436       62.238
2011    5       5       0.2850643       70.02666
2011    5       6       0.2758555       68.54112
2011    5       7       0.2779217       68.97624
2011    6       0       0.2691897       66.88896
2011    6       1       0.3693385       85.46533
2011    6       2       0.3774355       86.78858
2011    6       3       0.3931327       89.34854
2011    6       4       0.5962887       121.1993
2011    6       5       1.231864        188.4557
2011    6       6       1.166687        182.393
2011    6       7       1.026368        168.931
2011    7       0       0.8920379       155.2288
2011    7       1       0.3454195       78.9363
2011    7       2       0.1038047       31.0976
2011    7       3       0.3731696       83.22924
2011    7       4       0.3649825       81.72897
2011    7       5       0.2667823       64.41469
2011    7       6       0.170063        44.98399
2011    7       7       0.2253122       56.12045
2011    8       0       0.2616131       63.16322
2011    8       1       0.4214691       91.29126
2011    8       2       0.616858        119.5283
2011    8       3       0.6307357       121.3877
2011    8       4       0.5542821       111.3632
2011    8       5       0.4043391       88.8978
2011    8       6       0.2826725       67.57698
2011    8       7       0.1729949       45.97107
2011    9       0       0.2607814       63.32906
2011    9       1       0.1456552       39.98488
2011    9       2       0.1673777       44.42055
2011    9       3       0.23256         57.50871
2011    9       4       0.3546189       80.85172
2011    9       5       0.7250792       136.8644
2011    9       6       1.176372        182.8597
2011    9       7       1.347001        195.7895
2011    10      0       1.374106        197.3084
2011    10      1       1.408423        200.1364
2011    10      2       1.319366        194.2216
2011    10      3       1.075474        174.7023
2011    10      4       0.8842441       156.6981
2011    10      5       0.596471        121.9352
2011    10      6       0.5274552       111.8239
2011    10      7       0.6531759       130.1061
2011    11      0       0.6298743       126.1911
2011    11      1       0.4668581       100.7589
2011    11      2       0.4048729       90.22175
2011    11      3       0.2740099       67.5427
2011    11      4       0.3029007       73.63183
2011    11      5       0.647323        128.3258
2011    11      6       0.6038495       122.2817
2011    11      7       0.4453955       98.48918
2011    12      0       0.4002806       90.55145
2011    12      1       0.4849215       105.1528
2011    12      2       0.4711075       102.608
2011    12      3       0.3747905       86.20145
2011    12      4       0.3456841       80.7825
2011    12      5       0.3799328       86.41223
2011    12      6       0.4062973       90.52316
2011    12      7       0.3692549       84.92722
2011    13      0       0.3049836       73.76369
2011    13      1       0.1646141       44.9299
2011    13      2       0.2559544       63.39581
2011    13      3       0.2607918       64.22518
2011    13      4       0.1534438       42.3215
2011    13      5       0.1022988       30.88465
2011    13      6       0.1038301       30.93525
2011    13      7       0.1196456       34.42238
2011    14      0       0.1321191       37.10459
2011    14      1       0.1760241       47.03602
2011    14      2       0.1656908       45.06783
2011    14      3       0.1363649       38.85039
2011    14      4       0.1119619       33.03614
2011    14      5       0.1267936       36.27319
2011    14      6       0.174579        46.6287
2011    14      7       0.2289486       57.84866
2011    15      0       0.2758235       66.74681
2011    15      1       0.3400691       78.15736
2011    15      2       0.3845536       86.0714
2011    15      3       0.3862026       86.72858
2011    15      4       0.33993         79.06459
2011    15      5       0.2910972       70.67713
2011    15      6       0.2570841       64.49947
2011    15      7       0.2479507       62.68547
2011    16      0       0.2482021       62.65324
2011    16      1       0.2403439       60.99764
2011    16      2       0.2416714       61.18851
2011    16      3       0.2558646       63.95403
2011    16      4       0.2554625       63.87928
2011    16      5       0.2565531       64.08645
2011    16      6       0.2517635       63.1323
2011    16      7       0.2464725       62.08019
2011    17      0       0.2424495       61.25674
2011    17      1       0.2377208       60.27524
2011    17      2       0.2368884       60.06453
2011    17      3       0.2409705       60.78825
2011    17      4       0.2453842       61.61221
2011    17      5       0.2337459       59.26452
2011    17      6       0.2055165       53.50833
2011    17      7       0.1740006       46.79973
2011    18      0       0.160749        43.76404
2011    18      1       0.2077066       52.99178
2011    18      2       0.2545853       62.50739
2011    18      3       0.1902691       50.20877
2011    18      4       0.2080858       53.36038
2011    18      5       0.2521333       61.85647
2011    18      6       0.3652359       82.65574
2011    18      7       0.5996699       119.2956
2011    19      0       0.7731629       141.4985
2011    19      1       0.9431898       159.8603
2011    19      2       0.962484        161.907
2011    19      3       0.7844158       143.4098
2011    19      4       1.003779        165.4608
2011    19      5       0.9066519       155.0886
2011    19      6       0.3947671       87.11356
2011    19      7       0.2305852       57.20866
2011    20      0       0.168601        44.89778
2011    20      1       0.1164327       33.70745
2011    20      2       0.08300205      26.04437
2011    20      3       0.08065904      25.55258
2011    20      4       0.09321956      28.43515
2011    20      5       0.1036764       30.70842
2011    20      6       0.1050554       30.95457
2011    20      7       0.1156955       33.26041
2011    21      0       0.1461605       39.95781
2011    21      1       0.2019212       51.69067
2011    21      2       0.2518036       62.13444
2011    21      3       0.2333662       58.78645
2011    21      4       0.199341        51.85699
2011    21      5       0.1642136       44.35557
2011    21      6       0.1324473       37.43771
2011    21      7       0.1188374       34.43676
2011    22      0       0.1141294       33.32956
2011    22      1       0.1159899       33.64111
2011    22      2       0.1228074       35.1508
2011    22      3       0.1382779       38.59688
2011    22      4       0.1490385       41.01702
2011    22      5       0.1639496       44.34494
2011    22      6       0.1889893       49.86736
2011    22      7       0.1844622       48.97027
2011    23      0       0.1511302       41.6288
2011    23      1       0.1412688       39.15006
2011    23      2       0.1632292       43.7741
2011    23      3       0.2059639       52.67988
2011    23      4       0.2343096       58.65421
2011    23      5       0.2415309       60.36151
2011    23      6       0.2354812       59.32787
2011    23      7       0.2239215       57.03681
2011    24      0       0.2283693       57.93732
2011    24      1       0.2459944       61.42392
2011    24      2       0.2472567       61.67535
2011    24      3       0.2183099       55.82432
2011    24      4       0.2799525       68.62118
2011    24      5       0.4163779       92.99289
2011    24      6       0.8175718       148.6406
2011    24      7       1.02266         168.7825
2011    25      0       1.038228        169.7354
2011    25      1       0.9452853       159.9448
2011    25      2       1.09059         174.4057
2011    25      3       1.127068        177.8104
2011    25      4       0.8648868       152.7755
2011    25      5       1.168423        181.1465
2011    25      6       0.7058549       135.0806
2011    25      7       0.6288432       125.0381
2011    26      0       0.3920091       88.72803
2011    26      1       0.224518        56.95659
2011    26      2       0.2431819       60.46222
2011    26      3       0.1589032       43.15344
2011    26      4       0.1581204       42.72581
2011    26      5       0.1292625       36.70101
2011    26      6       0.1207112       34.7194
2011    26      7       0.1871755       48.62836
2011    27      0       0.2543034       62.74471
2011    27      1       0.324796        76.18833
2011    27      2       0.3683889       83.81129
2011    27      3       0.6940524       132.6297
2011    27      4       0.8966045       156.6036
2011    27      5       0.8772254       154.8958
2011    27      6       0.6597325       128.7729
2011    27      7       0.5495791       113.5639
2011    28      0       0.7301712       137.6295
2011    28      1       0.9397129       161.5049
2011    28      2       0.9283344       161.0084
2011    28      3       0.902743        158.2932
2011    28      4       0.9029484       158.5708
2011    28      5       0.9185246       160.3236
2011    28      6       0.9379164       162.2136
2011    28      7       0.957844        163.6399
2011    29      0       0.8720629       154.8151
2011    29      1       0.7755015       144.3094
2011    29      2       0.801198        147.4311
2011    29      3       0.9802024       165.8806
2011    29      4       1.029537        170.4468
2011    29      5       1.017704        169.2426
2011    29      6       1.078958        174.7931
2011    29      7       0.9546196       163.363
2011    30      0       0.823251        149.4608
2011    30      1       0.7217427       137.4273
2011    30      2       0.638365        126.8855
2011    30      3       0.5931402       120.7648
2011    30      4       0.615073        123.7043
2011    30      5       0.5739274       117.9642
2011    30      6       0.5260202       110.9468
2011    30      7       0.5065813       107.9701
2011    31      0       0.5553771       115.2559
2011    31      1       0.6002804       121.7105
2011    31      2       0.5560431       115.292
2011    31      3       0.4757539       102.7871
2011    31      4       0.4087767       91.59425
2011    31      5       0.4317385       95.08438
2011    31      6       0.4761746       101.8869
2011    31      7       0.5392661       111.2156
2012    1       0       0.8229572       148.566
2012    1       1       0.8024318       146.603
2012    1       2       0.8049343       146.7337
2012    1       3       0.7979909       145.8754
2012    1       4       0.8357723       150.1525
2012    1       5       0.6989742       134.1842
2012    1       6       0.4819599       103.5843
2012    1       7       0.349174        81.03446
2012    2       0       0.4011413       89.49566
2012    2       1       0.4863727       103.3118
2012    2       2       0.5869711       117.9013
2012    2       3       0.8410931       149.8941
2012    2       4       0.6924506       133.5721
2012    2       5       0.42281         94.23357
2012    2       6       0.3047537       72.93655
2012    2       7       0.2660498       65.31627
2012    3       0       0.2468214       61.57052
2012    3       1       0.2995701       71.80616
2012    3       2       0.2652307       64.38798
2012    3       3       0.2309364       57.86546
2012    3       4       0.2966399       70.27024
2012    3       5       0.3481988       79.75299
2012    3       6       0.4554546       97.68543
2012    3       7       0.5400051       110.9141
2012    4       0       0.7159967       134.7062
2012    4       1       0.589381        117.6537
2012    4       2       0.7533231       138.7197
2012    4       3       0.9610431       162.8145
2012    4       4       0.9517964       162.2423
2012    4       5       0.2689435       67.32345
2012    4       6       0.1703062       46.39326
2012    4       7       0.2194961       55.502
2012    5       0       0.2674907       65.64296
2012    5       1       0.4812733       103.1705
2012    5       2       0.6924922       133.1975
2012    5       3       0.6514498       128.5197
2012    5       4       0.4973228       106.3815
2012    5       5       0.3482107       81.29112
2012    5       6       0.2263727       58.03801
2012    5       7       0.1898179       50.76202
2012    6       0       0.2421959       61.61792
2012    6       1       0.2545038       63.93377
2012    6       2       0.2115268       54.88114
2012    6       3       0.2990536       72.37661
2012    6       4       0.3208535       75.63524
2012    6       5       0.503389        105.5483
2012    6       6       1.048005        170.068
2012    6       7       1.356023        194.1346
2012    7       0       1.39335         197.6148
2012    7       1       1.08712         176.5865
2012    7       2       1.191643        184.8392
2012    7       3       0.7702108       144.677
2012    7       4       0.1571568       42.91408
2012    7       5       0.1362488       37.91739
2012    7       6       0.1754379       45.90663
2012    7       7       0.2992129       70.62354
2012    8       0       0.4575508       98.24501
2012    8       1       0.460997        100.3083
2012    8       2       0.6173998       123.276
2012    8       3       0.9153301       158.3442
2012    8       4       0.9788017       165.3466
2012    8       5       1.215215        185.6882
2012    8       6       1.163337        181.8165
2012    8       7       0.834415        150.4974
2012    9       0       1.121265        177.0422
2012    9       1       1.124716        177.7248
2012    9       2       0.7951738       144.7663
2012    9       3       0.8956084       156.5626
2012    9       4       0.7802213       144.4465
2012    9       5       0.8983554       157.0615
2012    9       6       0.8652816       153.5247
2012    9       7       0.7585408       141.2621
2012    10      0       0.7263823       137.009
2012    10      1       0.6408942       125.6135
2012    10      2       0.8919894       154.695
2012    10      3       1.066583        171.8668
2012    10      4       1.18692         182.2079
2012    10      5       0.7157675       136.0985
2012    10      6       0.3773685       86.44383
2012    10      7       0.2211461       56.86102
2012    11      0       0.1916106       50.72979
2012    11      1       0.2158926       55.81498
2012    11      2       0.312644        74.77021
2012    11      3       0.4611393       99.9942
2012    11      4       0.6279232       124.3035
2012    11      5       0.701538        133.734
2012    11      6       0.7342459       138.2087
2012    11      7       0.738203        138.9905
2012    12      0       0.7748506       143.2285
2012    12      1       0.9848277       165.3809
2012    12      2       0.9733254       164.2529
2012    12      3       0.8981804       156.0366
2012    12      4       0.7706909       141.3434
2012    12      5       0.1978727       51.3924
2012    12      6       0.06775526      22.48154
2012    12      7       0.103147        30.5834
2012    13      0       0.1650464       43.73892
2012    13      1       0.2270012       56.20929
2012    13      2       0.2080338       52.26321
2012    13      3       0.2000369       50.70435
2012    13      4       0.210162        52.69307
2012    13      5       0.1996983       50.80143
2012    13      6       0.1782052       46.24811
2012    13      7       0.3791674       83.94304
2012    14      0       0.5161145       106.953
2012    14      1       0.4384862       95.50405
2012    14      2       0.3546317       80.85896
2012    14      3       0.4849814       102.1543
2012    14      4       0.7696821       139.8401
2012    14      5       0.6647143       128.2897
2012    14      6       0.4714233       100.3625
2012    14      7       0.9042141       154.9664
2012    15      0       0.8170418       145.3676
2012    15      1       0.8256606       146.231
2012    15      2       0.7498525       137.1989
2012    15      3       0.6220192       120.9827
2012    15      4       0.4462225       95.68107
2012    15      5       0.3990715       88.36425
2012    15      6       0.3572666       81.56354
2012    15      7       0.3018203       71.99643
2012    16      0       0.2800533       68.09234
2012    16      1       0.258404        63.71847
2012    16      2       0.2422743       60.25489
2012    16      3       0.4540585       98.66752
2012    16      4       0.7147956       135.4398
2012    16      5       0.7280695       136.5686
2012    16      6       0.7900842       144.8057
2012    16      7       0.5202059       108.9234
2012    17      0       0.5650663       114.9654
2012    17      1       0.8378478       150.2617
2012    17      2       0.7235751       137.0875
2012    17      3       0.4407777       95.92407
2012    17      4       0.4189799       92.30532
2012    17      5       0.39978         89.82141
2012    17      6       0.3856323       87.37836
2012    17      7       0.4282402       94.7397
2012    18      0       0.4839049       104.1992
2012    18      1       0.5230739       110.2066
2012    18      2       0.5115316       108.6162
2012    18      3       0.6262923       125.615
2012    18      4       0.6281479       125.4176
2012    18      5       0.6689682       131.0266
2012    18      6       0.6887348       133.4443
2012    18      7       0.8162472       148.8184
2012    19      0       0.7919023       146.4406
2012    19      1       0.6241498       124.8337
2012    19      2       0.6690963       131.1857
2012    19      3       0.6107634       123.0249
2012    19      4       0.4461117       97.42511
2012    19      5       0.4969281       105.571
2012    19      6       0.5139734       108.5282
2012    19      7       0.6290155       125.4821
2012    20      0       0.900459        158.2357
2012    20      1       0.7627285       143.1487
2012    20      2       0.6852567       133.6272
2012    20      3       0.6508869       129.0657
2012    20      4       0.6334309       126.8934
2012    20      5       0.9006606       159.6898
2012    20      6       0.9870184       169.1038
2012    20      7       0.716984        139.8403
2012    21      0       0.5678886       119.3449
2012    21      1       0.666904        132.422
2012    21      2       1.075845        176.5606
2012    21      3       1.272439        192.4095
2012    21      4       1.172017        184.4286
2012    21      5       1.059244        174.9413
2012    21      6       1.093216        178.0901
2012    21      7       1.130402        181.135
2012    22      0       1.087418        177.5302
2012    22      1       1.042698        173.6512
2012    22      2       0.9081226       160.4842
2012    22      3       0.836241        152.487
2012    22      4       0.9202463       161.4943
2012    22      5       0.980995        167.7778
2012    22      6       0.87193         156.8394
2012    22      7       0.7235592       139.0763
2012    23      0       0.5978051       122.1758
2012    23      1       0.6094755       124.0703
2012    23      2       0.5554967       116.6521
2012    23      3       0.4421649       98.85199
2012    23      4       0.3493211       82.48168
2012    23      5       0.2982937       72.57832
2012    23      6       0.3077862       74.05727
2012    23      7       0.3974257       90.26743
2012    24      0       0.5347032       112.3913
2012    24      1       0.6232456       125.0553
2012    24      2       0.6211343       124.7339
2012    24      3       0.5973294       121.1284
2012    24      4       0.5993823       121.081
2012    24      5       0.6216047       124.1606
2012    24      6       0.6269135       125.3021
2012    24      7       0.5833111       119.4706
2012    25      0       0.5655913       116.7857
2012    25      1       0.5368256       112.4161
2012    25      2       0.4720415       102.3716
2012    25      3       0.4355979       96.40177
2012    25      4       0.4196278       93.82739
2012    25      5       0.3836745       87.94443
2012    25      6       0.3839568       88.03314
2012    25      7       0.4714193       102.2186
2012    26      0       0.5651483       115.6941
2012    26      1       0.5182407       108.0487
2012    26      2       0.4710476       100.8854
2012    26      3       0.5840379       117.4297
2012    26      4       0.8215526       147.3959
2012    26      5       1.241687        186.6733
2012    26      6       1.130838        178.0566
2012    26      7       1.199444        183.9914
2012    27      0       1.060573        172.8264
2012    27      1       1.12422         177.927
2012    27      2       0.9377576       160.3935
2012    27      3       0.9251743       157.9001
2012    27      4       0.6794612       129.8352
2012    27      5       0.6444273       124.3699
2012    27      6       0.4910901       102.5322
2012    27      7       0.5082219       104.85
2012    28      0       0.5845722       115.4392
2012    28      1       0.6694846       126.1152
2012    28      2       0.5196818       106.3177
2012    28      3       0.3228849       74.85037
2012    28      4       0.5555645       111.4832
2012    28      5       0.5482394       110.0227
2012    28      6       0.464473        97.3557
2012    28      7       0.4598682       96.82103
2012    29      0       0.4762073       99.33396
2012    29      1       0.3515793       79.4294
2012    29      2       0.2034809       52.1591
2012    29      3       0.08620381      26.60435
2012    29      4       0.1170334       33.55771
2012    29      5       0.2348855       58.28017
2012    29      6       0.3898          86.30485
2012    29      7       0.4520209       96.3202
2012    30      0       0.4808028       100.7309
2012    30      1       0.6083022       118.8696
2012    30      2       0.6263728       121.1586
2012    30      3       0.3940189       87.14817
2012    30      4       0.254488        62.34294
2012    30      5       0.2006794       51.64231
2012    30      6       0.1892773       49.27794
2012    30      7       0.1840238       48.33515
2012    31      0       0.1660561       44.67116
2012    31      1       0.1559766       42.54742
2012    31      2       0.1642032       44.16089
2012    31      3       0.2684184       64.49303
2012    31      4       0.3729748       83.40995
2012    31      5       0.5947144       118.4143
2012    31      6       0.9927386       164.5466
2012    31      7       1.046902        169.8015
2013    1       0       0.9985474       168.0687
2013    1       1       1.020355        169.5446
2013    1       2       0.9577391       163.8628
2013    1       3       0.7928672       146.4603
2013    1       4       0.700893        135.4872
2013    1       5       0.5449716       113.9412
2013    1       6       0.4770735       103.1308
2013    1       7       0.4298561       94.74129
2013    2       0       0.4365098       96.08521
2013    2       1       0.4729229       102.2916
2013    2       2       0.4945693       105.5134
2013    2       3       0.5452262       112.8853
2013    2       4       0.6511419       127.9801
2013    2       5       0.709823        136.2976
2013    2       6       0.6635862       130.4464
2013    2       7       0.7562102       142.1834
2013    3       0       0.8365435       151.7457
2013    3       1       0.9215932       161.1008
2013    3       2       1.177155        184.0178
2013    3       3       1.380125        199.4908
2013    3       4       1.385062        199.61
2013    3       5       1.351248        198.1455
2013    3       6       1.315255        195.4488
2013    3       7       1.415418        202.2146
2013    4       0       1.347084        198.0355
2013    4       1       1.4419          204.0471
2013    4       2       1.449989        204.9484
2013    4       3       1.159374        184.3494
2013    4       4       1.092225        179.06
2013    4       5       1.241057        190.8509
2013    4       6       1.282216        193.7135
2013    4       7       1.26546         192.2203
2013    5       0       1.507643        209.0451
2013    5       1       1.791154        222.0714
2013    5       2       1.313822        194.8865
2013    5       3       1.073911        176.2122
2013    5       4       1.098008        178.0325
2013    5       5       0.6773228       132.8194
2013    5       6       0.5076178       108.1378
2013    5       7       0.465307        101.3131
2013    6       0       0.479431        103.634
2013    6       1       0.5254333       110.6805
2013    6       2       0.5496666       114.1313
2013    6       3       0.5589447       115.6147
2013    6       4       0.6382037       127.0545
2013    6       5       0.7616155       142.6961
2013    6       6       0.7773425       144.5255
2013    6       7       0.6491122       128.7304
2013    7       0       0.6117709       123.8253
2013    7       1       0.5741878       118.4686
2013    7       2       0.5387026       113.0177
2013    7       3       0.6233888       124.8546
2013    7       4       0.7539359       141.7523
2013    7       5       0.8001223       147.0442
2013    7       6       0.839132        151.7836
2013    7       7       0.840484        152.1091
2013    8       0       0.8870508       156.9121
2013    8       1       0.9470756       162.9063
2013    8       2       0.8477918       152.3876
2013    8       3       0.6649154       130.3424
2013    8       4       0.6305321       125.8798
2013    8       5       0.5865015       119.7782
2013    8       6       0.5359869       112.1866
2013    8       7       0.4739779       102.6404
2013    9       0       0.4730961       102.5342
2013    9       1       0.4821801       103.894
2013    9       2       0.5008771       106.6413
2013    9       3       0.5233696       109.99
2013    9       4       0.5007796       106.6868
2013    9       5       0.3923299       89.07556
2013    9       6       0.2129938       55.41945
2013    9       7       0.2239959       56.4472
2013    10      0       0.3663289       83.4525
2013    10      1       0.5087109       106.3272
2013    10      2       0.8741462       152.2319
2013    10      3       0.8552516       149.5397
2013    10      4       0.6633224       126.6197
2013    10      5       0.4733817       99.46077
2013    10      6       0.3293774       74.95498
2013    10      7       0.3398016       76.2177
2013    11      0       0.349966        77.9834
2013    11      1       0.366992        81.1066
2013    11      2       0.3209234       73.18556
2013    11      3       0.2461425       59.52527
2013    11      4       0.355034        79.80863
2013    11      5       0.3542205       79.55221
2013    11      6       0.4639661       97.17982
2013    11      7       0.3857128       84.65971
2013    12      0       0.328271        74.91652
2013    12      1       0.4748292       99.10751
2013    12      2       0.4591639       96.61122
2013    12      3       0.3407811       76.86435
2013    12      4       0.1920422       49.09821
2013    12      5       0.3625858       80.58151
2013    12      6       0.5942003       116.3712
2013    12      7       0.6583337       125.0987
2013    13      0       0.4903698       101.7681
2013    13      1       0.1254948       35.47732
2013    13      2       0.1233364       35.0113
2013    13      3       0.1871394       48.2253
2013    13      4       0.2457022       59.73875
2013    13      5       0.311424        72.81961
2013    13      6       0.3977383       88.3125
2013    13      7       0.5469954       111.5206
2013    14      0       0.7114954       133.3546
2013    14      1       0.6698845       128.4198
2013    14      2       0.7317895       135.7025
2013    14      3       0.8190682       145.8031
2013    14      4       0.8352186       147.8819
2013    14      5       0.707496        133.1063
2013    14      6       0.503293        105.688
2013    14      7       0.5150566       107.9493
2013    15      0       0.3350021       78.00931
2013    15      1       0.3918442       87.88709
2013    15      2       0.5029909       105.7778
2013    15      3       0.5261654       108.8937
2013    15      4       0.609545        120.515
2013    15      5       0.8786873       153.6613
2013    15      6       0.9801478       163.8529
2013    15      7       0.9298097       158.7768
2013    16      0       0.824549        147.9968
2013    16      1       0.1181012       34.22198
2013    16      2       0.1554914       42.62388
2013    16      3       0.1728875       46.05344
2013    16      4       0.3714233       83.44878
2013    16      5       0.8110847       146.0334
2013    16      6       0.9043603       159.5638
2013    16      7       0.2897438       71.52099
2013    17      0       0.3460574       81.97324
2013    17      1       0.1600648       44.20357
2013    17      2       0.1954891       51.37796
2013    17      3       0.1992528       52.01542
2013    17      4       0.1952708       51.30283
2013    17      5       0.177486        47.40332
2013    17      6       0.1979038       51.28113
2013    17      7       0.2095375       53.20677
2013    18      0       0.221692        55.91392
2013    18      1       0.2460607       60.99758
2013    18      2       0.419954        92.93406
2013    18      3       0.6637248       129.1326
2013    18      4       0.9024829       157.5884
2013    18      5       0.8690989       154.5049
2013    18      6       0.9606788       162.9333
2013    18      7       0.8818172       155.5186
2013    19      0       0.6988735       135.0112
2013    19      1       0.6116615       123.1056
2013    19      2       0.5665739       116.3895
2013    19      3       0.4711145       101.2053
2013    19      4       0.3352169       78.41637
2013    19      5       0.6758315       130.2043
2013    19      6       0.9206265       158.6705
2013    19      7       1.090938        174.7868
2013    20      0       0.727841        137.2928
2013    20      1       0.973915        164.2514
2013    20      2       0.9989736       166.9277
2013    20      3       1.105123        176.0881
2013    20      4       0.9875123       164.8231
2013    20      5       0.7377997       137.8043
2013    20      6       1.038577        169.9551
2013    20      7       0.8790627       155.0889
2013    21      0       0.671393        130.5028
2013    21      1       0.5254529       110.0352
2013    21      2       0.4537462       99.0053
2013    21      3       0.7427448       140.1763
2013    21      4       0.4269811       94.96311
2013    21      5       0.3650127       83.50564
2013    21      6       0.3469252       80.64981
2013    21      7       0.5246125       109.9934
2013    22      0       0.6880395       132.3108
2013    22      1       0.8840598       154.8242
2013    22      2       0.8729686       154.0194
2013    22      3       0.9238952       159.8403
2013    22      4       0.8715141       154.4064
2013    22      5       0.5980809       120.8194
2013    22      6       0.5612818       115.3171
2013    22      7       0.4993379       106.073
2013    23      0       0.7242908       136.4655
2013    23      1       0.9605434       161.7967
2013    23      2       1.257251        188.0569
2013    23      3       1.068166        172.4456
2013    23      4       0.8196754       148.3045
2013    23      5       1.140506        179.0463
2013    23      6       1.061971        172.2112
2013    23      7       0.9396412       159.5046
2013    24      0       0.5872785       118.6313
2013    24      1       0.2208442       56.74911
2013    24      2       0.1662005       45.04335
2013    24      3       0.1500672       41.34464
2013    24      4       0.1433149       39.94291
2013    24      5       0.1235703       35.72287
2013    24      6       0.1141097       33.5161
2013    24      7       0.2066549       53.16534
2013    25      0       0.4204373       93.23383
2013    25      1       0.7818705       145.2035
2013    25      2       1.186244        185.4963
2013    25      3       1.220564        188.6337
2013    25      4       1.082881        177.2758
2013    25      5       0.8859253       157.9547
2013    25      6       0.6241123       125.6726
2013    25      7       0.4843684       104.3407
2013    26      0       0.4700911       101.9617
2013    26      1       0.6763082       132.0735
2013    26      2       0.7736205       144.1188
2013    26      3       0.7531189       141.5206
2013    26      4       0.7357045       139.5428
2013    26      5       0.6242299       125.2741
2013    26      6       0.7086745       136.2082
2013    26      7       0.8621192       154.023
2013    27      0       0.9160083       159.3132
2013    27      1       1.241703        188.3179
2013    27      2       0.7453085       140.6851
2013    27      3       0.5715326       118.1947
2013    27      4       0.5807838       119.1146
2013    27      5       0.347791        81.7365
2013    27      6       0.6892728       132.2795
2013    27      7       1.025113        169.4867
2013    28      0       1.041242        171.5269
2013    28      1       1.160979        183.0202
2013    28      2       1.16601         183.608
2013    28      3       0.5012405       106.9385
2013    28      4       0.2146732       55.1738
2013    28      5       0.3405355       80.34479
2013    28      6       0.5463922       113.2196
2013    28      7       0.8881834       155.3952
2013    29      0       0.9010206       156.6188
2013    29      1       1.006764        166.3814
2013    29      2       0.6754463       129.8172
2013    29      3       0.3103115       73.04946
2013    29      4       0.2025485       51.7158
2013    29      5       0.2291169       56.87514
2013    29      6       0.2688881       64.43871
2013    29      7       0.3299277       75.78921
2013    30      0       0.3557972       80.60387
2013    30      1       0.2661005       64.72328
2013    30      2       0.1132055       33.08704
2013    30      3       0.07818794      24.8743
2013    30      4       0.08435184      26.34681
2013    30      5       0.1079068       31.99837
2013    30      6       0.1442248       40.42675
2013    30      7       0.2057499       53.87022
2013    31      0       0.3732987       86.13646
2013    31      1       0.4279786       95.42413
2013    31      2       0.4734993       102.5262
2013    31      3       0.5315948       111.4732
2013    31      4       0.4671476       101.4791
2013    31      5       0.307046        73.42065
2013    31      6       0.213481        55.07612
2013    31      7       0.1582507       43.43267
2014    1       0       1.347445        195.457
2014    1       1       0.8351791       149.6911
2014    1       2       0.4493802       97.67836
2014    1       3       0.3576122       82.66071
2014    1       4       0.4354151       96.74517
2014    1       5       0.3588336       83.85642
2014    1       6       0.4051442       91.12755
2014    1       7       0.4528791       98.61446
2014    2       0       0.452337        98.47693
2014    2       1       0.4494417       98.24811
2014    2       2       0.4567339       99.55693
2014    2       3       0.4445632       97.80173
2014    2       4       0.4450007       97.95695
2014    2       5       0.4633956       100.9077
2014    2       6       0.4637235       101.0613
2014    2       7       0.4613489       100.6509
2014    3       0       0.4543007       99.28904
2014    3       1       0.4951474       105.3959
2014    3       2       0.5322695       110.8899
2014    3       3       0.5253172       109.6539
2014    3       4       0.5224641       109.0502
2014    3       5       0.5026652       106.0835
2014    3       6       0.4451539       97.23953
2014    3       7       0.3878967       87.90873
2014    4       0       0.3582771       82.89651
2014    4       1       0.3154345       75.28392
2014    4       2       0.2594463       64.67866
2014    4       3       0.2454402       61.93032
2014    4       4       0.3833898       87.72502
2014    4       5       0.3985281       90.16318
2014    4       6       0.3905102       88.54066
2014    4       7       0.4535737       98.99589
2014    5       0       0.5603461       114.8349
2014    5       1       0.6253247       123.4595
2014    5       2       0.6192355       122.3775
2014    5       3       0.7264199       136.3324
2014    5       4       0.9012237       155.8659
2014    5       5       1.157131        178.7693
2014    5       6       1.262339        187.6201
2014    5       7       1.062624        171.7076
2014    6       0       0.9918983       164.941
2014    6       1       1.000402        165.6557
2014    6       2       0.7908348       144.0068
2014    6       3       0.5764304       117.2319
2014    6       4       0.444051        97.41067
2014    6       5       0.3268458       77.43344
2014    6       6       0.2817555       68.56218
2014    6       7       0.4166607       91.11996
2014    7       0       1.055606        171.1298
2014    7       1       0.9321384       161.2393
2014    7       2       0.7816637       145.0166
2014    7       3       0.3229682       77.02577
2014    7       4       0.3638585       83.97513
2014    7       5       0.6556785       128.8458
2014    7       6       0.7215418       136.8473
2014    7       7       0.907737        158.0296
2014    8       0       0.950875        161.8732
2014    8       1       0.8915785       155.9764
2014    8       2       0.7373828       138.1429
2014    8       3       0.5966342       119.7568
2014    8       4       0.4937259       105.2702
2014    8       5       0.5109859       107.6746
2014    8       6       0.6875051       133.424
2014    8       7       0.5609266       116.0357
2014    9       0       0.3137377       75.03247
2014    9       1       0.2745232       67.99384
2014    9       2       0.3245605       77.14252
2014    9       3       0.318373        75.78003
2014    9       4       0.4569461       100.3185
2014    9       5       0.6565781       129.8671
2014    9       6       1.084247        175.2439
2014    9       7       1.128652        179.2065
2014    10      0       1.075086        174.8368
2014    10      1       1.14239         180.5625
2014    10      2       0.8379686       150.8111
2014    10      3       0.934074        160.453
2014    10      4       1.077091        174.1206
2014    10      5       1.017952        168.2136
2014    10      6       0.9407746       160.8379
2014    10      7       0.9314871       159.39
2014    11      0       1.149507        179.4115
2014    11      1       1.147169        179.5122
2014    11      2       1.239894        187.0794
2014    11      3       1.163393        181.063
2014    11      4       0.9164477       159.2432
2014    11      5       0.2388064       59.77295
2014    11      6       0.3530319       81.13243
2014    11      7       0.406566        90.52451
2014    12      0       0.3620105       82.90813
2014    12      1       0.3506128       80.98912
2014    12      2       0.4781509       102.5006
2014    12      3       0.7724181       143.4574
2014    12      4       1.196813        183.9651
2014    12      5       1.429174        201.0612
2014    12      6       0.5807682       118.3007
2014    12      7       0.4526311       98.46012
2014    13      0       0.5152365       108.1869
2014    13      1       1.071034        172.9791
2014    13      2       0.6077261       122.419
2014    13      3       1.222866        185.5729
2014    13      4       1.213535        185.3813
2014    13      5       1.15519         180.225
2014    13      6       0.7768937       142.009
2014    13      7       0.4341033       94.69999
2014    14      0       0.4119306       90.7894
2014    14      1       0.5636576       115.2455
2014    14      2       0.3531068       81.95146
2014    14      3       0.2793122       68.46503
2014    14      4       0.3522842       81.44549
2014    14      5       0.5171503       108.3877
2014    14      6       0.740329        138.4285
2014    14      7       0.9487605       161.3221
2014    15      0       0.9510704       161.7917
2014    15      1       0.8223363       148.645
2014    15      2       0.6757556       131.1493
2014    15      3       0.7325692       137.1541
2014    15      4       0.6846463       131.2709
2014    15      5       0.9254276       158.7109
2014    15      6       1.163669        180.4398
2014    15      7       0.6552447       130.2115
2014    16      0       0.1968009       52.8182
2014    16      1       0.1127885       33.32709
2014    16      2       0.4282788       93.65963
2014    16      3       1.128354        179.2502
2014    16      4       0.4512451       97.81214
2014    16      5       0.7117954       134.98
2014    16      6       1.320817        193.9055
2014    16      7       1.338601        196.6773
2014    17      0       0.8682223       155.2163
2014    17      1       1.303142        193.3202
2014    17      2       0.4428419       98.57751
2014    17      3       0.0871577       27.15675
2014    17      4       0.2061792       52.9093
2014    17      5       0.2150773       54.91681
2014    17      6       0.2310821       58.25053
2014    17      7       0.3524754       80.96993
2014    18      0       0.4066402       90.92617
2014    18      1       0.3641994       84.10745
2014    18      2       0.3948838       90.23778
2014    18      3       0.4291306       96.29213
2014    18      4       0.3591401       84.24507
2014    18      5       0.3032239       73.74886
2014    18      6       0.262372        65.83825
2014    18      7       0.2492249       63.50635
2014    19      0       0.4000456       91.61798
2014    19      1       0.4700451       103.0284
2014    19      2       0.3433816       80.92492
2014    19      3       0.3296189       77.32843
2014    19      4       0.3186486       76.60205
2014    19      5       0.3999422       91.17434
2014    19      6       0.5893342       122.1768
2014    19      7       0.6938833       136.3462
2014    20      0       1.017558        170.8927
2014    20      1       0.929358        161.6112
2014    20      2       1.031177        170.9463
2014    20      3       1.146477        181.844
2014    20      4       1.093131        177.6155
2014    20      5       1.374802        199.0506
2014    20      6       1.130879        179.3695
2014    20      7       1.333288        193.4771
2014    21      0       0.9439154       161.9634
2014    21      1       0.5251741       111.1932
2014    21      2       0.2822952       68.77028
2014    21      3       0.3183676       76.05558
2014    21      4       0.3212115       77.07185
2014    21      5       0.2157121       55.23373
2014    21      6       0.7735365       141.4739
2014    21      7       0.2897641       68.8346
2014    22      0       0.29335         68.65271
2014    22      1       0.3157194       73.0329
2014    22      2       0.1463384       40.02026
2014    22      3       0.1717056       45.09183
2014    22      4       0.2621157       62.90394
2014    22      5       0.4022867       87.89897
2014    22      6       0.2937094       69.28072
2014    22      7       0.3695924       83.68243
2014    23      0       0.345075        79.75028
2014    23      1       0.2954412       70.00158
2014    23      2       0.3607491       82.11435
2014    23      3       0.4342043       95.68791
2014    23      4       0.4583393       100.0306
2014    23      5       0.3764421       86.55958
2014    23      6       0.2763985       68.0341
2014    23      7       0.264353        65.51036
2014    24      0       0.3138199       74.57096
2014    24      1       0.3950261       88.86368
2014    24      2       0.4556696       99.15789
2014    24      3       0.4762058       102.4996
2014    24      4       0.4807424       103.4312
2014    24      5       0.5175793       109.0464
2014    24      6       0.7428495       139.4312
2014    24      7       0.9538793       163.0632
2014    25      0       0.9680104       164.2845
2014    25      1       0.923374        159.9225
2014    25      2       0.8270561       149.5621
2014    25      3       0.9716202       164.0208
2014    25      4       1.082112        173.6568
2014    25      5       0.8380112       150.0427
2014    25      6       0.5153017       108.5516
2014    25      7       0.3485612       81.04946
2014    26      0       0.2706368       66.60252
2014    26      1       0.216112        55.77841
2014    26      2       0.1824478       48.67071
2014    26      3       0.1809969       48.23709
2014    26      4       0.1832772       48.75215
2014    26      5       0.1701652       46.07042
2014    26      6       0.158566        43.51258
2014    26      7       0.1613578       43.95977
2014    27      0       0.1762965       46.82539
2014    27      1       0.2019714       51.73643
2014    27      2       0.2262531       56.41039
2014    27      3       0.2088869       53.19119
2014    27      4       0.175148        46.40041
2014    27      5       0.170894        45.42526
2014    27      6       0.2201862       55.16071
2014    27      7       0.2796875       66.5302
2014    28      0       0.2866997       68.09245
2014    28      1       0.2537709       62.15175
2014    28      2       0.1886505       49.49789
2014    28      3       0.1350858       38.36771
2014    28      4       0.1261954       36.54508
2014    28      5       0.1337237       38.21467
2014    28      6       0.1346475       38.36654
2014    28      7       0.1333414       38.07741
2014    29      0       0.1333653       38.08279
2014    29      1       0.1222719       35.58088
2014    29      2       0.1189652       34.80225
2014    29      3       0.1290275       36.97664
2014    29      4       0.1263304       36.19752
2014    29      5       0.1396237       38.7062
2014    29      6       0.2565966       62.64792
2014    29      7       0.6819321       130.9565
2014    30      0       0.8787934       154.3399
2014    30      1       0.756656        140.6747
2014    30      2       0.7260068       136.9643
2014    30      3       0.5981475       120.6807
2014    30      4       0.5301152       110.9092
2014    30      5       0.4681181       101.4808
2014    30      6       0.4352374       96.1664
2014    30      7       0.4467501       97.96083
2014    31      0       0.4359261       96.47084
2014    31      1       0.3863039       88.03926
2014    31      2       0.388828        88.50977
2014    31      3       0.3312479       78.27159
2014    31      4       0.3448794       80.76839
2014    31      5       0.3278448       77.71686
2014    31      6       0.3094296       74.28207
2014    31      7       0.3189843       75.91757
2015    1       0       0.08255213      26.42582
2015    1       1       0.06937536      23.29602
2015    1       2       0.08493787      27.09311
2015    1       3       0.1141438       33.96383
2015    1       4       0.1747359       47.03782
2015    1       5       0.255833        63.14355
2015    1       6       0.5442674       112.7231
2015    1       7       1.052306        172.9636
2015    2       0       1.263984        190.24
2015    2       1       1.223914        187.5689
2015    2       2       1.12609         180.069
2015    2       3       1.094153        177.4466
2015    2       4       1.062021        174.5078
2015    2       5       0.9846761       167.1427
2015    2       6       1.159335        182.7287
2015    2       7       0.771761        143.1946
2015    3       0       0.6924621       132.864
2015    3       1       0.6084253       122.2148
2015    3       2       0.5876866       119.7534
2015    3       3       0.4758441       102.6906
2015    3       4       0.7106229       135.843
2015    3       5       0.7159307       136.0857
2015    3       6       0.808473        146.7917
2015    3       7       0.9766338       164.9638
2015    4       0       1.175356        181.8873
2015    4       1       1.04895         170.7179
2015    4       2       0.9535011       160.6191
2015    4       3       0.597815        119.7588
2015    4       4       0.3642017       84.05725
2015    4       5       0.2706999       67.08191
2015    4       6       0.241358        61.13542
2015    4       7       0.4449067       96.73318
2015    5       0       1.200132        185.0356
2015    5       1       1.123694        180.3796
2015    5       2       0.6445207       128.1719
2015    5       3       0.5116237       107.6857
2015    5       4       1.173274        184.725
2015    5       5       1.820453        224.2466
2015    5       6       1.558857        211.7451
2015    5       7       1.260459        191.2184
2015    6       0       1.31287         194.6552
2015    6       1       1.132377        182.0054
2015    6       2       0.9410222       163.0716
2015    6       3       1.020075        169.8372
2015    6       4       1.163559        182.5288
2015    6       5       1.270552        190.4889
2015    6       6       1.188496        182.4762
2015    6       7       1.130682        178.2484
2015    7       0       1.434205        200.3201
2015    7       1       1.14803         180.1339
2015    7       2       0.7840658       144.4029
2015    7       3       0.3923457       88.62212
2015    7       4       0.2096571       54.27073
2015    7       5       0.2387413       59.77611
2015    7       6       0.2779446       67.29327
2015    7       7       0.2866687       69.09245
2015    8       0       0.2828132       68.55911
2015    8       1       0.3055277       72.97695
2015    8       2       0.3223799       76.21448
2015    8       3       0.3390544       79.44919
2015    8       4       0.3532845       82.14124
2015    8       5       0.3917163       88.56883
2015    8       6       0.442514        96.66725
2015    8       7       0.4766752       101.8544
2015    9       0       0.4252662       93.53394
2015    9       1       0.379861        85.85801
2015    9       2       0.3887237       87.26064
2015    9       3       0.3848907       86.60901
2015    9       4       0.5184346       108.0515
2015    9       5       0.4654519       100.006
2015    9       6       0.3660129       83.58133
2015    9       7       0.2794615       67.89326
2015    10      0       0.2430193       60.95694
2015    10      1       0.2374772       59.85378
2015    10      2       0.2411813       60.58981
2015    10      3       0.2317384       58.83334
2015    10      4       0.2167861       55.8438
2015    10      5       0.1899996       50.42719
2015    10      6       0.1584319       43.73921
2015    10      7       0.1357057       38.75944
2015    11      0       0.1377962       39.11289
2015    11      1       0.1473378       41.05819
2015    11      2       0.1624831       44.0214
2015    11      3       0.1845215       48.49224
2015    11      4       0.2073756       53.06118
2015    11      5       0.2460533       60.50886
2015    11      6       0.3132258       72.99791
2015    11      7       0.3431197       78.56194
2015    12      0       0.3790678       85.24543
2015    12      1       0.3569699       82.18706
2015    12      2       0.3904089       88.14532
2015    12      3       0.508775        106.7835
2015    12      4       0.6360874       124.4086
2015    12      5       0.6602281       127.9549
2015    12      6       0.9850445       163.9952
2015    12      7       1.025603        168.8044
2015    13      0       1.03701         169.353
2015    13      1       0.8743359       153.3662
2015    13      2       0.7233344       136.4296
2015    13      3       0.4800676       103.379
2015    13      4       0.3538295       82.4924
2015    13      5       0.3821628       86.74192
2015    13      6       0.7135256       134.0376
2015    13      7       0.6019961       118.6499
2015    14      0       0.1693578       45.17427
2015    14      1       0.1758021       46.61206
2015    14      2       0.1820971       47.9744
2015    14      3       0.1163456       33.85945
2015    14      4       0.1216702       35.09372
2015    14      5       0.180431        47.92164
2015    14      6       0.2574541       63.42965
2015    14      7       0.3119016       73.30391
2015    15      0       0.2334475       58.51792
2015    15      1       0.3838667       85.95598
2015    15      2       0.5991597       118.8014
2015    15      3       0.6397763       123.4826
2015    15      4       0.544143        110.2986
2015    15      5       0.5276321       107.7999
2015    15      6       0.6086494       118.9356
2015    15      7       0.5504231       110.7579
2015    16      0       0.554493        111.4417
2015    16      1       0.4675554       98.75894
2015    16      2       0.4379908       94.04527
2015    16      3       0.3473359       79.1148
2015    16      4       0.30723         72.11554
2015    16      5       0.3016208       71.03485
2015    16      6       0.3079689       72.15275
2015    16      7       0.3294174       75.8001
2015    17      0       0.2890105       68.51198
2015    17      1       0.4179507       90.81506
2015    17      2       0.8138707       145.4473
2015    17      3       0.751495        139.2167
2015    17      4       0.6764666       130.1123
2015    17      5       0.5801541       117.0382
2015    17      6       0.5679477       115.4326
2015    17      7       0.5731837       116.2712
2015    18      0       0.6299094       123.8086
2015    18      1       0.6595499       127.3435
2015    18      2       0.5479131       112.3434
2015    18      3       0.4314242       94.19234
2015    18      4       0.2498283       61.7008
2015    18      5       0.1999849       51.41377
2015    18      6       0.2421775       59.79735
2015    18      7       0.2487974       60.91204
2015    19      0       0.1943572       50.35186
2015    19      1       0.198773        51.00902
2015    19      2       0.232415        57.99098
2015    19      3       0.3563976       81.53893
2015    19      4       0.3961785       89.01234
2015    19      5       0.4033888       90.16629
2015    19      6       0.3729932       84.87406
2015    19      7       0.4091391       90.97951
2015    20      0       0.369662        84.38051
2015    20      1       0.227659        57.70276
2015    20      2       0.1598753       43.35268
2015    20      3       0.1539977       42.08619
2015    20      4       0.1848184       48.62226
2015    20      5       0.2362667       59.02772
2015    20      6       0.3221303       75.31434
2015    20      7       0.3963765       88.276
2015    21      0       0.3484603       80.10764
2015    21      1       0.3010495       71.68641
2015    21      2       0.2560034       63.62446
2015    21      3       0.2197906       56.61128
2015    21      4       0.1970132       51.82704
2015    21      5       0.2459305       60.88455
2015    21      6       0.5003662       105.0498
2015    21      7       0.7530199       140.2517
2015    22      0       0.7889195       145.0164
2015    22      1       0.7952593       145.9664
2015    22      2       0.9152208       159.4518
2015    22      3       1.049443        172.8978
2015    22      4       0.9787493       166.0309
2015    22      5       1.021399        169.6667
2015    22      6       0.6715742       131.3911
2015    22      7       0.4654645       100.8759
2015    23      0       0.2149479       55.78229
2015    23      1       0.1984226       52.21998
2015    23      2       0.1812665       48.70927
2015    23      3       0.1598219       44.20148
2015    23      4       0.1461586       41.27637
2015    23      5       0.1364394       39.20611
2015    23      6       0.1431678       40.53521
2015    23      7       0.1676007       45.52331
2015    24      0       0.183072        48.80478
2015    24      1       0.1965814       51.48995
2015    24      2       0.214583        55.00171
2015    24      3       0.2490121       61.4337
2015    24      4       0.2667586       64.68753
2015    24      5       0.2717257       65.47333
2015    24      6       0.3100001       72.26397
2015    24      7       0.4859408       102.0834
2015    25      0       0.6326512       124.394
2015    25      1       0.8162864       147.2835
2015    25      2       1.034878        170.2903
2015    25      3       0.9184089       158.7502
2015    25      4       0.8145894       147.1847
2015    25      5       0.2838204       68.60809
2015    25      6       0.1251159       36.43333
2015    25      7       0.1020004       31.33033
2015    26      0       0.1087332       32.88175
2015    26      1       0.1547622       43.44047
2015    26      2       0.2394447       61.32495
2015    26      3       0.345386        81.22983
2015    26      4       0.3879881       88.31871
2015    26      5       0.376075        85.8248
2015    26      6       0.3891016       87.42161
2015    26      7       0.3805658       85.46863
2015    27      0       0.3593927       81.41786
2015    27      1       0.4491523       96.91305
2015    27      2       0.6633143       128.9117
2015    27      3       0.8065057       146.7593
2015    27      4       0.7871385       144.7225
2015    27      5       0.7389554       138.815
2015    27      6       0.70579         134.6163
2015    27      7       0.7396159       138.8611
2015    28      0       0.8369353       150.4424
2015    28      1       1.125602        177.4881
2015    28      2       1.194493        182.7032
2015    28      3       0.6497224       127.4533
2015    28      4       0.4952514       105.0058
2015    28      5       0.767175        141.5695
2015    28      6       0.7722684       142.1988
2015    28      7       0.7526377       139.5231
2015    29      0       1.015982        166.8157
2015    29      1       0.9127597       156.4807
2015    29      2       0.619807        122.6543
2015    29      3       0.4871547       103.76
2015    29      4       0.4712554       102.1836
2015    29      5       0.4611924       101.0429
2015    29      6       0.411956        93.10571
2015    29      7       0.3400261       80.37694
2015    30      0       0.3235143       77.26345
2015    30      1       0.3096371       74.44488
2015    30      2       0.2721954       67.09037
2015    30      3       0.2691842       66.3239
2015    30      4       0.2651864       65.59731
2015    30      5       0.2376723       60.07086
2015    30      6       0.2190656       56.26181
2015    30      7       0.2599303       64.09163
2015    31      0       0.2497774       62.25257
2015    31      1       0.2167874       55.84863
2015    31      2       0.1624328       44.6024
2015    31      3       0.1250304       36.50317
2015    31      4       0.1262739       36.78665
2015    31      5       0.1552231       43.37279
2015    31      6       0.1760632       47.93448
2015    31      7       0.1593455       44.2287
2016    1       0       0.3845683       87.17208
2016    1       1       0.3366711       78.30113
2016    1       2       0.5571379       114.0824
2016    1       3       0.8781219       154.1211
2016    1       4       1.147605        179.1715
2016    1       5       1.209749        184.6621
2016    1       6       0.9390795       162.3538
2016    1       7       0.5815137       119.5925
2016    2       0       0.4125837       92.84329
2016    2       1       0.2609204       64.98904
2016    2       2       0.2166609       55.64811
2016    2       3       0.2639109       64.98743
2016    2       4       0.2855159       69.82548
2016    2       5       0.2409915       61.06
2016    2       6       0.1143149       33.78112
2016    2       7       0.08959465      28.00404
2016    3       0       0.1117234       33.09987
2016    3       1       0.1132638       33.45392
2016    3       2       0.1320548       37.66287
2016    3       3       0.1166892       34.32446
2016    3       4       0.1105048       32.88485
2016    3       5       0.1626075       44.53021
2016    3       6       0.1738999       46.94448
2016    3       7       0.1299153       37.42775
2016    4       0       0.1481266       41.34847
2016    4       1       0.1522999       42.16528
2016    4       2       0.08104162      25.83431
2016    4       3       0.2642561       64.63862
2016    4       4       0.376789        86.10868
2016    4       5       0.3504855       81.5401
2016    4       6       0.3099927       74.06335
2016    4       7       0.2027567       53.01241
2016    5       0       0.1471145       41.29926
2016    5       1       0.1594337       43.6945
2016    5       2       0.2175841       55.8263
2016    5       3       0.1705962       46.76641
2016    5       4       0.1823154       49.00685
2016    5       5       0.1738119       46.8753
2016    5       6       0.1359998       38.41143
2016    5       7       0.3173956       74.99939
2016    6       0       0.3445126       79.95653
2016    6       1       0.2806839       68.03754
2016    6       2       0.3658416       83.57613
2016    6       3       0.3956319       89.0322
2016    6       4       0.4421168       96.98613
2016    6       5       0.5077041       107.5191
2016    6       6       0.5370389       111.5627
2016    6       7       0.5155733       108.2338
2016    7       0       0.4821321       103.1321
2016    7       1       0.4788244       102.5439
2016    7       2       0.4732362       101.5008
2016    7       3       0.4394817       96.01528
2016    7       4       0.3654375       83.96953
2016    7       5       0.2653626       65.74298
2016    7       6       0.1900796       50.38023
2016    7       7       0.1919852       50.64004
2016    8       0       0.2270454       57.82845
2016    8       1       0.2678639       65.87725
2016    8       2       0.27379         66.94264
2016    8       3       0.2452217       61.42214
2016    8       4       0.2940516       70.19127
2016    8       5       0.3038392       72.49915
2016    8       6       0.1790029       47.17851
2016    8       7       0.1518139       40.97801
2016    9       0       0.1620563       43.06107
2016    9       1       0.1628312       43.31527
2016    9       2       0.2469594       59.82005
2016    9       3       0.1892979       49.31325
2016    9       4       0.2726661       66.09839
2016    9       5       0.474504        99.89932
2016    9       6       0.3185242       73.70904
2016    9       7       0.2400894       59.17564
2016    10      0       0.1680406       44.75691
2016    10      1       0.177715        46.60022
2016    10      2       0.2011251       51.28199
2016    10      3       0.2120916       53.3634
2016    10      4       0.2468226       60.01317
2016    10      5       0.2784701       65.91624
2016    10      6       0.2953287       69.00436
2016    10      7       0.3228147       73.89239
2016    11      0       0.3322381       75.42375
2016    11      1       0.3424174       77.01075
2016    11      2       0.3305871       75.07844
2016    11      3       0.2936095       68.77038
2016    11      4       0.3132358       72.76127
2016    11      5       0.2290087       57.09025
2016    11      6       0.1985844       50.73501
2016    11      7       0.3046281       71.67448
2016    12      0       0.2637655       64.19687
2016    12      1       0.1832238       48.1791
2016    12      2       0.1513837       41.20382
2016    12      3       0.137195        38.11855
2016    12      4       0.1594819       43.04336
2016    12      5       0.1858526       48.54489
2016    12      6       0.2141593       54.23992
2016    12      7       0.2587413       62.84606
2016    13      0       0.3285545       75.49412
2016    13      1       0.5379383       109.4994
2016    13      2       0.7835261       142.4276
2016    13      3       0.8603407       151.7566
2016    13      4       0.8904589       155.3576
2016    13      5       1.169857        180.9556
2016    13      6       1.252713        188.1236
2016    13      7       1.234008        186.4458
2016    14      0       1.039866        170.4225
2016    14      1       0.9767768       164.4783
2016    14      2       0.8506799       151.854
2016    14      3       0.6620284       130.1774
2016    14      4       0.5489704       114.1119
2016    14      5       1.300324        192.7942
2016    14      6       0.4621938       100.0416
2016    14      7       0.4679085       100.683
2016    15      0       0.6802084       130.4854
2016    15      1       0.5222729       109.2432
2016    15      2       0.359654        82.75756
2016    15      3       0.3971564       89.09931
2016    15      4       0.4258936       94.47103
2016    15      5       0.2856117       69.5117
2016    15      6       0.2457639       61.75661
2016    15      7       0.2029696       53.2958
2016    16      0       0.1651078       44.92018
2016    16      1       0.1849037       48.71499
2016    16      2       0.144356        39.96918
2016    16      3       0.1353502       37.54437
2016    16      4       0.1550312       41.70968
2016    16      5       0.1981102       50.50522
2016    16      6       0.2931972       68.90954
2016    16      7       0.5063928       104.6171
2016    17      0       0.6429192       124.2193
2016    17      1       0.6960731       131.0421
2016    17      2       0.7585444       139.2288
2016    17      3       0.8553672       150.7772
2016    17      4       0.8952342       155.3341
2016    17      5       1.033543        168.6863
2016    17      6       0.9063506       156.1703
2016    17      7       0.7752577       141.8215
2016    18      0       0.6649135       128.6641
2016    18      1       0.4532094       98.2861
2016    18      2       0.3573008       82.03792
2016    18      3       0.2919704       70.28619
2016    18      4       0.2262128       56.94199
2016    18      5       0.3220461       74.79923
2016    18      6       0.6490877       126.2248
2016    18      7       0.4858291       103.1386
2016    19      0       0.5667961       114.5044
2016    19      1       0.5471869       111.2918
2016    19      2       0.6673817       127.5851
2016    19      3       0.4597864       98.44498
2016    19      4       0.2941847       69.95847
2016    19      5       0.2955232       69.77079
2016    19      6       0.3148696       73.43604
2016    19      7       0.3406364       77.92597
2016    20      0       0.2290751       57.2047
2016    20      1       0.1665533       44.47322
2016    20      2       0.1749864       46.06061
2016    20      3       0.1581364       42.3883
2016    20      4       0.2044316       51.92606
2016    20      5       0.2291212       56.87712
2016    20      6       0.2135855       53.86215
2016    20      7       0.2238163       55.94765
2016    21      0       0.2736599       65.31268
2016    21      1       0.2679422       64.30819
2016    21      2       0.2489376       60.6123
2016    21      3       0.1777531       46.46353
2016    21      4       0.2042979       51.76962
2016    21      5       0.1737921       45.61843
2016    21      6       0.141847        39.01101
2016    21      7       0.1681415       44.42924
2016    22      0       0.1963176       50.02944
2016    22      1       0.2146624       53.79678
2016    22      2       0.2769877       65.96259
2016    22      3       0.3688934       82.49911
2016    22      4       0.3590109       81.28176
2016    22      5       0.3124321       73.12194
2016    22      6       0.315486        73.79412
2016    22      7       0.3971815       88.047
2016    23      0       0.5092368       105.7599
2016    23      1       0.4782704       100.7327
2016    23      2       0.3568657       81.04818
2016    23      3       0.510328        106.8031
2016    23      4       0.7120637       134.7315
2016    23      5       0.8632508       152.7727
2016    23      6       0.7924955       145.7692
2016    23      7       0.7168682       137.1449
2016    24      0       0.6244256       125.49
2016    24      1       0.5439093       113.6827
2016    24      2       0.4344455       96.28081
2016    24      3       0.5501669       114.3548
2016    24      4       0.5719561       116.8702
2016    24      5       0.5762106       117.7182
2016    24      6       0.7987928       146.4325
2016    24      7       0.8727672       154.5236
2016    25      0       0.9751243       165.6463
2016    25      1       0.7504675       141.0251
2016    25      2       1.118112        177.6269
2016    25      3       0.9771519       164.2449
2016    25      4       1.281042        190.318
2016    25      5       1.26601         188.3345
2016    25      6       0.8807949       154.2903
2016    25      7       0.7642158       141.2905
2016    26      0       0.755013        140.5232
2016    26      1       1.073381        172.9875
2016    26      2       0.9465143       161.2553
2016    26      3       0.7701027       142.0437
2016    26      4       0.5787984       117.7322
2016    26      5       0.3643705       83.95531
2016    26      6       0.2457267       61.79143
2016    26      7       0.199087        51.59555
2016    27      0       0.2296527       57.87009
2016    27      1       0.1891378       50.3243
2016    27      2       0.227314        57.9805
2016    27      3       0.2564812       63.61666
2016    27      4       0.3872408       88.15904
2016    27      5       0.3838464       87.91281
2016    27      6       0.3025747       73.02843
2016    27      7       0.3064707       72.90045
2016    28      0       0.3671077       83.67939
2016    28      1       0.3626875       82.37222
2016    28      2       0.2843719       68.10484
2016    28      3       0.3019409       70.84011
2016    28      4       0.2106579       53.66374
2016    28      5       0.2846417       68.27123
2016    28      6       0.4108047       91.19657
2016    28      7       0.4892336       104.1412
2016    29      0       0.3521167       80.66922
2016    29      1       0.3668016       83.79181
2016    29      2       0.3258828       77.95589
2016    29      3       0.3198309       77.20968
2016    29      4       0.3776119       87.65554
2016    29      5       0.3630003       85.30821
2016    29      6       0.2694581       67.55927
2016    29      7       0.2106699       55.34295
2016    30      0       0.1721627       46.99163
2016    30      1       0.157723        43.49209
2016    30      2       0.1702331       45.7548
2016    30      3       0.1829457       48.26806
2016    30      4       0.2327916       58.47462
2016    30      5       0.2821845       68.02106
2016    30      6       0.2814096       68.65262
2016    30      7       0.3806718       86.88038
2016    31      0       0.3970262       89.18697
2016    31      1       0.426306        93.93632
2016    31      2       0.5269161       109.723
2016    31      3       0.5888625       118.6904
2016    31      4       0.5656433       115.5182
2016    31      5       0.5667177       115.8138
2016    31      6       0.5819469       118.229
2016    31      7       0.5798632       118.3384
2017    1       0       0.3178848       75.93485
2017    1       1       0.4065416       90.46152
2017    1       2       0.3607897       82.3715
2017    1       3       0.330186        77.22672
2017    1       4       0.3659698       84.31491
2017    1       5       0.5405545       111.9601
2017    1       6       0.713994        135.5862
2017    1       7       0.8064652       147.0427
2017    2       0       0.9016983       158.0571
2017    2       1       1.047782        172.9806
2017    2       2       1.284994        192.6046
2017    2       3       1.372984        198.9247
2017    2       4       1.463126        204.6383
2017    2       5       1.160763        183.1072
2017    2       6       0.8173943       150.0568
2017    2       7       0.7830215       145.5417
2017    3       0       1.20882         186.8748
2017    3       1       1.241596        188.491
2017    3       2       0.8199832       149.7577
2017    3       3       1.232317        188.2803
2017    3       4       0.1666514       45.80342
2017    3       5       0.1182111       34.89022
2017    3       6       0.1279117       36.75517
2017    3       7       0.1591578       43.6117
2017    4       0       0.272188        66.47162
2017    4       1       0.3157431       74.44478
2017    4       2       0.3706338       83.94705
2017    4       3       0.5914006       118.4377
2017    4       4       0.842495        151.3447
2017    4       5       1.209345        187.6191
2017    4       6       1.482835        207.5107
2017    4       7       1.678275        218.8799
2017    5       0       0.7841005       148.1273
2017    5       1       0.3546263       84.42003
2017    5       2       0.3364241       80.81703
2017    5       3       0.3360454       80.58031
2017    5       4       0.2329378       60.17304
2017    5       5       0.2685821       66.90485
2017    5       6       0.6242735       125.4634
2017    5       7       1.010622        169.9531
2017    6       0       0.2563923       63.65198
2017    6       1       0.1232155       35.24076
2017    6       2       0.09096776      28.11351
2017    6       3       0.1012725       30.69883
2017    6       4       0.1597549       43.58677
2017    6       5       0.4399719       94.96099
2017    6       6       0.3279776       76.23659
2017    6       7       0.1213744       35.21179
2017    7       0       0.1225202       35.25277
2017    7       1       0.1829832       47.75601
2017    7       2       0.3399651       77.95198
2017    7       3       0.547633        112.2062
2017    7       4       0.9426663       160.8657
2017    7       5       0.8559285       152.425
2017    7       6       0.7319013       137.6405
2017    7       7       0.7325089       137.3644
2017    8       0       0.8225159       148.0776
2017    8       1       1.01406         167.7492
2017    8       2       0.2552765       63.97069
2017    8       3       0.2468097       62.22909
2017    8       4       0.2831328       69.02475
2017    8       5       0.3217068       76.34262
2017    8       6       0.3300596       77.81397
2017    8       7       0.3002243       72.41079
2017    9       0       0.208112        53.98033
2017    9       1       0.2044845       52.96622
2017    9       2       0.2854341       68.62404
2017    9       3       0.3513597       80.75088
2017    9       4       0.4408177       96.13374
2017    9       5       0.3633249       83.93419
2017    9       6       0.350105        81.8864
2017    9       7       0.3471164       81.34376
2017    10      0       0.372768        85.44188
2017    10      1       0.4332357       95.71897
2017    10      2       0.5258748       109.9437
2017    10      3       0.6606979       128.2886
2017    10      4       0.6373963       125.5494
2017    10      5       0.7256669       136.0579
2017    10      6       0.698607        133.74
2017    10      7       0.6612243       129.3647
2017    11      0       0.6081203       122.0845
2017    11      1       0.6547148       128.4897
2017    11      2       0.6330078       126.3317
2017    11      3       0.6560081       129.602
2017    11      4       0.6353964       126.6623
2017    11      5       0.3993732       90.65522
2017    11      6       0.2005049       52.29512
2017    11      7       0.1327421       38.14125
2017    12      0       0.3687846       83.71494
2017    12      1       0.3499427       80.99485
2017    12      2       0.2821165       69.22137
2017    12      3       0.1809933       48.26572
2017    12      4       0.2027133       52.66905
2017    12      5       0.2082995       53.70622
2017    12      6       0.202817        52.45212
2017    12      7       0.1819196       48.22629
2017    13      0       0.1703175       45.89473
2017    13      1       0.2256392       57.90756
2017    13      2       0.3369839       80.01309
2017    13      3       0.3847748       88.72633
2017    13      4       0.4446672       98.75265
2017    13      5       0.5174055       110.0714
2017    13      6       0.5404453       113.4245
2017    13      7       0.5330165       112.2328
2017    14      0       0.5163809       109.7866
2017    14      1       0.4864296       105.2184
2017    14      2       0.4448223       98.63827
2017    14      3       0.4039195       91.93585
2017    14      4       0.3856755       88.81587
2017    14      5       0.4048258       92.1567
2017    14      6       0.413545        93.73162
2017    14      7       0.3973875       91.01279
2017    15      0       0.3506485       82.88361
2017    15      1       0.267419        67.12451
2017    15      2       0.2067877       54.62224
2017    15      3       0.1835602       49.62937
2017    15      4       0.190967        51.24518
2017    15      5       0.2296313       59.47508
2017    15      6       0.1955628       52.4465
2017    15      7       0.1337435       38.72357
2017    16      0       0.1241548       36.32594
2017    16      1       0.1763985       47.93693
2017    16      2       0.1963099       52.34203
2017    16      3       0.1652796       45.69566
2017    16      4       0.1446518       40.96254
2017    16      5       0.1402947       39.74166
2017    16      6       0.1478244       41.17251
2017    16      7       0.1726282       46.18724
2017    17      0       0.1703682       45.87501
2017    17      1       0.1712148       46.20717
2017    17      2       0.1754361       47.03646
2017    17      3       0.1742615       46.73781
2017    17      4       0.2040281       52.93228
2017    17      5       0.2471211       61.57545
2017    17      6       0.2847755       68.61185
2017    17      7       0.34868         80.03864
2017    18      0       0.33578         78.01406
2017    18      1       0.3086645       73.72689
2017    18      2       0.2941292       71.04449
2017    18      3       0.2773426       67.81358
2017    18      4       0.2743567       67.31688
2017    18      5       0.2639102       65.23053
2017    18      6       0.2415183       60.97704
2017    18      7       0.2466587       62.26809
2017    19      0       0.5295629       111.18
2017    19      1       0.870256        154.4311
2017    19      2       0.8315434       150.0978
2017    19      3       0.8368608       150.5381
2017    19      4       0.8568794       153.0609
2017    19      5       1.018667        169.2164
2017    19      6       1.072504        173.9951
2017    19      7       0.7739811       144.0229
2017    20      0       0.5490894       114.0025
2017    20      1       0.6599514       129.1052
2017    20      2       0.8548271       152.3325
2017    20      3       0.6464751       128.4322
2017    20      4       0.5971358       121.7547
2017    20      5       0.4792677       103.2743
2017    20      6       0.6042181       121.4642
2017    20      7       0.6698473       131.3665
2017    21      0       0.9705656       166.6706
2017    21      1       1.018071        171.9414
2017    21      2       0.8833684       158.1122
2017    21      3       0.8394531       152.1987
2017    21      4       0.6835369       132.8044
2017    21      5       0.6488048       128.0948
2017    21      6       0.6839155       133.4015
2017    21      7       0.7157355       137.2459
2017    22      0       0.3558984       82.78961
2017    22      1       0.135193        38.36064
2017    22      2       0.1514931       41.58981
2017    22      3       0.305492        72.17567
2017    22      4       0.6281327       121.251
2017    22      5       0.6338368       121.8274
2017    22      6       0.4383222       93.7754
2017    22      7       0.3583034       80.59257
2017    23      0       0.4683068       98.58427
2017    23      1       0.4265196       92.5679
2017    23      2       0.3452797       78.97677
2017    23      3       0.3774879       84.38971
2017    23      4       0.3725382       83.41981
2017    23      5       0.4530627       97.38696
2017    23      6       0.2786503       67.44509
2017    23      7       0.2177029       55.31404
2017    24      0       0.2958121       70.90225
2017    24      1       0.3619672       83.06193
2017    24      2       0.3831187       86.43269
2017    24      3       0.393482        87.95039
2017    24      4       0.5276553       110.2009
2017    24      5       0.71195         136.5536
2017    24      6       0.8280017       150.9331
2017    24      7       0.8303451       151.2535
2017    25      0       0.6744755       131.332
2017    25      1       0.6687667       130.8222
2017    25      2       0.890277        156.6373
2017    25      3       0.8970314       157.8841
2017    25      4       0.8672557       154.5664
2017    25      5       0.8985925       157.9732
2017    25      6       1.211833        186.1318
2017    25      7       1.10938         178.87
2017    26      0       0.9163448       160.66
2017    26      1       0.8606243       154.6062
2017    26      2       0.6330905       126.6314
2017    26      3       0.4722466       102.2087
2017    26      4       0.5431545       112.6751
2017    26      5       0.6175856       123.9354
2017    26      6       0.5136014       108.6154
2017    26      7       0.3947566       88.13856
2017    27      0       0.6115979       122.4712
2017    27      1       0.6111842       122.3496
2017    27      2       0.5459444       112.6902
2017    27      3       0.4619662       101.1612
2017    27      4       0.119086        34.86239
2017    27      5       0.09950575      30.10113
2017    27      6       0.1719359       45.86929
2017    27      7       0.3352851       77.70898
2017    28      0       0.3797213       86.01806
2017    28      1       0.3425557       78.51505
2017    28      2       0.2328935       57.8953
2017    28      3       0.1949513       50.39262
2017    28      4       0.1493365       40.63248
2017    28      5       0.2248661       55.86522
2017    28      6       0.4795983       102.3842
2017    28      7       0.6785817       131.7096
2017    29      0       0.7243333       138.0479
2017    29      1       0.6619562       129.8382
2017    29      2       0.5894051       120.5595
2017    29      3       0.4517386       100.3007
2017    29      4       0.4827753       105.6402
2017    29      5       0.3411014       80.72241
2017    29      6       0.2751819       68.23448
2017    29      7       0.2098736       54.97091
2017    30      0       0.232673        59.21588
2017    30      1       0.2041846       53.30972
2017    30      2       0.2438978       61.47448
2017    30      3       0.2009408       52.62936
2017    30      4       0.188636        49.8293
2017    30      5       0.2445005       61.35019
2017    30      6       0.2690234       66.21095
2017    30      7       0.2766891       67.58717
2017    31      0       0.2999289       71.72336
2017    31      1       0.3397293       78.50415
2017    31      2       0.3421096       79.00733
2017    31      3       0.3745461       84.70086
2017    31      4       0.4570439       98.74162
2017    31      5       0.5083177       107.1969
2017    31      6       0.4795714       102.5211
2017    31      7       0.6248515       123.7922
2018    1       0       0.9698123       162.5313
2018    1       1       0.8651583       151.5207
2018    1       2       0.7967937       142.8663
2018    1       3       0.6927821       129.8157
2018    1       4       0.6635068       125.9429
2018    1       5       0.5125386       105.6497
2018    1       6       0.1626039       43.79523
2018    1       7       0.07962505      25.02209
2018    2       0       0.2005168       51.10675
2018    2       1       0.4009673       88.70621
2018    2       2       0.6704428       130.1028
2018    2       3       0.7658787       142.867
2018    2       4       0.9374591       161.0029
2018    2       5       0.8562878       152.8115
2018    2       6       1.113541        178.133
2018    2       7       0.825365        150.1982
2018    3       0       0.6665728       131.3368
2018    3       1       0.7296857       138.2403
2018    3       2       0.7260486       138.1547
2018    3       3       0.5910089       120.8286
2018    3       4       0.5728333       118.3881
2018    3       5       0.6482787       128.7194
2018    3       6       0.6976501       135.2418
2018    3       7       0.672161        131.9363
2018    4       0       0.4602121       100.9595
2018    4       1       0.3571243       83.24002
2018    4       2       0.3173695       75.85047
2018    4       3       0.318603        76.09393
2018    4       4       0.3170917       75.93767
2018    4       5       0.3055323       73.93639
2018    4       6       0.2745784       68.13122
2018    4       7       0.2391513       61.11237
2018    5       0       0.2325627       59.73612
2018    5       1       0.2392486       61.05625
2018    5       2       0.2568472       64.61504
2018    5       3       0.3145137       75.82347
2018    5       4       0.3447228       81.39136
2018    5       5       0.2988685       72.56854
2018    5       6       0.3081097       74.22466
2018    5       7       0.3771437       86.71585
2018    6       0       0.4757381       102.6488
2018    6       1       0.851623        151.6773
2018    6       2       1.053907        172.0323
2018    6       3       1.032396        170.6251
2018    6       4       0.8769628       155.5836
2018    6       5       1.043632        171.6055
2018    6       6       1.079654        174.5704
2018    6       7       0.9044356       157.7431
2018    7       0       0.6209496       124.0957
2018    7       1       0.513877        108.697
2018    7       2       0.5781556       118.2315
2018    7       3       0.5271378       110.895
2018    7       4       0.5578384       115.8688
2018    7       5       0.8541908       153.6469
2018    7       6       0.8423706       152.4803
2018    7       7       0.6011751       122.4594
2018    8       0       0.4760697       103.7278
2018    8       1       0.4098557       92.87872
2018    8       2       0.3959338       90.58372
2018    8       3       0.3797698       88.00829
2018    8       4       0.396618        91.08779
2018    8       5       0.4300935       96.96464
2018    8       6       0.3969924       91.38341
2018    8       7       0.3206653       77.43954
2018    9       0       0.2732403       67.74098
2018    9       1       0.2528729       63.18012
2018    9       2       0.2790972       67.94327
2018    9       3       0.330797        77.26902
2018    9       4       0.3068084       73.52314
2018    9       5       0.2124636       55.53913
2018    9       6       0.2290261       59.06942
2018    9       7       0.2538684       64.3179
2018    10      0       0.2431769       62.32994
2018    10      1       0.2670687       67.01365
2018    10      2       0.313763        75.80347
2018    10      3       0.3291884       78.8677
2018    10      4       0.3096169       75.27796
2018    10      5       0.3400857       80.89712
2018    10      6       0.3865461       88.25677
2018    10      7       0.5100106       108.1386
2018    11      0       0.6637933       130.1364
2018    11      1       0.9623018       164.1884
2018    11      2       1.278581        190.8194
2018    11      3       1.41185         199.899
2018    11      4       1.375188        197.8947
2018    11      5       1.046681        173.2534
2018    11      6       0.6201737       125.3128
2018    11      7       0.5809596       119.1406
2018    12      0       0.51049         107.7453
2018    12      1       0.3924246       88.74998
2018    12      2       0.3140211       75.15662
2018    12      3       0.3054121       73.24493
2018    12      4       0.2902193       70.32134
2018    12      5       0.3494483       81.7292
2018    12      6       0.476019        103.7887
2018    12      7       0.6104055       124.184
2018    13      0       0.6598701       130.8584
2018    13      1       0.5469941       114.7241
2018    13      2       0.4273431       95.98851
2018    13      3       0.3921969       89.98799
2018    13      4       0.3716344       86.06988
2018    13      5       0.3481847       81.60491
2018    13      6       0.2767436       68.64737
2018    13      7       0.2284353       59.13463
2018    14      0       0.2298651       59.37948
2018    14      1       0.2264083       58.69027
2018    14      2       0.2640478       66.30158
2018    14      3       0.2993618       73.1481
2018    14      4       0.3348692       79.71767
2018    14      5       0.3414888       80.91008
2018    14      6       0.2906868       71.043
2018    14      7       0.257837        64.03845
2018    15      0       0.3192704       75.41482
2018    15      1       0.3646937       83.55974
2018    15      2       0.3347693       78.21596
2018    15      3       0.2858596       69.12566
2018    15      4       0.2740612       67.01613
2018    15      5       0.2672291       65.899
2018    15      6       0.2706946       66.61478
2018    15      7       0.2965595       71.27605
2018    16      0       0.3111185       74.03766
2018    16      1       0.3339165       78.27105
2018    16      2       0.3560016       81.92235
2018    16      3       0.3832071       86.5836
2018    16      4       0.3720861       84.69929
2018    16      5       0.3545782       81.90546
2018    16      6       0.3551708       81.8662
2018    16      7       0.358688        82.3416
2018    17      0       0.389487        87.75134
2018    17      1       0.4051477       90.6427
2018    17      2       0.3945269       89.02022
2018    17      3       0.3765475       86.11352
2018    17      4       0.3967585       89.98296
2018    17      5       0.4192344       93.93901
2018    17      6       0.4440617       97.9889
2018    17      7       0.4696579       102.1578
2018    18      0       0.462641        101.0108
2018    18      1       0.4543924       99.51662
2018    18      2       0.4871838       104.3305
2018    18      3       0.4792214       102.8767
2018    18      4       0.467179        100.8859
2018    18      5       0.4748909       102.0696
2018    18      6       0.518967        108.9563
2018    18      7       0.5825725       118.5245
2018    19      0       0.5916539       119.871
2018    19      1       0.5799958       118.3415
2018    19      2       0.5565777       114.9914
2018    19      3       0.5368785       111.8522
2018    19      4       0.5263342       110.3815
2018    19      5       0.5196129       109.4447
2018    19      6       0.5064834       107.6404
2018    19      7       0.5178839       109.3551
2018    20      0       0.4815657       103.444
2018    20      1       0.4129121       92.54433
2018    20      2       0.3890579       88.3649
2018    20      3       0.2001093       52.36934
2018    20      4       0.1544901       42.66119
2018    20      5       0.267441        65.3848
2018    20      6       0.3477543       80.42406
2018    20      7       0.5050679       106.2865
2018    21      0       0.6445723       126.5311
2018    21      1       0.6887549       132.652
2018    21      2       0.7449828       140.4351
2018    21      3       0.7635164       142.8824
2018    21      4       0.6643131       130.9122
2018    21      5       0.4310444       96.16764
2018    21      6       0.1634445       44.44173
2018    21      7       0.1382803       38.90704
2018    22      0       0.1324826       37.70991
2018    22      1       0.1242378       35.76357
2018    22      2       0.122317        35.19953
2018    22      3       0.136071        38.20415
2018    22      4       0.1665916       44.87282
2018    22      5       0.2790591       67.99579
2018    22      6       0.5124784       108.5362
2018    22      7       0.621754        124.1075
2018    23      0       0.1148871       33.9228
2018    23      1       0.1135805       33.35074
2018    23      2       0.2342399       58.56475
2018    23      3       0.4371802       94.17652
2018    23      4       0.8386739       150.0383
2018    23      5       1.124152        179.6888
2018    23      6       0.9535898       164.4404
2018    23      7       0.4169628       93.46944
2018    24      0       0.6241543       125.505
2018    24      1       0.7913805       148.0225
2018    24      2       0.6135409       124.9082
2018    24      3       0.5944426       122.3478
2018    24      4       0.518007        110.5516
2018    24      5       0.3170632       75.28109
2018    24      6       0.3111238       74.23379
2018    24      7       0.2835296       68.91914
2018    25      0       0.381115        86.40505
2018    25      1       0.3720467       85.04208
2018    25      2       0.278302        69.14722
2018    25      3       0.3041583       74.21472
2018    25      4       0.2439921       62.26584
2018    25      5       0.281906        68.68623
2018    25      6       0.3625924       83.69024
2018    25      7       0.3884065       88.93573
2018    26      0       0.4657951       101.5612
2018    26      1       0.4988264       105.6715
2018    26      2       0.5037167       106.6779
2018    26      3       0.5785674       118.4714
2018    26      4       0.6319145       126.1827
2018    26      5       0.9024824       157.2428
2018    26      6       1.153164        179.7908
2018    26      7       1.029271        168.3569
2018    27      0       1.046056        169.716
2018    27      1       1.043753        169.0499
2018    27      2       1.024444        167.2949
2018    27      3       1.083054        172.8215
2018    27      4       1.114381        175.7862
2018    27      5       1.125286        176.714
2018    27      6       1.10576         175.4714
2018    27      7       1.17935         181.8983
2018    28      0       1.162854        180.7423
2018    28      1       0.983379        165.4173
2018    28      2       1.094222        174.7839
2018    28      3       1.073078        173.4121
2018    28      4       0.7557097       141.3652
2018    28      5       0.5088099       107.0534
2018    28      6       0.710232        135.1547
2018    28      7       0.6544931       127.8595
2018    29      0       0.926797        159.1356
2018    29      1       0.7722967       141.6407
2018    29      2       1.028495        168.481
2018    29      3       0.9266201       161.3173
2018    29      4       0.8444495       152.1669
2018    29      5       0.8357277       149.6274
2018    29      6       0.8041688       144.7525
2018    29      7       0.7578562       140.3583
2018    30      0       0.5749398       115.9668
2018    30      1       0.7120374       133.2334
2018    30      2       0.791253        141.8022
2018    30      3       0.7417977       136.8913
2018    30      4       0.9056767       155.002
2018    30      5       0.5474208       111.7302
2018    30      6       0.3274526       76.38779
2018    30      7       0.2243365       56.7888
2018    31      0       0.394222        88.40383
2018    31      1       0.6566306       126.8792
2018    31      2       0.8321076       147.909
2018    31      3       0.7894901       142.9452
2018    31      4       0.3997304       88.64133
2018    31      5       0.5171993       106.6532
2018    31      6       0.5503284       111.9261
2018    31      7       0.6406213       123.9355
