####################################################################################################
# Month: 11Nov                                                                                     #
# Station: JELM                                                                                    #
# Frequency: 345 GHz                                                                               #
# Columns are: year    day     segment         tau     Tb (K)                                      #
####################################################################################################
2009    1       0       0.7612436       145.2059
2009    1       1       0.8115129       150.8491
2009    1       2       0.6546738       130.9911
2009    1       3       0.6841363       134.3659
2009    1       4       0.7658797       144.0305
2009    1       5       0.7318852       140.1922
2009    1       6       0.657366        130.9702
2009    1       7       0.7351192       140.6178
2009    2       0       0.7573343       143.0736
2009    2       1       0.8625313       155.2568
2009    2       2       0.8383031       153.2153
2009    2       3       0.8339303       152.5013
2009    2       4       0.9623768       164.4615
2009    2       5       0.833843        150.7469
2009    2       6       0.681642        133.0228
2009    2       7       0.7032045       136.8755
2009    3       0       0.4694306       103.9167
2009    3       1       0.4569709       101.0068
2009    3       2       0.4856044       105.1018
2009    3       3       0.5156243       109.3306
2009    3       4       0.5138939       109.0771
2009    3       5       0.635595        126.1718
2009    3       6       0.8090173       148.2594
2009    3       7       0.8515447       153.8498
2009    4       0       0.8086565       149.1944
2009    4       1       0.790184        146.9956
2009    4       2       0.7775274       145.8543
2009    4       3       0.7668862       145.0121
2009    4       4       0.5690017       119.1339
2009    4       5       0.4384609       98.36267
2009    4       6       0.3751151       87.22807
2009    4       7       0.3810483       88.27608
2009    5       0       0.3836796       88.85878
2009    5       1       0.3262393       78.49643
2009    5       2       0.2996458       73.48832
2009    5       3       0.3304587       79.33532
2009    5       4       0.3411949       81.39951
2009    5       5       0.472306        104.7806
2009    5       6       0.6069138       125.0274
2009    5       7       0.709189        138.7805
2009    6       0       0.7207673       140.5995
2009    6       1       0.7586765       145.2971
2009    6       2       0.6273299       127.8362
2009    6       3       0.5734181       121.006
2009    6       4       0.585738        122.6447
2009    6       5       0.5027594       109.5214
2009    6       6       0.4634933       103.4395
2009    6       7       0.5450444       116.3971
2009    7       0       0.6472631       130.8727
2009    7       1       0.6928067       136.839
2009    7       2       0.721698        140.3311
2009    7       3       0.837379        154.4512
2009    7       4       0.9895104       170.3363
2009    7       5       1.103564        180.7271
2009    7       6       1.257612        193.1362
2009    7       7       1.240143        192.1172
2009    8       0       1.042713        175.4641
2009    8       1       0.9412054       165.2919
2009    8       2       1.03086         173.6809
2009    8       3       1.13481         182.3123
2009    8       4       0.9758385       167.7349
2009    8       5       0.5085016       110.0783
2009    8       6       0.3043827       74.41575
2009    8       7       0.4673138       102.7207
2009    9       0       0.5178195       110.6495
2009    9       1       0.6077199       123.2429
2009    9       2       0.7342273       139.4666
2009    9       3       0.7593751       142.7659
2009    9       4       0.5984752       121.4706
2009    9       5       0.4771458       103.5783
2009    9       6       0.4796884       103.8617
2009    9       7       0.5670673       117.0443
2009    10      0       0.5497084       115.0231
2009    10      1       0.529079        112.1084
2009    10      2       0.5136179       109.4785
2009    10      3       0.608025        122.8095
2009    10      4       0.6987753       135.1485
2009    10      5       0.7458784       141.0877
2009    10      6       0.803527        148.1167
2009    10      7       0.8051705       148.9865
2009    11      0       0.7824916       146.463
2009    11      1       0.7858869       146.8481
2009    11      2       0.7105058       137.9022
2009    11      3       0.7277749       140.2026
2009    11      4       0.8028949       148.8653
2009    11      5       0.8238291       150.92
2009    11      6       1.010161        171.233
2009    11      7       1.235733        190.9678
2009    12      0       1.190415        187.9864
2009    12      1       1.069126        177.9225
2009    12      2       0.9818324       169.4691
2009    12      3       1.012395        173.2778
2009    12      4       1.171889        187.2602
2009    12      5       1.540285        212.8102
2009    12      6       1.472689        208.6101
2009    12      7       1.646092        217.8117
2009    13      0       1.619023        215.727
2009    13      1       1.43613         204.9869
2009    13      2       1.497195        208.3951
2009    13      3       1.627928        214.4167
2009    13      4       1.437323        203.0032
2009    13      5       1.343241        196.6967
2009    13      6       1.544928        208.6887
2009    13      7       1.302108        191.1451
2009    14      0       0.7693119       142.2957
2009    14      1       0.3442357       80.76836
2009    14      2       0.2666153       66.42907
2009    14      3       0.2695323       66.87884
2009    14      4       0.2967631       71.87367
2009    14      5       0.3832554       87.15666
2009    14      6       0.6776379       130.5546
2009    14      7       0.9915746       164.6531
2009    15      0       1.059198        170.3787
2009    15      1       1.004575        164.9402
2009    15      2       0.943903        158.5313
2009    15      3       0.8341128       146.7079
2009    15      4       0.6730716       127.8403
2009    15      5       0.531389        108.8399
2009    15      6       0.4274403       93.13705
2009    15      7       0.4006162       88.88245
2009    16      0       0.3540901       81.09057
2009    16      1       0.2287083       57.84124
2009    16      2       0.1572264       43.1759
2009    16      3       0.1238665       35.86843
2009    16      4       0.1218785       35.42529
2009    16      5       0.1333202       37.81499
2009    16      6       0.1690372       45.53586
2009    16      7       0.2606877       64.34553
2009    17      0       0.3778571       86.41201
2009    17      1       0.4855742       105.1177
2009    17      2       0.5467611       115.2978
2009    17      3       0.5159206       110.9309
2009    17      4       0.4382158       98.62582
2009    17      5       0.3760458       87.98364
2009    17      6       0.3559413       84.4469
2009    17      7       0.3586834       85.10914
2009    18      0       0.3489519       83.41355
2009    18      1       0.3265764       79.24837
2009    18      2       0.3106581       76.23972
2009    18      3       0.2911344       72.51885
2009    18      4       0.2788516       70.0917
2009    18      5       0.2833909       70.8915
2009    18      6       0.2892222       72.10945
2009    18      7       0.3018478       74.65563
2009    19      0       0.305892        75.28074
2009    19      1       0.3124571       76.17437
2009    19      2       0.3703961       86.33169
2009    19      3       0.4631257       101.7123
2009    19      4       0.5198849       110.2564
2009    19      5       0.5285047       111.1664
2009    19      6       0.5404762       113.0317
2009    19      7       0.5006923       107.6294
2009    20      0       0.4093631       92.94831
2009    20      1       0.2534442       63.64938
2009    20      2       0.1943913       51.1664
2009    20      3       0.2317019       59.15313
2009    20      4       0.2768352       68.03858
2009    20      5       0.3418942       80.20624
2009    20      6       0.3510008       82.21539
2009    20      7       0.3249293       77.77374
2009    21      0       0.2772583       68.90549
2009    21      1       0.2203579       57.6566
2009    21      2       0.1997369       53.23309
2009    21      3       0.2505286       63.79746
2009    21      4       0.3226957       77.37022
2009    21      5       0.4483867       98.21089
2009    21      6       0.3911145       89.49173
2009    21      7       0.6108814       122.5452
2009    22      0       0.7523225       139.7892
2009    22      1       0.8897843       154.235
2009    22      2       0.7263713       135.981
2009    22      3       0.4802083       102.7485
2009    22      4       0.2760211       67.53042
2009    22      5       0.2338621       58.00799
2009    22      6       0.3966921       87.44905
2009    22      7       0.4968578       105.2506
2009    23      0       0.6637111       129.242
2009    23      1       0.7181941       136.4065
2009    23      2       0.7540666       139.8556
2009    23      3       0.7035639       132.2866
2009    23      4       0.6810195       128.8705
2009    23      5       0.6438915       123.8588
2009    23      6       0.6151413       119.7647
2009    23      7       0.54216         109.7967
2009    24      0       0.4135629       90.17471
2009    24      1       0.3738694       83.89061
2009    24      2       0.3187295       74.90041
2009    24      3       0.2022929       52.7456
2009    24      4       0.1829064       48.88625
2009    24      5       0.2230106       57.17096
2009    24      6       0.3530385       82.37389
2009    24      7       0.5163327       110.052
2009    25      0       0.6206376       125.0039
2009    25      1       0.5893632       120.4392
2009    25      2       0.572227        117.6302
2009    25      3       0.850379        152.7916
2009    25      4       0.7791326       144.5939
2009    25      5       0.7114263       136.2278
2009    25      6       0.821653        149.7721
2009    25      7       0.9354472       162.4291
2009    26      0       0.7738126       145.6462
2009    26      1       0.5938508       122.6602
2009    26      2       0.4990982       108.3731
2009    26      3       0.4637504       103.0653
2009    26      4       0.3792796       88.74814
2009    26      5       0.3635901       85.78989
2009    26      6       0.4012178       92.04161
2009    26      7       0.343425        81.6986
2009    27      0       0.2164287       56.4238
2009    27      1       0.1506593       42.40393
2009    27      2       0.1262098       37.21128
2009    27      3       0.1606086       45.30861
2009    27      4       0.1973886       53.29489
2009    27      5       0.1707902       47.4033
2009    27      6       0.1457879       41.64272
2009    27      7       0.1732386       47.90928
2009    28      0       0.1911656       51.72679
2009    28      1       0.2089089       55.22184
2009    28      2       0.2635684       65.84609
2009    28      3       0.371768        85.63708
2009    28      4       0.5043166       107.1476
2009    28      5       0.5876041       119.3528
2009    28      6       0.7585458       141.228
2009    28      7       0.9926903       165.9348
2009    29      0       1.081772        174.0925
2009    29      1       1.176895        181.6029
2009    29      2       1.046087        170.3038
2009    29      3       0.5932142       119.4332
2009    29      4       0.322258        75.7446
2009    29      5       0.4259297       93.46301
2009    29      6       0.4735556       101.4348
2009    29      7       0.5008044       106.238
2009    30      0       0.5036789       107.0011
2009    30      1       0.5112393       108.2742
2009    30      2       0.4898677       105.2801
2009    30      3       0.5264577       110.7172
2009    30      4       0.5313149       111.4883
2009    30      5       0.51229         108.6229
2009    30      6       0.5351635       112.4663
2009    30      7       0.5385172       113.6928
2010    1       0       1.137529        179.6856
2010    1       1       1.174427        182.2592
2010    1       2       1.131631        178.4008
2010    1       3       1.132769        178.3902
2010    1       4       0.9500227       162.4031
2010    1       5       0.7204843       138.0692
2010    1       6       0.6779851       133.4493
2010    1       7       0.6847543       134.7976
2010    2       0       0.6060193       124.0917
2010    2       1       0.4519404       99.43941
2010    2       2       0.6348039       126.7193
2010    2       3       0.9999429       169.9011
2010    2       4       1.499666        209.7286
2010    2       5       1.434297        206.7631
2010    2       6       1.386531        203.8786
2010    2       7       1.334338        200.492
2010    3       0       1.227916        192.8122
2010    3       1       1.069935        179.7953
2010    3       2       0.9530524       168.308
2010    3       3       0.733206        143.568
2010    3       4       0.6178459       127.8908
2010    3       5       0.4993902       109.5263
2010    3       6       0.4715903       104.8204
2010    3       7       0.5699893       120.1673
2010    4       0       0.5786273       121.1564
2010    4       1       0.5163318       111.1223
2010    4       2       0.5341418       113.4992
2010    4       3       0.527271        112.7027
2010    4       4       0.526301        112.4862
2010    4       5       0.5177927       111.1296
2010    4       6       0.5740354       119.7388
2010    4       7       0.6739158       134.0431
2010    5       0       0.6500155       131.0267
2010    5       1       0.6159822       126.4555
2010    5       2       0.6409232       130.2057
2010    5       3       0.7226701       141.2628
2010    5       4       0.7472833       144.4479
2010    5       5       0.7381242       143.218
2010    5       6       0.763861        147.2863
2010    5       7       0.7864809       150.4835
2010    6       0       0.6815949       136.8844
2010    6       1       0.4914673       108.6129
2010    6       2       0.4448101       100.5983
2010    6       3       0.4961675       108.5762
2010    6       4       0.6305163       127.9646
2010    6       5       0.6740974       134.0982
2010    6       6       0.6686747       134.1485
2010    6       7       0.7646879       147.8815
2010    7       0       0.6908756       139.158
2010    7       1       0.5766903       122.9762
2010    7       2       0.4667393       105.4255
2010    7       3       0.5663974       120.9843
2010    7       4       0.52899         114.66
2010    7       5       0.643798        130.623
2010    7       6       1.129509        181.999
2010    7       7       1.209311        187.9009
2010    8       0       0.8663625       157.4836
2010    8       1       0.8311507       153.552
2010    8       2       0.8173392       152.37
2010    8       3       1.046864        176.9024
2010    8       4       1.055718        177.2712
2010    8       5       0.9888235       170.3159
2010    8       6       1.201224        188.5249
2010    8       7       1.351           200.0966
2010    9       0       1.441367        205.8356
2010    9       1       1.316851        197.0872
2010    9       2       1.013686        172.6555
2010    9       3       1.229292        190.936
2010    9       4       1.481926        206.6408
2010    9       5       1.356364        197.4404
2010    9       6       1.202879        184.5477
2010    9       7       1.038557        169.5018
2010    10      0       0.7664063       141.1598
2010    10      1       0.7381133       137.459
2010    10      2       0.639747        125.1269
2010    10      3       0.4855481       103.0599
2010    10      4       0.407826        90.72137
2010    10      5       0.4522414       97.56555
2010    10      6       0.516737        107.0599
2010    10      7       0.6672025       127.7166
2010    11      0       0.6338971       123.8896
2010    11      1       0.6369436       124.1231
2010    11      2       0.7471947       137.6734
2010    11      3       0.8305757       147.0761
2010    11      4       0.8181135       145.6224
2010    11      5       0.7413338       136.7613
2010    11      6       0.7469512       137.5953
2010    11      7       0.7228545       134.9142
2010    12      0       0.5697242       115.2441
2010    12      1       0.3873977       87.19482
2010    12      2       0.2183294       55.87353
2010    12      3       0.1406371       39.59411
2010    12      4       0.135416        38.49752
2010    12      5       0.1426651       39.96074
2010    12      6       0.1530565       41.92191
2010    12      7       0.341125        78.61911
2010    13      0       0.4489487       96.55065
2010    13      1       0.4504425       97.15275
2010    13      2       0.504944        105.8017
2010    13      3       0.4950739       104.493
2010    13      4       0.5794988       116.1385
2010    13      5       0.5877933       117.1985
2010    13      6       0.6849763       129.366
2010    13      7       0.664118        126.5412
2010    14      0       0.5456111       110.673
2010    14      1       0.4412104       94.798
2010    14      2       0.3731012       84.05099
2010    14      3       0.2880857       68.8893
2010    14      4       0.3146872       73.79889
2010    14      5       0.6716009       128.9858
2010    14      6       0.6492253       125.9647
2010    14      7       0.6556172       126.8296
2010    15      0       0.5669432       114.4676
2010    15      1       0.6392352       124.0607
2010    15      2       0.8890582       153.9686
2010    15      3       0.9247553       157.9687
2010    15      4       0.7831938       142.2298
2010    15      5       0.8385479       148.1954
2010    15      6       0.8215782       146.2984
2010    15      7       0.9301111       157.4679
2010    16      0       0.8275104       147.2593
2010    16      1       0.6909631       131.1219
2010    16      2       0.6722296       129.2579
2010    16      3       0.6259701       122.965
2010    16      4       0.9595791       162.4959
2010    16      5       0.8305947       150.5003
2010    16      6       0.8936053       156.6969
2010    16      7       1.016502        168.175
2010    17      0       0.7882533       142.6732
2010    17      1       0.7480249       138.1628
2010    17      2       0.5942616       118.2433
2010    17      3       0.4738513       100.5289
2010    17      4       0.322299        75.35237
2010    17      5       0.3377551       77.8671
2010    17      6       0.4780072       100.996
2010    17      7       0.6092565       120.2102
2010    18      0       0.6623918       128.4431
2010    18      1       0.5991652       120.5724
2010    18      2       0.6285869       124.6854
2010    18      3       0.524843        109.7146
2010    18      4       0.5914162       120.3481
2010    18      5       0.5049199       108.4372
2010    18      6       0.4624183       101.3869
2010    18      7       0.4200183       94.5508
2010    19      0       0.3348894       79.32263
2010    19      1       0.3618681       84.00673
2010    19      2       0.4002072       91.0372
2010    19      3       0.4285312       95.89465
2010    19      4       0.4516522       99.51701
2010    19      5       0.4450023       98.39661
2010    19      6       0.4740627       102.7861
2010    19      7       0.5320367       111.3825
2010    20      0       0.5598087       115.2695
2010    20      1       0.5193476       109.3369
2010    20      2       0.5506268       114.1496
2010    20      3       0.6660722       130.8597
2010    20      4       0.7189796       137.8181
2010    20      5       0.8866888       157.6925
2010    20      6       0.7670997       144.2439
2010    20      7       0.5840197       119.7697
2010    21      0       0.6194316       124.0923
2010    21      1       0.8555956       153.2506
2010    21      2       1.137931        179.5209
2010    21      3       0.8567058       152.363
2010    21      4       0.821573        148.5086
2010    21      5       0.8122374       147.6438
2010    21      6       0.9115685       158.5819
2010    21      7       0.9377573       160.5504
2010    22      0       0.9745086       163.8267
2010    22      1       0.7629769       140.8551
2010    22      2       0.7348693       135.0798
2010    22      3       0.284017        67.13198
2010    22      4       0.3802516       84.08539
2010    22      5       0.3753919       83.35183
2010    22      6       0.4957785       102.1901
2010    22      7       0.5200167       106.1328
2010    23      0       0.4380205       93.75424
2010    23      1       0.4078048       88.77585
2010    23      2       0.3050454       71.65382
2010    23      3       0.3740165       83.82993
2010    23      4       0.4618434       98.52886
2010    23      5       0.4532801       97.56437
2010    23      6       0.3903948       87.10454
2010    23      7       0.4347367       94.31828
2010    24      0       0.4953298       104.1119
2010    24      1       0.5495236       111.942
2010    24      2       0.6379842       124.1824
2010    24      3       0.7554278       137.879
2010    24      4       0.446602        94.40852
2010    24      5       0.224235        55.37506
2010    24      6       0.1783522       46.10709
2010    24      7       0.2145454       53.05988
2010    25      0       0.1811776       46.30669
2010    25      1       0.1518989       40.31485
2010    25      2       0.1267309       35.17803
2010    25      3       0.1448137       39.29258
2010    25      4       0.2103384       52.88798
2010    25      5       0.2053463       52.41882
2010    25      6       0.1342          37.58783
2010    25      7       0.105218        31.07595
2010    26      0       0.2612008       63.56609
2010    26      1       0.5009769       105.1635
2010    26      2       0.6957194       132.7087
2010    26      3       0.6274911       124.5079
2010    26      4       0.5772201       118.0882
2010    26      5       0.6497621       127.699
2010    26      6       0.5635772       116.2122
2010    26      7       0.4621056       100.7881
2010    27      0       0.3522909       81.53599
2010    27      1       0.3150987       74.42551
2010    27      2       0.3226361       75.71993
2010    27      3       0.3553954       81.29416
2010    27      4       0.4081203       90.23081
2010    27      5       0.2820324       68.28217
2010    27      6       0.2788864       67.60475
2010    27      7       0.2645846       65.30571
2010    28      0       0.2323152       59.49295
2010    28      1       0.3262861       76.26058
2010    28      2       0.3783935       85.28105
2010    28      3       0.330652        77.25993
2010    28      4       0.3505414       80.8622
2010    28      5       0.4755551       101.0808
2010    28      6       0.5672796       114.4436
2010    28      7       0.5802431       115.965
2010    29      0       0.6077158       119.3265
2010    29      1       0.7004967       130.7279
2010    29      2       0.5600263       112.4957
2010    29      3       0.4925687       102.2364
2010    29      4       0.5039419       103.2451
2010    29      5       0.4780425       99.08459
2010    29      6       0.46566         97.16905
2010    29      7       0.4803239       99.42402
2010    30      0       0.3887971       85.09652
2010    30      1       0.3278894       74.66222
2010    30      2       0.2818224       66.63948
2010    30      3       0.1803114       47.14775
2010    30      4       0.1331954       37.30714
2010    30      5       0.1772437       46.49449
2010    30      6       0.3450113       78.4083
2010    30      7       0.5687272       115.0404
2011    1       0       0.9694711       168.2384
2011    1       1       1.017103        172.5736
2011    1       2       1.065321        176.7172
2011    1       3       1.102591        179.6665
2011    1       4       1.074394        176.7612
2011    1       5       1.002705        169.4449
2011    1       6       1.160609        182.9149
2011    1       7       1.286021        191.9834
2011    2       0       1.438859        201.4515
2011    2       1       1.319615        191.6501
2011    2       2       1.019494        165.3704
2011    2       3       0.8846553       151.0681
2011    2       4       0.7401558       135.4247
2011    2       5       0.6470851       124.6793
2011    2       6       0.490238        103.2809
2011    2       7       0.3277671       77.31901
2011    3       0       0.2254492       57.87582
2011    3       1       0.1472724       41.28725
2011    3       2       0.1471218       41.26387
2011    3       3       0.1852372       49.81438
2011    3       4       0.2200147       57.32778
2011    3       5       0.2317967       59.82608
2011    3       6       0.2318781       59.85133
2011    3       7       0.3097716       75.6837
2011    4       0       0.3384876       81.22766
2011    4       1       0.2666055       67.56502
2011    4       2       0.281339        69.98164
2011    4       3       0.3264511       78.76933
2011    4       4       0.4560873       101.8593
2011    4       5       0.7440333       143.1582
2011    4       6       0.8859773       160.035
2011    4       7       1.06488         177.1033
2011    5       0       1.004841        171.3544
2011    5       1       0.9381381       164.3859
2011    5       2       0.9055575       161.6845
2011    5       3       0.8714927       158.7858
2011    5       4       1.162052        185.0703
2011    5       5       1.148113        184.9824
2011    5       6       1.543222        208.9333
2011    5       7       1.031228        170.3218
2011    6       0       0.7509054       140.0876
2011    6       1       0.4970191       105.2073
2011    6       2       0.4250292       93.41823
2011    6       3       0.4246124       93.20839
2011    6       4       0.4234631       92.8188
2011    6       5       0.4475468       96.52301
2011    6       6       0.4740767       101.2504
2011    6       7       0.4288638       94.84686
2011    7       0       0.399393        89.86242
2011    7       1       0.3779349       85.80604
2011    7       2       0.5423659       111.3765
2011    7       3       0.7318745       136.0259
2011    7       4       0.6838827       130.2914
2011    7       5       0.6854125       130.5682
2011    7       6       0.7709177       140.7799
2011    7       7       0.8601452       150.8724
2011    8       0       0.8047763       145.3639
2011    8       1       0.686097        131.3641
2011    8       2       0.6030405       120.5966
2011    8       3       0.5696593       115.7335
2011    8       4       0.5206175       108.3648
2011    8       5       0.3916772       87.90062
2011    8       6       0.3450247       79.77878
2011    8       7       0.4381884       95.18537
2011    9       0       0.4507808       97.15604
2011    9       1       0.2810095       68.15067
2011    9       2       0.29419         69.95902
2011    9       3       0.3619007       82.23294
2011    9       4       0.4064798       90.02384
2011    9       5       0.2985744       71.43386
2011    9       6       0.277488        67.21509
2011    9       7       0.3389954       78.29059
2011    10      0       0.3158369       74.16917
2011    10      1       0.3284403       76.57076
2011    10      2       0.3170361       75.0852
2011    10      3       0.2885788       70.35697
2011    10      4       0.2626666       65.50457
2011    10      5       0.2696689       66.79966
2011    10      6       0.3704066       85.56553
2011    10      7       0.391762        89.15051
2011    11      0       0.3708378       85.23788
2011    11      1       0.2253127       58.3702
2011    11      2       0.1804272       48.69941
2011    11      3       0.1777441       47.68167
2011    11      4       0.1844755       48.79528
2011    11      5       0.1806281       48.06252
2011    11      6       0.197346        51.93124
2011    11      7       0.2660821       65.95554
2011    12      0       0.3783149       85.86987
2011    12      1       0.4593491       98.83237
2011    12      2       0.59973         119.9462
2011    12      3       0.7615709       141.1323
2011    12      4       0.9131399       159.5883
2011    12      5       0.8287931       151.5977
2011    12      6       0.9425463       163.2005
2011    12      7       0.9849506       167.1955
2011    13      0       1.100202        176.2434
2011    13      1       0.8930609       155.8494
2011    13      2       0.5292922       109.5266
2011    13      3       0.9831487       164.9975
2011    13      4       1.141992        179.7544
2011    13      5       1.098117        175.9033
2011    13      6       1.103673        176.0717
2011    13      7       0.9256564       159.8617
2011    14      0       0.6958767       134.0221
2011    14      1       0.6071808       121.6452
2011    14      2       0.4764589       102.1744
2011    14      3       0.3964366       88.44989
2011    14      4       0.5569864       113.1959
2011    14      5       0.5658713       114.5791
2011    14      6       0.562871        114.3516
2011    14      7       0.6804326       130.9524
2011    15      0       0.5948967       120.1949
2011    15      1       0.4811555       102.9333
2011    15      2       0.5221616       108.6722
2011    15      3       0.6044214       119.8396
2011    15      4       0.690915        131.3253
2011    15      5       0.696641        132.027
2011    15      6       0.6626733       128.0013
2011    15      7       0.6574262       127.7962
2011    16      0       0.5005267       106.009
2011    16      1       0.4798677       102.6141
2011    16      2       0.3264567       76.29933
2011    16      3       0.2716745       65.72898
2011    16      4       0.3141294       73.37519
2011    16      5       0.2100356       53.27717
2011    16      6       0.1829953       47.64904
2011    16      7       0.2160631       54.48238
2011    17      0       0.250161        61.16501
2011    17      1       0.3713001       83.24039
2011    17      2       0.4992185       104.1788
2011    17      3       0.5490913       112.4957
2011    17      4       0.5599634       115.6677
2011    17      5       0.5299412       112.2141
2011    17      6       0.6995677       136.2864
2011    17      7       0.5808447       120.0808
2011    18      0       0.5025216       108.6735
2011    18      1       0.4964865       107.826
2011    18      2       0.5797585       119.6097
2011    18      3       0.6543917       129.9279
2011    18      4       0.6502685       129.3269
2011    18      5       0.6557279       129.4862
2011    18      6       0.7369234       139.5568
2011    18      7       0.7665234       143.4598
2011    19      0       0.6835547       133.1567
2011    19      1       0.7798337       144.916
2011    19      2       1.040475        171.6438
2011    19      3       1.137068        179.2177
2011    19      4       1.111226        175.1385
2011    19      5       0.8638521       150.4241
2011    19      6       0.7039007       132.1872
2011    19      7       0.7380676       137.16
2011    20      0       0.6550954       127.829
2011    20      1       0.7583695       141.7105
2011    20      2       1.007528        168.514
2011    20      3       1.078231        174.9523
2011    20      4       0.9964517       167.6371
2011    20      5       0.9259641       160.5416
2011    20      6       0.9295769       160.8755
2011    20      7       1.220925        186.4767
2011    21      0       1.030583        171.0681
2011    21      1       0.7450188       140.9704
2011    21      2       0.5494814       114.1806
2011    21      3       0.6823352       132.1453
2011    21      4       0.9269258       160.076
2011    21      5       1.13137         178.7048
2011    21      6       0.9995457       166.7224
2011    21      7       1.056266        171.4614
2011    22      0       0.9773486       164.6935
2011    22      1       0.7750417       143.6736
2011    22      2       0.7904994       145.7271
2011    22      3       0.714826        136.3667
2011    22      4       0.4825794       103.8285
2011    22      5       0.5153885       109.2972
2011    22      6       0.5341571       112.1699
2011    22      7       0.6883056       133.7235
2011    23      0       0.7110879       137.2802
2011    23      1       0.6180214       125.078
2011    23      2       0.4550919       100.5704
2011    23      3       0.30942         74.80514
2011    23      4       0.2880216       70.71329
2011    23      5       0.2988638       73.17083
2011    23      6       0.2827078       70.00306
2011    23      7       0.3058396       74.27306
2011    24      0       0.2867931       70.83315
2011    24      1       0.2247508       58.31249
2011    24      2       0.2519345       64.25845
2011    24      3       0.2333293       60.81877
2011    24      4       0.1982235       53.34116
2011    24      5       0.2544273       64.57753
2011    24      6       0.2933993       72.15843
2011    24      7       0.4346724       96.51929
2011    25      0       0.5342185       112.3624
2011    25      1       0.5690951       116.7436
2011    25      2       0.6131631       123.8141
2011    25      3       0.6293974       126.342
2011    25      4       0.5672034       117.4761
2011    25      5       0.6250065       125.0617
2011    25      6       0.5468189       113.8373
2011    25      7       0.813122        147.6277
2011    26      0       0.9889409       164.2137
2011    26      1       0.5795418       116.6345
2011    26      2       0.4878187       102.3876
2011    26      3       0.3020539       71.24898
2011    26      4       0.2143076       54.41626
2011    26      5       0.1922034       50.08604
2011    26      6       0.1919776       50.4199
2011    26      7       0.2246057       57.56846
2011    27      0       0.3039243       73.39287
2011    27      1       0.3833509       88.36716
2011    27      2       0.4523427       100.3087
2011    27      3       0.5850471       120.6695
2011    27      4       0.6266602       126.7707
2011    27      5       0.6673967       132.1188
2011    27      6       0.7434074       141.8518
2011    27      7       0.7538735       143.223
2011    28      0       0.7780762       146.6619
2011    28      1       0.7596809       145.0156
2011    28      2       0.6689146       132.9574
2011    28      3       0.437599        97.51374
2011    28      4       0.3699839       85.56209
2011    28      5       0.4281459       95.1141
2011    28      6       0.6116832       122.7445
2011    28      7       0.7382285       138.7981
2011    29      0       0.8648447       152.4742
2011    29      1       0.9790939       163.774
2011    29      2       0.9516382       161.5114
2011    29      3       0.844423        151.2042
2011    29      4       0.5632869       116.8864
2011    29      5       0.4674163       102.5496
2011    29      6       0.3301066       79.07292
2011    29      7       0.3493404       82.23539
2011    30      0       0.3790524       87.2297
2011    30      1       0.4728318       102.6285
2011    30      2       0.5345534       111.3988
2011    30      3       0.8234583       149.7382
2011    30      4       0.5703935       117.0269
2011    30      5       0.5120883       108.6687
2011    30      6       0.4387149       97.07596
2011    30      7       0.7262332       137.3088
2012    1       0       0.9691648       168.4653
2012    1       1       0.8348181       154.2966
2012    1       2       0.7718207       147.0757
2012    1       3       0.7203353       140.8027
2012    1       4       0.617234        127.3289
2012    1       5       0.4530943       102.2041
2012    1       6       0.4640174       103.7879
2012    1       7       0.6188085       126.7969
2012    2       0       0.7476431       142.9142
2012    2       1       0.8856137       157.9254
2012    2       2       0.950918        164.3775
2012    2       3       0.8709386       156.5967
2012    2       4       0.8619772       155.4228
2012    2       5       0.8838421       157.4657
2012    2       6       0.8631401       156.0795
2012    2       7       0.8692474       157.2618
2012    3       0       0.7904444       148.2693
2012    3       1       0.6900675       135.4608
2012    3       2       0.6281976       126.8987
2012    3       3       0.7957252       148.4692
2012    3       4       0.8690225       156.7885
2012    3       5       0.715115        137.6903
2012    3       6       0.662645        130.5071
2012    3       7       0.7323818       139.2069
2012    4       0       0.7683583       143.591
2012    4       1       0.6897987       134.1049
2012    4       2       0.7600475       143.1888
2012    4       3       0.8429274       152.9465
2012    4       4       1.100152        178.0576
2012    4       5       1.286092        193.5599
2012    4       6       1.410277        201.5835
2012    4       7       1.483093        206.193
2012    5       0       1.38643         200.7318
2012    5       1       1.288918        194.1127
2012    5       2       1.279934        193.8657
2012    5       3       1.25287         192.0749
2012    5       4       1.239222        191.4924
2012    5       5       1.302474        196.2257
2012    5       6       1.114626        182.0356
2012    5       7       1.044063        175.7316
2012    6       0       1.151941        185.3085
2012    6       1       1.249724        193.9488
2012    6       2       1.210607        190.4647
2012    6       3       1.168897        186.4177
2012    6       4       1.020071        172.4749
2012    6       5       0.9360012       164.3579
2012    6       6       0.9865057       169.5053
2012    6       7       0.9772915       168.9448
2012    7       0       0.7686873       146.1489
2012    7       1       0.5722738       120.3249
2012    7       2       0.5056875       110.2454
2012    7       3       0.3913748       91.05064
2012    7       4       0.337819        81.25789
2012    7       5       0.3735122       88.17414
2012    7       6       0.4425048       100.3454
2012    7       7       0.5576789       118.906
2012    8       0       0.6019365       125.2689
2012    8       1       0.5600968       118.9401
2012    8       2       0.5574961       118.6445
2012    8       3       0.5359479       115.5069
2012    8       4       0.5509061       117.2559
2012    8       5       0.6672367       133.2526
2012    8       6       0.7704507       145.9949
2012    8       7       0.8352092       153.894
2012    9       0       0.7294151       141.2319
2012    9       1       0.8081074       149.7955
2012    9       2       0.9432034       164.6496
2012    9       3       1.201746        188.8568
2012    9       4       1.350938        199.3397
2012    9       5       1.019237        173.0016
2012    9       6       0.8834903       160.0233
2012    9       7       1.173066        187.0443
2012    10      0       1.137673        183.5085
2012    10      1       1.068592        177.7493
2012    10      2       0.9827638       168.7555
2012    10      3       1.209289        187.468
2012    10      4       1.315326        193.6536
2012    10      5       1.196687        183.5309
2012    10      6       0.8619605       151.4402
2012    10      7       0.6333249       123.46
2012    11      0       0.5970793       118.1551
2012    11      1       0.5577541       111.9894
2012    11      2       0.5013193       103.323
2012    11      3       0.4531422       95.77754
2012    11      4       0.3971212       86.74786
2012    11      5       0.3981147       86.71023
2012    11      6       0.3897792       84.98422
2012    11      7       0.391292        85.28678
2012    12      0       0.3167681       72.82551
2012    12      1       0.3116016       72.22313
2012    12      2       0.2345988       58.25332
2012    12      3       0.1696971       45.48652
2012    12      4       0.27791         67.47531
2012    12      5       0.3948831       89.30233
2012    12      6       0.4393775       97.29047
2012    12      7       0.5420904       113.1813
2012    13      0       0.603098        121.8461
2012    13      1       0.7393812       139.2779
2012    13      2       0.7760536       142.6311
2012    13      3       0.770692        141.5254
2012    13      4       0.7859706       144.3775
2012    13      5       0.784876        144.231
2012    13      6       0.7077902       135.1762
2012    13      7       0.7021816       134.6807
2012    14      0       0.5465358       113.424
2012    14      1       0.477175        102.5788
2012    14      2       0.4989669       105.9918
2012    14      3       0.5278389       110.0591
2012    14      4       0.6284403       124.0354
2012    14      5       0.9164199       158.1489
2012    14      6       0.7544692       141.0759
2012    14      7       0.7837768       144.982
2012    15      0       0.873853        154.8333
2012    15      1       0.9593593       163.6527
2012    15      2       1.031885        170.4754
2012    15      3       1.079665        174.0699
2012    15      4       0.9686805       164.3002
2012    15      5       0.7317072       138.9859
2012    15      6       0.6939927       134.562
2012    15      7       0.5888396       120.9948
2012    16      0       0.4658092       102.6445
2012    16      1       0.256632        65.17388
2012    16      2       0.2081444       55.33109
2012    16      3       0.2509494       64.15679
2012    16      4       0.3329782       79.24448
2012    16      5       0.6056637       123.121
2012    16      6       0.8508592       153.3936
2012    16      7       0.8991323       158.7575
2012    17      0       0.8731053       155.54
2012    17      1       1.106201        178.9573
2012    17      2       1.143997        181.9851
2012    17      3       0.9415607       163.7873
2012    17      4       0.835476        152.7597
2012    17      5       0.8555398       154.7314
2012    17      6       1.007276        169.793
2012    17      7       1.206459        186.8284
2012    18      0       1.084666        176.9044
2012    18      1       1.087632        177.1756
2012    18      2       1.075769        175.6605
2012    18      3       1.080787        176.6634
2012    18      4       1.093083        178.288
2012    18      5       0.9303773       162.2896
2012    18      6       1.059089        174.6276
2012    18      7       1.077342        176.3617
2012    19      0       0.8464505       153.7758
2012    19      1       0.8249946       150.9012
2012    19      2       0.914669        159.8122
2012    19      3       0.7953689       147.1239
2012    19      4       0.7118244       136.8838
2012    19      5       0.7431176       140.1444
2012    19      6       0.765854        142.7129
2012    19      7       0.8625159       154.8423
2012    20      0       0.7905772       147.0608
2012    20      1       0.7220782       139.1964
2012    20      2       0.7384667       141.949
2012    20      3       0.6791569       134.5986
2012    20      4       0.6483728       130.8939
2012    20      5       0.7140244       139.8256
2012    20      6       0.7867827       148.881
2012    20      7       0.7768853       147.7375
2012    21      0       0.6948777       137.5109
2012    21      1       0.6978632       137.9162
2012    21      2       0.7423367       143.4917
2012    21      3       0.6806886       135.1574
2012    21      4       0.6524361       130.8746
2012    21      5       0.6455521       129.8625
2012    21      6       0.6036725       123.7695
2012    21      7       0.6820127       134.518
2012    22      0       0.6616888       132.0311
2012    22      1       0.6533468       130.7473
2012    22      2       0.7082181       137.8592
2012    22      3       0.7375272       142.2441
2012    22      4       0.8169651       151.4085
2012    22      5       0.3909623       89.41491
2012    22      6       0.3043185       72.49034
2012    22      7       0.4409084       96.26828
2012    23      0       0.4489035       97.53748
2012    23      1       0.4274623       94.39787
2012    23      2       0.5026373       106.4437
2012    23      3       0.5655058       116.0451
2012    23      4       0.4370612       97.2562
2012    23      5       0.364442        85.36471
2012    23      6       0.4219633       94.97245
2012    23      7       0.5503972       115.0709
2012    24      0       0.5739497       118.8177
2012    24      1       0.3195195       76.70097
2012    24      2       0.2304707       58.56398
2012    24      3       0.2845898       69.70321
2012    24      4       0.3796333       87.35113
2012    24      5       0.4799757       104.0648
2012    24      6       0.4299286       96.13789
2012    24      7       0.3884264       89.86112
2012    25      0       0.3710835       86.84938
2012    25      1       0.4237874       96.00941
2012    25      2       0.432452        97.12797
2012    25      3       0.3618285       84.47383
2012    25      4       0.2943143       71.90048
2012    25      5       0.3735136       86.17481
2012    25      6       0.5255849       110.7171
2012    25      7       0.9292988       161.1379
2012    26      0       0.8980797       158.6553
2012    26      1       0.7580297       143.1445
2012    26      2       0.5815899       119.7635
2012    26      3       0.4053786       91.69526
2012    26      4       0.3936558       89.01922
2012    26      5       0.367201        83.84613
2012    26      6       0.3439428       79.798
2012    26      7       0.3490966       81.11784
2012    27      0       0.3064505       72.76598
2012    27      1       0.291797        70.17767
2012    27      2       0.3406999       79.02528
2012    27      3       0.2204918       56.29704
2012    27      4       0.1865959       49.01005
2012    27      5       0.2020916       52.29958
2012    27      6       0.188521        49.72872
2012    27      7       0.2991129       71.96276
2012    28      0       0.3377583       79.04659
2012    28      1       0.3961342       89.34938
2012    28      2       0.3807902       87.11081
2012    28      3       0.178856        48.32015
2012    28      4       0.1530333       42.4366
2012    28      5       0.2111431       55.36042
2012    28      6       0.2763836       68.27378
2012    28      7       0.4200525       93.56403
2012    29      0       0.5322802       111.6303
2012    29      1       0.5318756       112.0128
2012    29      2       0.4991912       106.4557
2012    29      3       0.6955567       135.0258
2012    29      4       0.9296475       162.7911
2012    29      5       0.6912261       135.7556
2012    29      6       0.596883        121.5323
2012    29      7       0.6094906       123.251
2012    30      0       0.4940515       106.5497
2012    30      1       0.6420205       126.7696
2012    30      2       0.7089324       135.6793
2012    30      3       0.8809058       156.3707
2012    30      4       1.131019        181.3554
2012    30      5       1.146789        183.9906
2012    30      6       0.9831778       169.1346
2012    30      7       1.176649        186.0428
2013    1       0       0.854972        153.8842
2013    1       1       0.8583507       153.8046
2013    1       2       1.119452        177.5989
2013    1       3       0.9193301       159.5819
2013    1       4       0.6926485       133.4227
2013    1       5       0.5095051       107.8492
2013    1       6       0.4988313       106.1363
2013    1       7       0.4594993       100.2537
2013    2       0       0.5062026       107.8456
2013    2       1       0.521578        110.934
2013    2       2       0.4694754       103.2365
2013    2       3       0.4000509       92.20556
2013    2       4       0.5073178       109.387
2013    2       5       0.5467116       115.3461
2013    2       6       0.321666        77.50291
2013    2       7       0.2112059       55.40089
2013    3       0       0.2976672       73.18793
2013    3       1       0.2769739       68.62877
2013    3       2       0.3032182       74.0047
2013    3       3       0.4364452       98.01663
2013    3       4       0.5121693       110.1329
2013    3       5       0.4773443       104.5251
2013    3       6       0.6377716       127.6565
2013    3       7       0.9707489       165.4238
2013    4       0       1.186618        183.6379
2013    4       1       1.080313        172.9615
2013    4       2       0.4560946       98.04142
2013    4       3       0.2157406       55.00162
2013    4       4       0.2342385       57.71678
2013    4       5       0.3419479       77.70844
2013    4       6       0.5763328       115.1548
2013    4       7       0.7313824       135.1896
2013    5       0       0.8525894       149.1956
2013    5       1       0.9717736       161.9711
2013    5       2       0.9591113       160.308
2013    5       3       0.7431873       137.226
2013    5       4       0.6231556       121.3463
2013    5       5       0.3595845       81.4418
2013    5       6       0.2867917       68.50788
2013    5       7       0.2825541       67.89958
2013    6       0       0.2271523       57.52574
2013    6       1       0.2091772       53.4221
2013    6       2       0.2983581       70.62128
2013    6       3       0.5132719       106.8582
2013    6       4       0.5975464       118.9869
2013    6       5       0.5533054       112.2163
2013    6       6       0.5787739       116.5192
2013    6       7       0.5506021       112.9598
2013    7       0       0.5661082       115.3479
2013    7       1       0.5783514       117.256
2013    7       2       0.6288863       124.6577
2013    7       3       0.7239368       137.561
2013    7       4       0.6444851       127.9741
2013    7       5       0.6781245       132.2941
2013    7       6       0.9452543       162.9217
2013    7       7       1.163256        182.6748
2013    8       0       1.154773        182.4636
2013    8       1       1.007093        170.2969
2013    8       2       1.054564        174.9025
2013    8       3       1.070642        177.18
2013    8       4       0.7082234       137.9801
2013    8       5       0.7283941       139.3351
2013    8       6       0.9276991       161.6675
2013    8       7       1.092675        177.6483
2013    9       0       1.105825        180.2529
2013    9       1       1.194594        187.6294
2013    9       2       1.25899         192.0022
2013    9       3       1.281427        193.3695
2013    9       4       1.258704        191.8541
2013    9       5       1.015014        172.0954
2013    9       6       0.9811114       168.6375
2013    9       7       0.9969948       169.7903
2013    10      0       0.8386238       153.3731
2013    10      1       0.7196223       139.0118
2013    10      2       0.7544745       142.7027
2013    10      3       0.8021858       148.0064
2013    10      4       0.70752         136.2125
2013    10      5       0.6693294       131.5936
2013    10      6       0.7200372       138.5134
2013    10      7       0.7650098       144.5158
2013    11      0       0.7010228       136.6638
2013    11      1       0.6224602       126.1077
2013    11      2       0.5790976       119.971
2013    11      3       0.5440878       114.8927
2013    11      4       0.5493346       115.7392
2013    11      5       0.6104613       124.1793
2013    11      6       0.8030912       148.2114
2013    11      7       0.944577        163.6114
2013    12      0       0.9742828       166.359
2013    12      1       0.8651667       154.9444
2013    12      2       0.8381648       151.6886
2013    12      3       0.675188        132.4288
2013    12      4       0.2995573       73.95308
2013    12      5       0.2360906       61.34943
2013    12      6       0.2424148       62.85404
2013    12      7       0.2994831       74.47183
2013    13      0       0.250585        64.82323
2013    13      1       0.2060826       55.33223
2013    13      2       0.2077461       55.70766
2013    13      3       0.2338554       61.1719
2013    13      4       0.2805913       70.46624
2013    13      5       0.3429809       81.9489
2013    13      6       0.4650444       102.384
2013    13      7       0.7251392       138.3184
2013    14      0       1.019599        169.4995
2013    14      1       1.045184        172.5828
2013    14      2       1.209272        186.2053
2013    14      3       1.009698        169.3857
2013    14      4       0.6939537       135.4997
2013    14      5       0.4696474       102.4771
2013    14      6       0.4527327       99.28279
2013    14      7       0.4010363       90.56876
2013    15      0       0.2901122       69.66291
2013    15      1       0.2547456       63.46663
2013    15      2       0.285277        70.16896
2013    15      3       0.5985477       121.3139
2013    15      4       0.7493052       140.4498
2013    15      5       0.6960636       134.0335
2013    15      6       0.7344559       138.9377
2013    15      7       1.117639        176.9914
2013    16      0       0.9721658       164.4295
2013    16      1       0.7595136       141.8709
2013    16      2       0.7688585       142.851
2013    16      3       0.5047375       107.4602
2013    16      4       0.3279025       77.39106
2013    16      5       0.5588774       114.3512
2013    16      6       0.8109417       146.6531
2013    16      7       0.9278605       159.0262
2013    17      0       0.939513        160.0244
2013    17      1       0.9126524       156.2791
2013    17      2       0.7879145       142.7518
2013    17      3       0.6468606       125.1439
2013    17      4       0.3986605       88.27678
2013    17      5       0.3301584       77.09124
2013    17      6       0.2971332       71.53877
2013    17      7       0.3477076       81.55097
2013    18      0       0.4098049       92.60456
2013    18      1       0.4623611       101.5369
2013    18      2       0.394621        90.37189
2013    18      3       0.3026212       74.1307
2013    18      4       0.3622087       85.09119
2013    18      5       0.4295326       96.75414
2013    18      6       0.3523613       82.85613
2013    18      7       0.4179815       94.27637
2013    19      0       0.4481751       98.7684
2013    19      1       0.4336193       96.21823
2013    19      2       0.4270923       95.13989
2013    19      3       0.4190701       94.0122
2013    19      4       0.4559351       99.89049
2013    19      5       0.5506122       113.9083
2013    19      6       0.9328173       161.3752
2013    19      7       1.205168        185.928
2013    20      0       1.270957        190.4626
2013    20      1       1.280912        191.0553
2013    20      2       1.0963          176.2657
2013    20      3       0.8508057       152.7671
2013    20      4       0.6415076       127.6972
2013    20      5       0.6024174       122.5107
2013    20      6       0.6659955       131.1984
2013    20      7       0.9053979       159.0255
2013    21      0       0.9840947       166.1575
2013    21      1       1.166899        181.0842
2013    21      2       1.309604        192.4642
2013    21      3       1.425141        200.5052
2013    21      4       1.404769        198.8498
2013    21      5       1.167272        182.2356
2013    21      6       1.084792        174.9794
2013    21      7       1.080503        174.1974
2013    22      0       1.130867        176.6595
2013    22      1       0.8386734       148.8682
2013    22      2       0.6687848       128.4461
2013    22      3       0.5274262       108.6922
2013    22      4       0.3291177       76.1462
2013    22      5       0.1743791       45.43627
2013    22      6       0.2107051       53.07283
2013    22      7       0.2635527       63.66545
2013    23      0       0.2838108       67.4553
2013    23      1       0.3063702       71.53922
2013    23      2       0.3178102       73.86116
2013    23      3       0.3470216       79.9676
2013    23      4       0.3896477       87.90163
2013    23      5       0.4313128       95.26439
2013    23      6       0.6445402       127.7876
2013    23      7       0.9788958       166.5527
2013    24      0       1.152427        182.2588
2013    24      1       1.063571        175.2889
2013    24      2       0.9811468       167.8934
2013    24      3       1.034672        172.8764
2013    24      4       1.04945         174.0491
2013    24      5       1.082271        176.9834
2013    24      6       1.199496        186.1397
2013    24      7       1.223879        187.2659
2013    25      0       1.062234        174.0275
2013    25      1       0.671656        130.9456
2013    25      2       0.2935782       71.0036
2013    25      3       0.5484644       114.1417
2013    25      4       1.12785         178.9454
2013    25      5       1.091144        175.6841
2013    25      6       1.012397        168.6757
2013    25      7       1.087413        175.0336
2013    26      0       0.8319511       149.8602
2013    26      1       0.6353622       125.5923
2013    26      2       0.699625        133.9663
2013    26      3       0.7617721       141.3923
2013    26      4       0.7072635       134.3703
2013    26      5       0.6328352       124.7971
2013    26      6       0.6746822       130.6286
2013    26      7       0.7101069       135.6023
2013    27      0       0.6103687       123.1264
2013    27      1       0.5759868       118.5001
2013    27      2       0.6313724       126.1902
2013    27      3       0.7220114       138.2239
2013    27      4       0.728054        139.1844
2013    27      5       0.7380552       140.1403
2013    27      6       0.7258017       138.6549
2013    27      7       0.7702042       144.3963
2013    28      0       0.7715127       144.7185
2013    28      1       0.7827956       145.7857
2013    28      2       0.7655198       143.6538
2013    28      3       0.6985683       135.6107
2013    28      4       0.6355659       127.0914
2013    28      5       0.6121807       123.5225
2013    28      6       0.6536325       129.0118
2013    28      7       0.7168873       137.2052
2013    29      0       0.727709        138.6669
2013    29      1       0.6911795       134.2622
2013    29      2       0.6662024       130.6386
2013    29      3       0.6017294       120.8012
2013    29      4       0.7085292       134.4722
2013    29      5       0.7658779       141.9265
2013    29      6       0.7083201       135.2604
2013    29      7       0.6401738       126.8893
2013    30      0       0.5914529       120.4707
2013    30      1       0.6014145       121.8104
2013    30      2       0.6074474       122.4636
2013    30      3       0.5845942       119.2706
2013    30      4       0.5533114       114.8405
2013    30      5       0.5221345       110.376
2013    30      6       0.5304129       111.5275
2013    30      7       0.5633335       116.1933
2014    1       0       0.8036587       151.5582
2014    1       1       1.108798        182.1885
2014    1       2       1.153939        186.4171
2014    1       3       1.378464        203.3039
2014    1       4       1.346978        200.9269
2014    1       5       1.333048        198.9643
2014    1       6       1.927822        230.9692
2014    1       7       1.353288        202.4906
2014    2       0       1.147214        187.2126
2014    2       1       1.228998        192.1384
2014    2       2       1.43217         206.1728
2014    2       3       1.258966        193.5473
2014    2       4       1.049587        175.2561
2014    2       5       1.056379        175.3129
2014    2       6       1.616592        213.6578
2014    2       7       1.507929        207.25
2014    3       0       1.376802        198.5377
2014    3       1       1.203052        186.421
2014    3       2       1.271497        191.7362
2014    3       3       1.453104        203.1969
2014    3       4       1.345636        193.3102
2014    3       5       1.153622        179.0719
2014    3       6       1.10847         175.4417
2014    3       7       0.8420552       150.4879
2014    4       0       0.7234884       137.0955
2014    4       1       0.4121119       92.14564
2014    4       2       0.2768536       67.78472
2014    4       3       0.2063012       53.77827
2014    4       4       0.1972816       51.98217
2014    4       5       0.2291269       58.72989
2014    4       6       0.2713725       67.37979
2014    4       7       0.2756583       68.42935
2014    5       0       0.264096        66.0052
2014    5       1       0.5227586       111.0537
2014    5       2       1.040308        173.6919
2014    5       3       0.9774702       169.0322
2014    5       4       0.8097774       151.2007
2014    5       5       0.7342439       140.825
2014    5       6       0.6643822       131.0774
2014    5       7       0.8373014       152.6485
2014    6       0       0.8773275       157.9611
2014    6       1       0.9422334       165.0844
2014    6       2       0.8944951       160.4706
2014    6       3       0.8460612       155.259
2014    6       4       0.7827746       147.6781
2014    6       5       0.7759446       146.8079
2014    6       6       0.7856953       148.4636
2014    6       7       0.8099821       151.5576
2014    7       0       0.6946021       137.1581
2014    7       1       0.4484169       99.94218
2014    7       2       0.6268476       128.5568
2014    7       3       0.6607776       134.7319
2014    7       4       0.7493448       145.4438
2014    7       5       0.8879561       160.1776
2014    7       6       1.290969        194.5225
2014    7       7       1.260172        192.4456
2014    8       0       1.247257        191.3479
2014    8       1       1.049049        174.6377
2014    8       2       0.5862173       121.1083
2014    8       3       0.2513359       64.15909
2014    8       4       0.2473588       62.4407
2014    8       5       0.4591879       99.79425
2014    8       6       0.4411031       97.79694
2014    8       7       0.3838263       87.9186
2014    9       0       0.4680209       102.432
2014    9       1       0.6983269       136.5955
2014    9       2       0.8473028       155.2948
2014    9       3       1.041049        176.3509
2014    9       4       1.125922        184.4589
2014    9       5       0.9336053       166.0052
2014    9       6       0.9804909       170.6367
2014    9       7       1.114916        182.4131
2014    10      0       1.10615         181.8816
2014    10      1       0.9251642       164.7904
2014    10      2       1.184797        187.5995
2014    10      3       1.150793        184.3635
2014    10      4       1.090955        179.4601
2014    10      5       0.8494219       152.6484
2014    10      6       0.6592168       128.2923
2014    10      7       0.7325583       136.5789
2014    11      0       0.5604397       113.9446
2014    11      1       0.5136574       107.2188
2014    11      2       0.5190189       107.5931
2014    11      3       0.4520908       97.00746
2014    11      4       0.4566534       97.67277
2014    11      5       0.5444315       111.0919
2014    11      6       0.6051908       119.4426
2014    11      7       0.5757097       115.2391
2014    12      0       0.6003914       118.2317
2014    12      1       0.5820555       115.7406
2014    12      2       0.5059883       104.7013
2014    12      3       0.459504        97.38205
2014    12      4       0.4475522       95.51749
2014    12      5       0.4748513       99.83744
2014    12      6       0.4334004       93.26394
2014    12      7       0.3487515       78.91669
2014    13      0       0.2836897       67.33656
2014    13      1       0.2175193       54.87705
2014    13      2       0.1623253       43.71645
2014    13      3       0.1148952       33.44624
2014    13      4       0.1219096       34.57474
2014    13      5       0.1848491       47.51149
2014    13      6       0.3569594       79.91678
2014    13      7       0.8759459       151.6089
2014    14      0       0.8961923       155.3808
2014    14      1       0.8446813       151.1818
2014    14      2       0.7150781       135.9485
2014    14      3       0.5735278       116.8794
2014    14      4       0.6146693       122.1359
2014    14      5       0.7886481       144.2583
2014    14      6       0.7071312       134.578
2014    14      7       0.7194937       135.7918
2014    15      0       0.5491851       112.4979
2014    15      1       0.8018655       145.5654
2014    15      2       0.8690431       153.1222
2014    15      3       0.6865879       131.7986
2014    15      4       0.6631329       128.9002
2014    15      5       0.8872377       153.2516
2014    15      6       0.4804153       100.9157
2014    15      7       0.3020073       70.91369
2014    16      0       0.2485223       60.5758
2014    16      1       0.1980658       50.73201
2014    16      2       0.1604201       42.99541
2014    16      3       0.1530486       41.43709
2014    16      4       0.1389577       38.30779
2014    16      5       0.2512016       60.896
2014    16      6       0.4090084       89.57373
2014    16      7       0.358701        81.15467
2014    17      0       0.2771558       66.22673
2014    17      1       0.2216239       55.54762
2014    17      2       0.1880531       48.6934
2014    17      3       0.1862231       48.19773
2014    17      4       0.1515713       40.98374
2014    17      5       0.163875        43.46635
2014    17      6       0.2245888       55.6676
2014    17      7       0.2667217       64.04942
2014    18      0       0.249075        60.80841
2014    18      1       0.2505271       61.1601
2014    18      2       0.2685635       64.55545
2014    18      3       0.2879482       68.61853
2014    18      4       0.3252645       75.72178
2014    18      5       0.2969452       70.99422
2014    18      6       0.3449369       79.53416
2014    18      7       0.4686009       99.94404
2014    19      0       0.499288        104.1138
2014    19      1       0.6316745       122.8926
2014    19      2       0.5906722       117.779
2014    19      3       0.528623        109.219
2014    19      4       0.4879574       103.2985
2014    19      5       0.5142531       107.5486
2014    19      6       0.4983655       105.5108
2014    19      7       0.4979858       105.7626
2014    20      0       0.4818023       103.6608
2014    20      1       0.4914866       105.4521
2014    20      2       0.5207235       110.1205
2014    20      3       0.6159183       123.9271
2014    20      4       0.6838725       132.6666
2014    20      5       0.6777811       131.2934
2014    20      6       0.766265        142.6619
2014    20      7       0.9670683       164.568
2014    21      0       1.188705        183.6805
2014    21      1       1.269464        189.5326
2014    21      2       1.106386        176.3828
2014    21      3       0.8853704       155.6243
2014    21      4       0.8320656       149.6403
2014    21      5       0.8020267       145.9158
2014    21      6       0.4255148       94.29782
2014    21      7       0.5249323       110.8384
2014    22      0       0.6103719       122.4366
2014    22      1       0.6128221       122.9431
2014    22      2       0.5012719       107.3218
2014    22      3       0.4235321       94.73256
2014    22      4       0.5897477       119.1618
2014    22      5       0.7770929       145.5252
2014    22      6       0.8826463       158.1598
2014    22      7       1.079409        177.281
2014    23      0       1.165285        182.9529
2014    23      1       0.9634084       164.3423
2014    23      2       1.190905        182.7031
2014    23      3       0.9589789       159.9424
2014    23      4       0.4173518       90.99496
2014    23      5       0.368564        83.06934
2014    23      6       0.7452196       136.4289
2014    23      7       0.5521576       111.078
2014    24      0       0.5473664       110.2405
2014    24      1       0.4099193       89.2052
2014    24      2       0.3965274       87.36694
2014    24      3       0.545706        110.3594
2014    24      4       0.607079        118.4457
2014    24      5       0.6535959       124.3921
2014    24      6       0.5168693       105.5807
2014    24      7       0.6246533       120.288
2014    25      0       0.4416981       94.42113
2014    25      1       0.3933839       86.44541
2014    25      2       0.2817853       66.98575
2014    25      3       0.3686052       82.4648
2014    25      4       0.6510419       126.0219
2014    25      5       0.864088        151.9645
2014    25      6       0.9776643       163.8518
2014    25      7       1.090095        174.6057
2014    26      0       1.227394        186.4372
2014    26      1       1.256798        188.6859
2014    26      2       1.205199        184.7436
2014    26      3       1.2002          184.6597
2014    26      4       1.14229         179.9938
2014    26      5       1.073098        174.0774
2014    26      6       0.9970122       167.3567
2014    26      7       1.001309        168.5683
2014    27      0       0.836664        151.5238
2014    27      1       0.6803708       132.3514
2014    27      2       0.5979539       121.0841
2014    27      3       0.5341355       111.5316
2014    27      4       0.6501654       128.3574
2014    27      5       0.8174606       149.4864
2014    27      6       0.854054        153.3513
2014    27      7       0.8657047       154.6976
2014    28      0       0.8483968       153.3838
2014    28      1       0.8217622       150.8883
2014    28      2       0.8081486       149.662
2014    28      3       0.6228849       125.276
2014    28      4       0.6341463       126.6847
2014    28      5       0.5478264       115.3876
2014    28      6       0.5003267       108.1428
2014    28      7       0.4829577       105.7501
2014    29      0       0.4377585       98.77323
2014    29      1       0.3727674       87.60195
2014    29      2       0.3640431       85.88387
2014    29      3       0.3754333       87.56864
2014    29      4       0.3900391       89.85287
2014    29      5       0.4364523       97.45745
2014    29      6       0.4908938       106.1213
2014    29      7       0.5833336       119.7547
2014    30      0       0.4955876       106.4997
2014    30      1       0.5298772       111.5298
2014    30      2       0.5657837       116.6315
2014    30      3       0.5993342       120.9902
2014    30      4       0.6721431       130.4749
2014    30      5       0.8905386       156.3503
2014    30      6       0.8952966       156.3328
2014    30      7       0.941573        160.7236
2015    1       0       1.117327        181.0518
2015    1       1       0.878665        158.2403
2015    1       2       0.7232016       140.0414
2015    1       3       0.6208798       126.3445
2015    1       4       0.5859973       121.0427
2015    1       5       0.7390463       141.8327
2015    1       6       0.8674142       156.6622
2015    1       7       0.9095309       161.5962
2015    2       0       0.8882987       159.5026
2015    2       1       0.8971589       160.3231
2015    2       2       0.9829839       168.6641
2015    2       3       0.9494943       165.172
2015    2       4       1.035902        173.3206
2015    2       5       1.026886        173.1018
2015    2       6       0.8613303       156.8177
2015    2       7       0.8392275       154.7241
2015    3       0       0.634011        129.6766
2015    3       1       0.586402        122.4319
2015    3       2       0.522597        112.7685
2015    3       3       0.5509365       117.1164
2015    3       4       0.444979        100.1445
2015    3       5       0.4425989       99.37385
2015    3       6       0.538541        114.5732
2015    3       7       0.6811822       135.0408
2015    4       0       0.9119898       161.5779
2015    4       1       0.9540332       166.0418
2015    4       2       0.7476304       143.6038
2015    4       3       1.070779        178.037
2015    4       4       1.182285        186.6885
2015    4       5       1.200407        187.5032
2015    4       6       1.030079        171.6492
2015    4       7       1.264569        188.4327
2015    5       0       1.214686        184.4309
2015    5       1       1.045433        170.1724
2015    5       2       0.9659469       162.0422
2015    5       3       0.8105459       145.4569
2015    5       4       0.6925846       131.5174
2015    5       5       0.5515785       112.8158
2015    5       6       0.7104864       133.7563
2015    5       7       0.5945774       118.4552
2015    6       0       0.5855999       117.0439
2015    6       1       0.5097551       105.9165
2015    6       2       0.6313411       122.9896
2015    6       3       0.6301308       122.8173
2015    6       4       0.5770249       115.2718
2015    6       5       0.5507071       111.5807
2015    6       6       0.5997392       118.3061
2015    6       7       0.6242199       121.877
2015    7       0       0.5403193       111.0298
2015    7       1       0.3137491       74.47582
2015    7       2       0.2101047       54.54917
2015    7       3       0.1635263       44.73748
2015    7       4       0.1813092       48.40855
2015    7       5       0.2954702       71.73874
2015    7       6       0.3340747       79.41127
2015    7       7       0.3378861       80.59599
2015    8       0       0.3262881       78.86702
2015    8       1       0.3290898       79.58066
2015    8       2       0.3298234       79.68259
2015    8       3       0.3216925       78.09372
2015    8       4       0.2783475       69.4977
2015    8       5       0.2295596       59.38306
2015    8       6       0.20786         54.75459
2015    8       7       0.2021977       53.641
2015    9       0       0.2111276       55.75606
2015    9       1       0.1937627       52.12916
2015    9       2       0.1952351       52.56825
2015    9       3       0.1893553       50.99479
2015    9       4       0.18463         49.63877
2015    9       5       0.2545507       64.06367
2015    9       6       0.3062686       74.55374
2015    9       7       0.458389        101.2029
2015    10      0       0.5675421       118.0638
2015    10      1       0.5803152       120.4456
2015    10      2       0.5937588       122.7226
2015    10      3       0.6075472       124.1994
2015    10      4       0.5615554       117.5602
2015    10      5       0.5702577       118.2295
2015    10      6       0.6969446       134.9636
2015    10      7       0.8410897       151.6983
2015    11      0       1.098924        175.9108
2015    11      1       1.224229        187.0843
2015    11      2       1.249808        187.0497
2015    11      3       1.038776        167.4273
2015    11      4       0.9697735       161.0989
2015    11      5       0.5232713       108.7296
2015    11      6       0.3498293       81.16434
2015    11      7       0.2499384       62.55171
2015    12      0       0.5301519       109.7786
2015    12      1       0.6088174       121.5051
2015    12      2       0.6178297       122.6495
2015    12      3       0.5418897       112.1656
2015    12      4       0.4099303       91.64503
2015    12      5       0.4061506       90.68094
2015    12      6       0.5650682       114.7595
2015    12      7       0.7943259       143.6258
2015    13      0       0.5885593       119.1362
2015    13      1       0.3979402       90.35194
2015    13      2       0.2736227       67.84511
2015    13      3       0.2812753       68.46602
2015    13      4       0.3450069       80.66619
2015    13      5       0.5329645       112.4084
2015    13      6       0.5747583       119.5964
2015    13      7       0.5653324       118.8748
2015    14      0       0.5229468       112.3957
2015    14      1       0.5011933       108.9185
2015    14      2       0.5135535       110.7912
2015    14      3       0.5029706       109.2522
2015    14      4       0.4786563       105.2575
2015    14      5       0.4425614       99.31673
2015    14      6       0.4172405       95.25073
2015    14      7       0.3758162       88.06254
2015    15      0       0.3178022       77.37585
2015    15      1       0.2594461       65.95032
2015    15      2       0.2123817       56.25162
2015    15      3       0.1672806       46.49457
2015    15      4       0.2237343       58.27598
2015    15      5       0.3338943       80.44892
2015    15      6       0.3711198       87.29164
2015    15      7       0.3872712       90.23711
2015    16      0       0.394869        91.18613
2015    16      1       0.3404868       80.43335
2015    16      2       0.3963571       90.21313
2015    16      3       1.056878        172.4257
2015    16      4       0.9402032       163.7749
2015    16      5       1.080143        175.7317
2015    16      6       1.388177        197.636
2015    16      7       1.357445        194.867
2015    17      0       1.267196        187.8728
2015    17      1       1.130121        177.4782
2015    17      2       1.032408        168.4346
2015    17      3       0.9386471       159.2174
2015    17      4       0.646719        126.5549
2015    17      5       0.4244201       93.82199
2015    17      6       0.2157108       55.51473
2015    17      7       0.5581048       114.2838
2015    18      0       0.8730715       154.7441
2015    18      1       0.825759        150.424
2015    18      2       0.8079271       148.827
2015    18      3       0.7528941       141.8931
2015    18      4       0.9797468       166.3494
2015    18      5       0.6827814       133.6442
2015    18      6       0.8006684       145.7649
2015    18      7       0.6206227       122.6199
2015    19      0       0.4550325       98.01483
2015    19      1       0.3711119       83.90504
2015    19      2       0.4206983       91.28696
2015    19      3       0.4928333       102.8717
2015    19      4       0.6018427       119.0363
2015    19      5       0.6814815       130.3612
2015    19      6       0.7959139       144.8541
2015    19      7       0.9067845       157.4465
2015    20      0       0.9240261       160.0681
2015    20      1       0.9964726       167.8728
2015    20      2       0.9717383       165.486
2015    20      3       0.8982682       158.2731
2015    20      4       0.9389582       162.2215
2015    20      5       1.023809        169.4953
2015    20      6       0.759644        140.3855
2015    20      7       0.6331051       123.2032
2015    21      0       0.5076654       104.4182
2015    21      1       0.4036366       87.91077
2015    21      2       0.1747396       46.17559
2015    21      3       0.1067775       31.47501
2015    21      4       0.1408574       39.28947
2015    21      5       0.1838602       47.9925
2015    21      6       0.2099578       53.20381
2015    21      7       0.2403968       59.20167
2015    22      0       0.3177636       73.93487
2015    22      1       0.4845682       102.591
2015    22      2       0.52181         109.4934
2015    22      3       0.512255        109.2727
2015    22      4       0.533851        113.2185
2015    22      5       0.5694402       118.6707
2015    22      6       0.5597218       117.4529
2015    22      7       0.6213241       126.4115
2015    23      0       0.650902        130.1433
2015    23      1       0.6717489       132.6583
2015    23      2       0.6199541       125.5333
2015    23      3       0.5360645       113.7328
2015    23      4       0.4401059       98.6257
2015    23      5       0.3394296       80.70302
2015    23      6       0.2861115       69.49142
2015    23      7       0.4711618       102.6105
2015    24      0       0.4985333       107.6027
2015    24      1       0.4546291       100.4339
2015    24      2       0.439413        97.53558
2015    24      3       0.4740786       103.0557
2015    24      4       0.647901        128.2005
2015    24      5       0.6986724       135.2319
2015    24      6       0.5331807       113.0494
2015    24      7       0.6037113       122.1399
2015    25      0       0.6628451       129.7361
2015    25      1       0.57723         118.2871
2015    25      2       0.5434755       113.9449
2015    25      3       0.5676331       117.4191
2015    25      4       0.6926494       133.4158
2015    25      5       0.6694512       130.6899
2015    25      6       0.6637368       129.473
2015    25      7       0.9286661       159.6311
2015    26      0       0.8345046       151.0101
2015    26      1       1.136622        179.8013
2015    26      2       1.105088        176.6031
2015    26      3       0.9973919       166.5913
2015    26      4       0.8683209       153.443
2015    26      5       0.7729417       142.3067
2015    26      6       0.7225321       135.7643
2015    26      7       0.7838775       142.2681
2015    27      0       0.7268139       135.3794
2015    27      1       0.6358675       124.3428
2015    27      2       0.6451613       125.7993
2015    27      3       0.5857509       118.0176
2015    27      4       0.4546408       98.68145
2015    27      5       0.2927751       70.85526
2015    27      6       0.1906692       50.73573
2015    27      7       0.2780417       68.30882
2015    28      0       0.4632589       100.4144
2015    28      1       1.001827        166.0103
2015    28      2       0.7538374       141.4203
2015    28      3       0.5194768       109.1703
2015    28      4       0.4536035       97.88
2015    28      5       0.4355585       94.43568
2015    28      6       0.3698041       83.75509
2015    28      7       0.4306964       93.76709
2015    29      0       0.4055302       89.64844
2015    29      1       0.4164358       91.4192
2015    29      2       0.5749124       115.1116
2015    29      3       0.6165951       120.7005
2015    29      4       0.5155191       106.6737
2015    29      5       0.3865102       86.19948
2015    29      6       0.389235        86.4792
2015    29      7       0.4684569       98.97927
2015    30      0       0.4904283       102.0922
2015    30      1       0.4825212       100.7786
2015    30      2       0.4768044       99.67614
2015    30      3       0.5132577       104.7718
2015    30      4       0.4445963       94.0967
2015    30      5       0.3316553       75.33869
2015    30      6       0.3610965       80.64141
2015    30      7       0.3946899       86.1794
2016    1       0       0.7341942       143.4043
2016    1       1       0.6716449       135.1428
2016    1       2       0.7333433       142.858
2016    1       3       0.814718        152.2583
2016    1       4       0.9846857       170.281
2016    1       5       1.54616         211.086
2016    1       6       1.751951        222.606
2016    1       7       1.661969        217.7372
2016    2       0       1.625502        215.6352
2016    2       1       1.548247        210.9561
2016    2       2       1.391941        201.6753
2016    2       3       1.349019        198.4935
2016    2       4       1.252288        191.6443
2016    2       5       1.053733        175.8109
2016    2       6       1.038955        174.1153
2016    2       7       0.9759037       168.6416
2016    3       0       0.8263217       153.4947
2016    3       1       0.6319619       129.4331
2016    3       2       0.4992843       109.4051
2016    3       3       0.3669114       86.7371
2016    3       4       0.2773979       69.42315
2016    3       5       0.2720295       68.21193
2016    3       6       0.3454795       82.45901
2016    3       7       0.4264043       96.86523
2016    4       0       0.4542369       101.5596
2016    4       1       0.4506797       101.2099
2016    4       2       0.3425683       82.17184
2016    4       3       0.2972136       73.46649
2016    4       4       0.4594043       103.1098
2016    4       5       0.6241685       128.6669
2016    4       6       0.756931        145.9061
2016    4       7       0.9788989       169.7633
2016    5       0       0.9904628       171.1713
2016    5       1       0.9517871       167.3663
2016    5       2       0.9881089       171.2982
2016    5       3       1.162141        186.1026
2016    5       4       1.099972        181.3063
2016    5       5       1.039891        175.9479
2016    5       6       1.172344        187.1697
2016    5       7       1.473115        208.2674
2016    6       0       1.525635        211.2531
2016    6       1       1.486422        208.9438
2016    6       2       1.493453        209.2908
2016    6       3       1.478396        208.3673
2016    6       4       1.497979        208.9522
2016    6       5       1.343306        199.0016
2016    6       6       1.24088         191.9567
2016    6       7       0.9902713       170.9061
2016    7       0       0.816547        152.5285
2016    7       1       0.7294962       141.8329
2016    7       2       0.8539206       155.8378
2016    7       3       1.04317         174.2108
2016    7       4       0.9760698       167.8721
2016    7       5       0.766351        145.1755
2016    7       6       0.7107364       138.6043
2016    7       7       0.6801039       134.8976
2016    8       0       0.6349131       128.8451
2016    8       1       0.5891105       122.4955
2016    8       2       0.5291691       113.7823
2016    8       3       0.4749519       105.1811
2016    8       4       0.4783525       105.354
2016    8       5       0.5720702       119.9847
2016    8       6       0.7599204       144.9581
2016    8       7       0.9009639       160.9534
2016    9       0       0.9133174       162.7555
2016    9       1       0.9309891       164.9921
2016    9       2       0.9552859       167.8357
2016    9       3       0.9376337       166.1905
2016    9       4       0.8254887       154.4372
2016    9       5       0.7040981       139.7997
2016    9       6       0.6539842       133.2173
2016    9       7       0.6675523       135.0669
2016    10      0       0.6606119       134.2855
2016    10      1       0.6460572       132.4527
2016    10      2       0.6475243       132.7122
2016    10      3       0.6746155       136.2853
2016    10      4       0.7271844       142.8915
2016    10      5       0.8068151       152.2305
2016    10      6       0.9443331       166.8812
2016    10      7       0.915791        163.4806
2016    11      0       0.915107        163.089
2016    11      1       0.9690818       168.3924
2016    11      2       0.9650522       167.9307
2016    11      3       1.022051        173.6281
2016    11      4       1.134107        183.2602
2016    11      5       1.19451         187.9936
2016    11      6       1.19567         188.1045
2016    11      7       1.214211        189.7772
2016    12      0       1.088368        179.9366
2016    12      1       0.8802348       159.8634
2016    12      2       0.7756789       147.779
2016    12      3       0.6928067       137.2919
2016    12      4       0.7104358       139.765
2016    12      5       0.8072202       151.9707
2016    12      6       0.9047488       162.6817
2016    12      7       0.9354627       165.8343
2016    13      0       0.9507673       167.0985
2016    13      1       0.9173662       163.4915
2016    13      2       0.9643736       167.8921
2016    13      3       1.048296        175.1513
2016    13      4       1.171926        184.9145
2016    13      5       1.279427        192.5984
2016    13      6       1.038793        173.6634
2016    13      7       0.8264392       152.4867
2016    14      0       0.6983885       137.3045
2016    14      1       0.6221743       126.7253
2016    14      2       0.678773        134.0481
2016    14      3       0.8229828       151.3262
2016    14      4       1.293032        195.5795
2016    14      5       1.33134         199.3037
2016    14      6       1.173948        187.2531
2016    14      7       1.289109        196.0649
2016    15      0       1.324209        199.3153
2016    15      1       1.071005        179.2482
2016    15      2       1.06414         178.4889
2016    15      3       0.9569608       168.3178
2016    15      4       0.6972612       138.5748
2016    15      5       0.6030023       125.3749
2016    15      6       0.5919814       123.7816
2016    15      7       0.6267713       128.5883
2016    16      0       0.6109006       125.944
2016    16      1       0.6589772       133.377
2016    16      2       0.9275311       164.9078
2016    16      3       1.077579        179.8277
2016    16      4       1.053961        177.4655
2016    16      5       0.9819459       170.0545
2016    16      6       0.9076287       162.4377
2016    16      7       0.7698311       146.8637
2016    17      0       0.6928312       136.3187
2016    17      1       0.7564034       144.0156
2016    17      2       0.8712055       156.7224
2016    17      3       1.42766         201.7411
2016    17      4       1.3551          197.2826
2016    17      5       0.9853066       168.2604
2016    17      6       1.244232        188.111
2016    17      7       1.169977        179.9806
2016    18      0       0.9239041       156.4759
2016    18      1       0.721276        133.4552
2016    18      2       0.6100143       119.2361
2016    18      3       0.4750668       100.319
2016    18      4       0.3868969       86.12236
2016    18      5       0.262163        63.99388
2016    18      6       0.2657098       64.79211
2016    18      7       0.2450422       61.11694
2016    19      0       0.23464         58.6696
2016    19      1       0.279809        66.89672
2016    19      2       0.3725073       84.235
2016    19      3       0.7974239       147.1486
2016    19      4       0.9549639       166.2916
2016    19      5       0.8478528       156.0535
2016    19      6       0.7169579       140.0004
2016    19      7       0.6450268       130.7066
2016    20      0       0.4681637       104.2732
2016    20      1       0.3991469       92.0638
2016    20      2       0.5158371       110.224
2016    20      3       0.6854634       135.7096
2016    20      4       0.8858557       159.7171
2016    20      5       0.924963        163.2228
2016    20      6       0.9514602       165.7368
2016    20      7       1.192368        187.457
2016    21      0       1.158036        185.1942
2016    21      1       1.077371        177.0146
2016    21      2       1.186778        185.6177
2016    21      3       1.280946        192.6221
2016    21      4       1.373228        199.3508
2016    21      5       1.412292        202.3801
2016    21      6       1.532239        209.3639
2016    21      7       1.467896        206.5238
2016    22      0       1.439849        205.0554
2016    22      1       1.669155        216.7875
2016    22      2       1.50122         207.0643
2016    22      3       1.330932        195.5138
2016    22      4       1.396889        199.1182
2016    22      5       1.210892        184.3561
2016    22      6       1.067952        172.3414
2016    22      7       0.9123664       158.3083
2016    23      0       0.7028783       135.157
2016    23      1       0.3979544       90.35187
2016    23      2       0.2885518       70.09153
2016    23      3       0.269437        65.61084
2016    23      4       0.2901267       69.10872
2016    23      5       0.4846323       102.3157
2016    23      6       0.5705171       116.0138
2016    23      7       0.5483218       113.6828
2016    24      0       0.6256166       125.0385
2016    24      1       0.6565414       129.3423
2016    24      2       0.6389781       126.4681
2016    24      3       0.8495724       150.4242
2016    24      4       0.5567479       113.0709
2016    24      5       0.5190644       107.4856
2016    24      6       0.3482196       80.56107
2016    24      7       0.2733565       66.89509
2016    25      0       0.2151172       55.5126
2016    25      1       0.2585926       64.78687
2016    25      2       0.3379008       79.39573
2016    25      3       0.2531351       63.70984
2016    25      4       0.1745931       47.45166
2016    25      5       0.1354812       38.52544
2016    25      6       0.1632627       44.39121
2016    25      7       0.1803756       48.34653
2016    26      0       0.1590285       43.74522
2016    26      1       0.1305058       37.39763
2016    26      2       0.1220496       35.51014
2016    26      3       0.1238378       35.94324
2016    26      4       0.1346827       38.32157
2016    26      5       0.1450063       40.4987
2016    26      6       0.1363557       38.90441
2016    26      7       0.145215        41.14249
2016    27      0       0.2015101       53.76212
2016    27      1       0.2671877       66.47767
2016    27      2       0.6365499       127.188
2016    27      3       0.9374976       161.8031
2016    27      4       1.058815        173.6824
2016    27      5       0.9205395       157.9409
2016    27      6       0.9429539       159.302
2016    27      7       0.9219809       157.5289
2016    28      0       0.8623026       151.5159
2016    28      1       0.587054        117.5186
2016    28      2       0.6794086       129.668
2016    28      3       0.6548289       126.7171
2016    28      4       0.6117943       120.7296
2016    28      5       0.4073866       89.52821
2016    28      6       0.6048021       118.7101
2016    28      7       0.6564864       125.7786
2016    29      0       0.6686951       127.3113
2016    29      1       0.5875043       116.3352
2016    29      2       0.522783        106.9946
2016    29      3       0.5286295       107.5696
2016    29      4       0.5905497       116.1259
2016    29      5       0.4838648       100.5227
2016    29      6       0.547427        109.8365
2016    29      7       0.6048681       118.1358
2016    30      0       0.5455018       110.1057
2016    30      1       0.4517643       95.89283
2016    30      2       0.3968817       87.17738
2016    30      3       0.3254893       75.22819
2016    30      4       0.2338657       58.39373
2016    30      5       0.1633264       44.07268
2016    30      6       0.1712822       45.8752
2016    30      7       0.3048706       72.32282
2017    1       0       0.6336361       125.5886
2017    1       1       1.021352        170.6351
2017    1       2       1.135663        182.0772
2017    1       3       1.204381        188.8363
2017    1       4       1.388948        201.3888
2017    1       5       0.9991876       170.6831
2017    1       6       1.081425        177.1522
2017    1       7       1.091954        178.3535
2017    2       0       1.145629        182.7835
2017    2       1       1.189557        186.544
2017    2       2       1.146493        182.3752
2017    2       3       1.149832        182.8766
2017    2       4       0.9790159       167.542
2017    2       5       0.8555206       154.76
2017    2       6       0.9344153       163.6629
2017    2       7       1.149794        184.3984
2017    3       0       1.351708        199.745
2017    3       1       1.24822         192.9172
2017    3       2       1.090123        180.0989
2017    3       3       1.000656        171.894
2017    3       4       0.7796313       147.8117
2017    3       5       0.5382258       114.6113
2017    3       6       0.7402561       142.4736
2017    3       7       1.006124        171.734
2017    4       0       1.075705        178.1331
2017    4       1       0.8931469       160.5914
2017    4       2       0.9718136       168.5444
2017    4       3       0.8593243       156.1859
2017    4       4       0.9712901       166.7857
2017    4       5       1.270672        191.9894
2017    4       6       1.573543        211.5146
2017    4       7       1.632679        215.3116
2017    5       0       1.502675        207.7795
2017    5       1       1.677869        216.5294
2017    5       2       1.642293        214.2583
2017    5       3       1.620564        213.1028
2017    5       4       1.453899        203.265
2017    5       5       1.163853        182.6889
2017    5       6       1.356204        196.9701
2017    5       7       1.489253        205.1257
2017    6       0       1.549477        208.2088
2017    6       1       1.202209        186.3192
2017    6       2       1.09482         177.6331
2017    6       3       1.155971        182.5902
2017    6       4       0.9812538       167.3486
2017    6       5       0.905997        159.6732
2017    6       6       1.067734        174.3248
2017    6       7       1.315194        192.5891
2017    7       0       1.451072        201.6588
2017    7       1       1.267531        190.1099
2017    7       2       1.099658        175.9391
2017    7       3       1.027397        169.2232
2017    7       4       0.8863112       155.4034
2017    7       5       0.6674532       129.9216
2017    7       6       0.6617574       129.1533
2017    7       7       0.7814463       143.4957
2017    8       0       0.7721466       142.4006
2017    8       1       0.6031106       121.2803
2017    8       2       0.452113        99.33754
2017    8       3       0.2744715       68.22149
2017    8       4       0.1583841       43.63317
2017    8       5       0.125914        35.51243
2017    8       6       0.2354017       58.42514
2017    8       7       0.4100164       90.90942
2017    9       0       0.3421622       78.78321
2017    9       1       0.274285        65.83594
2017    9       2       0.2705677       65.54619
2017    9       3       0.2789474       68.33277
2017    9       4       0.34188         80.65991
2017    9       5       0.4217122       94.32353
2017    9       6       0.535186        113.1576
2017    9       7       0.7285651       140.9845
2017    10      0       0.6834571       135.8319
2017    10      1       0.4671989       104.0443
2017    10      2       0.5623859       117.6766
2017    10      3       0.6875208       135.5005
2017    10      4       0.6959285       136.367
2017    10      5       0.5949783       122.9104
2017    10      6       0.5443896       115.2844
2017    10      7       0.557436        117.0444
2017    11      0       0.5001658       107.8198
2017    11      1       0.5291269       112.5086
2017    11      2       0.6717046       132.8091
2017    11      3       0.7363348       140.2742
2017    11      4       0.6617593       130.4028
2017    11      5       0.6991628       135.3216
2017    11      6       0.9383528       161.9448
2017    11      7       0.8978469       157.2142
2017    12      0       0.5109114       108.4319
2017    12      1       0.3020836       72.90131
2017    12      2       0.2801276       68.54315
2017    12      3       0.3366927       79.85212
2017    12      4       0.2654901       66.34817
2017    12      5       0.2399064       60.71222
2017    12      6       0.2740753       66.9486
2017    12      7       0.4127584       92.56459
2017    13      0       0.442245        97.40585
2017    13      1       0.5351156       111.8705
2017    13      2       0.6998814       134.7181
2017    13      3       1.001729        168.9164
2017    13      4       1.080294        177.2289
2017    13      5       0.6023064       123.2142
2017    13      6       0.4410437       98.67392
2017    13      7       0.4920146       107.1476
2017    14      0       0.675237        132.88
2017    14      1       0.6981399       136.1223
2017    14      2       0.7448997       141.7284
2017    14      3       0.7367371       141.3567
2017    14      4       0.7117167       137.7285
2017    14      5       0.6893963       134.1135
2017    14      6       0.7205103       138.2972
2017    14      7       1.022711        170.9109
2017    15      0       0.7561148       143.3386
2017    15      1       0.3926966       90.03015
2017    15      2       0.2340501       59.99162
2017    15      3       0.1712242       46.41257
2017    15      4       0.2106748       53.85668
2017    15      5       0.3018786       71.27855
2017    15      6       0.3818366       86.45663
2017    15      7       0.6486259       127.6047
2017    16      0       0.9932012       166.3137
2017    16      1       0.9672009       165.2906
2017    16      2       0.8688706       157.033
2017    16      3       0.8303937       153.7957
2017    16      4       0.801078        150.3202
2017    16      5       0.7980574       150.4688
2017    16      6       0.8004064       151.142
2017    16      7       1.073879        178.4834
2017    17      0       1.209257        189.5479
2017    17      1       1.236356        191.5401
2017    17      2       1.396809        202.7533
2017    17      3       1.519231        209.5768
2017    17      4       1.539757        210.8835
2017    17      5       1.380363        200.9339
2017    17      6       1.583742        212.5351
2017    17      7       1.420734        201.9626
2017    18      0       1.319062        192.895
2017    18      1       1.037861        166.8856
2017    18      2       0.7190912       133.9887
2017    18      3       0.6224115       121.1847
2017    18      4       0.2317532       58.35156
2017    18      5       0.2019769       51.95437
2017    18      6       0.3450813       79.3418
2017    18      7       0.4076493       91.13698
2017    19      0       0.3960807       89.30818
2017    19      1       0.462838        100.1557
2017    19      2       0.491883        105.3269
2017    19      3       0.4555681       100.2046
2017    19      4       0.3524919       82.9452
2017    19      5       0.3156864       75.93685
2017    19      6       0.3499781       81.05893
2017    19      7       0.3149647       74.16468
2017    20      0       0.2725118       66.04098
2017    20      1       0.2715439       67.1438
2017    20      2       0.2837281       69.69514
2017    20      3       0.225312        57.78476
2017    20      4       0.3867504       87.57278
2017    20      5       0.5441996       113.6201
2017    20      6       0.9946744       168.223
2017    20      7       0.8530029       153.6134
2017    21      0       0.9952678       168.6829
2017    21      1       1.23933         189.7963
2017    21      2       1.091488        177.3934
2017    21      3       1.238421        188.2255
2017    21      4       1.326066        194.4794
2017    21      5       1.08157         175.9318
2017    21      6       0.842563        152.4261
2017    21      7       0.7258631       139.154
2017    22      0       0.5097781       108.9026
2017    22      1       0.6793611       132.4028
2017    22      2       0.9599459       165.4259
2017    22      3       1.449229        206.1382
2017    22      4       1.459712        207.4905
2017    22      5       1.24538         192.8432
2017    22      6       1.492641        210.0714
2017    22      7       1.645887        218.6372
2017    23      0       1.503654        210.6607
2017    23      1       1.197639        189.712
2017    23      2       1.05121         177.0865
2017    23      3       0.9525085       167.0328
2017    23      4       0.9103454       162.6831
2017    23      5       0.7526233       144.6622
2017    23      6       0.748893        143.2294
2017    23      7       1.10903         181.267
2017    24      0       1.191969        189.2356
2017    24      1       1.183592        188.561
2017    24      2       1.048781        176.5008
2017    24      3       0.9513099       167.7819
2017    24      4       1.191373        188.7671
2017    24      5       1.06048         177.9182
2017    24      6       1.137734        182.8918
2017    24      7       1.173993        184.5039
2017    25      0       0.8211243       151.4586
2017    25      1       0.5302858       113.2432
2017    25      2       0.4175455       95.01891
2017    25      3       0.4636382       101.4468
2017    25      4       0.4652963       99.52573
2017    25      5       0.3096351       75.09329
2017    25      6       0.3142584       76.0965
2017    25      7       0.388914        88.9344
2017    26      0       0.4979729       106.5174
2017    26      1       0.8105892       148.6575
2017    26      2       1.149347        184.4276
2017    26      3       1.020341        174.1857
2017    26      4       0.7769415       147.7106
2017    26      5       0.6790425       134.2661
2017    26      6       0.821979        152.2339
2017    26      7       0.898474        161.6267
2017    27      0       0.7923949       149.6877
2017    27      1       0.5369378       115.8363
2017    27      2       0.4277833       98.6458
2017    27      3       0.3386486       82.80035
2017    27      4       0.306802        76.1754
2017    27      5       0.3599592       85.18914
2017    27      6       0.4321632       98.11806
2017    27      7       0.6532483       131.8847
2017    28      0       0.7696114       145.5716
2017    28      1       0.7925845       148.3508
2017    28      2       0.895585        159.4805
2017    28      3       0.9999752       169.2225
2017    28      4       0.826221        151.164
2017    28      5       0.4500722       100.1018
2017    28      6       0.2435812       62.28782
2017    28      7       0.2568097       65.04396
2017    29      0       0.3230284       78.1557
2017    29      1       0.2360849       61.19092
2017    29      2       0.2471537       63.46857
2017    29      3       0.3169369       77.03443
2017    29      4       0.5247484       112.575
2017    29      5       0.5453293       115.0708
2017    29      6       0.3915093       90.03069
2017    29      7       0.3369164       80.21328
2017    30      0       0.2344209       60.03516
2017    30      1       0.2595114       63.84262
2017    30      2       0.4004711       89.38605
2017    30      3       0.5592905       115.5826
2017    30      4       0.4101939       92.85261
2017    30      5       0.3003605       73.13307
2017    30      6       0.3338452       79.11353
2017    30      7       0.6503831       129.4773
2018    1       0       0.4531896       97.70735
2018    1       1       0.8020243       144.2172
2018    1       2       0.9839742       163.5463
2018    1       3       0.8474151       150.5104
2018    1       4       0.559896        115.2667
2018    1       5       0.472209        101.7355
2018    1       6       0.8226266       148.1249
2018    1       7       1.063204        172.2593
2018    2       0       1.098988        175.6966
2018    2       1       1.036535        170.0492
2018    2       2       1.140121        179.8955
2018    2       3       1.220134        186.9834
2018    2       4       1.379561        199.153
2018    2       5       1.320704        195.4434
2018    2       6       1.010569        171.0571
2018    2       7       0.8804926       158.3323
2018    3       0       1.336076        196.1876
2018    3       1       1.275612        191.3615
2018    3       2       1.017067        168.4434
2018    3       3       0.9253207       158.3921
2018    3       4       0.9214909       157.7306
2018    3       5       0.883105        154.0019
2018    3       6       0.9209038       157.6327
2018    3       7       0.9285376       157.9825
2018    4       0       0.8003824       144.1029
2018    4       1       0.7232399       135.3121
2018    4       2       0.7082618       134.2575
2018    4       3       0.6821117       131.5945
2018    4       4       0.7811773       144.3118
2018    4       5       1.126953        179.9184
2018    4       6       1.454243        203.0559
2018    4       7       1.385813        199.0342
2018    5       0       1.186038        184.4036
2018    5       1       1.034639        170.4638
2018    5       2       1.086627        174.5582
2018    5       3       1.032955        170.0903
2018    5       4       0.7718074       142.5525
2018    5       5       0.63453         124.787
2018    5       6       0.7687176       141.3896
2018    5       7       0.7740893       142.7848
2018    6       0       0.667464        129.754
2018    6       1       0.6872289       131.8761
2018    6       2       0.7168217       135.0475
2018    6       3       0.5881603       118.1895
2018    6       4       0.5868498       117.4329
2018    6       5       0.5101663       106.2678
2018    6       6       0.6485786       124.9155
2018    6       7       0.6727838       128.8258
2018    7       0       0.599353        119.3448
2018    7       1       0.4884569       103.1711
2018    7       2       0.4685525       99.94503
2018    7       3       0.499743        104.7745
2018    7       4       0.4194112       92.00288
2018    7       5       0.3704285       83.93075
2018    7       6       0.5472489       111.217
2018    7       7       0.5998564       118.8165
2018    8       0       0.5564173       113.058
2018    8       1       0.3691285       83.67624
2018    8       2       0.385902        86.1128
2018    8       3       0.3590948       81.3601
2018    8       4       0.2848296       68.1645
2018    8       5       0.393093        86.86181
2018    8       6       0.4507534       96.24448
2018    8       7       0.4704853       99.81714
2018    9       0       0.3605754       81.95883
2018    9       1       0.3268193       75.80466
2018    9       2       0.3414988       78.4965
2018    9       3       0.2976717       70.90078
2018    9       4       0.2814434       68.00546
2018    9       5       0.2412215       60.39106
2018    9       6       0.1996207       51.9165
2018    9       7       0.2444517       60.94051
2018    10      0       0.29665         70.93823
2018    10      1       0.3471296       79.95986
2018    10      2       0.3851108       86.25968
2018    10      3       0.5080727       106.1465
2018    10      4       0.4916165       103.3527
2018    10      5       0.5395429       110.6169
2018    10      6       0.6246479       122.7114
2018    10      7       0.609387        120.5406
2018    11      0       0.43216         94.25935
2018    11      1       0.5062602       105.6728
2018    11      2       0.7053066       132.6257
2018    11      3       0.7434936       136.7999
2018    11      4       0.7141961       132.6732
2018    11      5       0.6272412       121.0108
2018    11      6       0.6166961       119.5623
2018    11      7       0.6170936       119.367
2018    12      0       0.5236134       106.0827
2018    12      1       0.4430538       93.49945
2018    12      2       0.3587108       79.34516
2018    12      3       0.3937868       85.30362
2018    12      4       0.3199013       72.94809
2018    12      5       0.2228192       55.28206
2018    12      6       0.1858812       48.07453
2018    12      7       0.218075        54.56267
2018    13      0       0.2498517       60.80625
2018    13      1       0.404266        88.99688
2018    13      2       0.5833111       117.2122
2018    13      3       0.6128137       122.297
2018    13      4       0.5940909       120.2435
2018    13      5       0.6382554       126.3113
2018    13      6       0.662788        129.7391
2018    13      7       0.6688087       130.7297
2018    14      0       0.7838367       145.1179
2018    14      1       0.7093116       136.219
2018    14      2       0.6764674       132.0893
2018    14      3       0.6343232       126.5454
2018    14      4       0.567548        117.3333
2018    14      5       0.4867269       105.3543
2018    14      6       0.440945        98.16371
2018    14      7       0.4463593       98.99921
2018    15      0       0.5390703       113.153
2018    15      1       0.6047325       122.7007
2018    15      2       0.6066369       123.1041
2018    15      3       0.6285909       126.1024
2018    15      4       0.5032131       107.4313
2018    15      5       0.5699108       117.4799
2018    15      6       0.542143        113.2882
2018    15      7       0.5361376       112.2294
2018    16      0       0.4370496       96.84384
2018    16      1       0.3924968       89.39726
2018    16      2       0.4433785       98.17865
2018    16      3       0.5454007       114.6204
2018    16      4       0.6330983       127.3329
2018    16      5       0.6959628       134.9972
2018    16      6       0.758015        142.6384
2018    16      7       0.8478266       152.8703
2018    17      0       1.001649        168.2342
2018    17      1       1.119919        177.7141
2018    17      2       1.133321        178.3517
2018    17      3       0.9911335       165.3669
2018    17      4       1.017181        167.5773
2018    17      5       1.126529        176.7645
2018    17      6       1.131823        177.1582
2018    17      7       0.9271376       158.828
2018    18      0       0.585646        118.5762
2018    18      1       0.3591657       82.88202
2018    18      2       0.2113015       54.6929
2018    18      3       0.1223515       35.5482
2018    18      4       0.08738254      27.29462
2018    18      5       0.1078962       31.91126
2018    18      6       0.176218        46.55714
2018    18      7       0.2271847       56.73841
2018    19      0       0.2452498       60.56474
2018    19      1       0.3909166       87.44483
2018    19      2       0.52982         109.6574
2018    19      3       0.6340399       124.7803
2018    19      4       0.6661347       129.7896
2018    19      5       0.6802103       131.589
2018    19      6       0.6577949       128.6558
2018    19      7       0.6281304       125.0655
2018    20      0       0.5411205       113.1093
2018    20      1       0.4642412       101.352
2018    20      2       0.3904311       89.14356
2018    20      3       0.3767712       86.7933
2018    20      4       0.4072946       92.08551
2018    20      5       0.4382299       97.13384
2018    20      6       0.4660776       101.7476
2018    20      7       0.4835102       104.7842
2018    21      0       0.458735        100.9226
2018    21      1       0.4203065       94.46448
2018    21      2       0.3827126       88.02867
2018    21      3       0.343232        81.13505
2018    21      4       0.3348439       79.49089
2018    21      5       0.3369648       79.68973
2018    21      6       0.3190558       76.44818
2018    21      7       0.2897981       71.17139
2018    22      0       0.2747467       68.51305
2018    22      1       0.2512614       63.92169
2018    22      2       0.2341484       60.19758
2018    22      3       0.2214139       57.08531
2018    22      4       0.2844083       68.73562
2018    22      5       0.501549        106.4229
2018    22      6       0.6600627       129.749
2018    22      7       1.121421        179.0177
2018    23      0       1.246799        188.9218
2018    23      1       1.211691        184.7979
2018    23      2       0.9917135       165.95
2018    23      3       0.4822246       103.1564
2018    23      4       0.4956196       104.8471
2018    23      5       0.7395758       138.5105
2018    23      6       0.7482695       139.5218
2018    23      7       0.6089096       121.631
2018    24      0       0.5549653       113.7449
2018    24      1       0.8519298       151.7929
2018    24      2       1.007041        168.4071
2018    24      3       1.197316        185.2017
2018    24      4       1.214957        186.0986
2018    24      5       1.18558         184.6141
2018    24      6       1.015626        166.0237
2018    24      7       0.5967735       118.2333
2018    25      0       0.6034961       119.0079
2018    25      1       0.758376        138.357
2018    25      2       0.5672215       113.3531
2018    25      3       0.3452357       78.99417
2018    25      4       0.2752911       66.17169
2018    25      5       0.3644683       82.46147
2018    25      6       0.3228406       75.37236
2018    25      7       0.2381835       59.54386
2018    26      0       0.201503        51.83829
2018    26      1       0.2812483       67.35308
2018    26      2       0.3701844       83.71916
2018    26      3       0.3857587       86.98033
2018    26      4       0.3744941       85.41637
2018    26      5       0.5563387       113.8666
2018    26      6       0.6393128       126.0893
2018    26      7       0.597267        121.217
2018    27      0       0.7872203       144.6575
2018    27      1       0.8179222       148.6896
2018    27      2       0.7018137       134.944
2018    27      3       0.6857851       133.7132
2018    27      4       0.6566238       130.253
2018    27      5       0.7674908       143.548
2018    27      6       1.077673        175.3354
2018    27      7       1.212842        186.9289
2018    28      0       1.160182        182.5392
2018    28      1       1.120761        179.6391
2018    28      2       1.060992        175.2396
2018    28      3       0.7819322       147.1636
2018    28      4       0.5935406       121.7435
2018    28      5       0.6838036       133.0645
2018    28      6       0.6960363       133.8252
2018    28      7       0.8353386       150.8666
2018    29      0       0.9114539       158.9079
2018    29      1       1.047481        172.1204
2018    29      2       1.237115        186.9066
2018    29      3       1.101521        176.0759
2018    29      4       0.8760134       155.1915
2018    29      5       0.6158213       123.9543
2018    29      6       0.4152412       93.2643
2018    29      7       0.3948143       89.46321
2018    30      0       1.022473        169.5332
2018    30      1       0.8239589       149.7972
2018    30      2       0.6637667       130.6721
2018    30      3       0.8205179       149.7018
2018    30      4       0.825918        149.9555
2018    30      5       1.132057        178.6548
2018    30      6       1.232837        186.3098
2018    30      7       1.17331         180.9516
