####################################################################################################
# Month: 09Sep                                                                                     #
# Station: FAIR                                                                                    #
# Frequency: 345 GHz                                                                               #
# Columns are: year    day     segment         tau     Tb (K)                                      #
####################################################################################################
2009    1       0       3.274266        260.6473
2009    1       1       3.247198        260.4239
2009    1       2       3.768635        265.091
2009    1       3       2.954408        256.0423
2009    1       4       2.706345        252.1147
2009    1       5       2.583644        249.3551
2009    1       6       2.870708        254.7151
2009    1       7       2.537921        248.4597
2009    2       0       2.657167        251.8512
2009    2       1       2.551234        250.2675
2009    2       2       2.528412        249.7957
2009    2       3       2.924049        256.2113
2009    2       4       2.850586        255.2958
2009    2       5       2.904247        256.4731
2009    2       6       2.743653        253.9634
2009    2       7       2.902584        256.6163
2009    3       0       2.856533        256.4154
2009    3       1       2.864274        256.9617
2009    3       2       2.952843        258.4054
2009    3       3       2.951964        258.614
2009    3       4       2.587679        252.7345
2009    3       5       2.268451        245.0688
2009    3       6       2.115145        240.3024
2009    3       7       2.427384        249.2887
2009    4       0       2.406656        249.5314
2009    4       1       2.415234        249.3571
2009    4       2       2.030546        236.9329
2009    4       3       1.78439         226.414
2009    4       4       1.790073        227.7004
2009    4       5       1.946912        235.2734
2009    4       6       1.611385        219.3024
2009    4       7       1.874901        231.6591
2009    5       0       2.135126        241.5
2009    5       1       2.007498        237.3756
2009    5       2       1.817581        230.0815
2009    5       3       1.852816        231.6094
2009    5       4       1.844358        231.4461
2009    5       5       1.837288        231.4532
2009    5       6       2.056683        239.8549
2009    5       7       2.555655        253.1385
2009    6       0       2.807115        258.7644
2009    6       1       2.883434        260.4444
2009    6       2       2.912055        260.6607
2009    6       3       2.700307        255.9457
2009    6       4       2.108103        240.2317
2009    6       5       1.918291        232.6819
2009    6       6       2.01111         236.6415
2009    6       7       2.412561        249.0766
2009    7       0       2.459365        250.931
2009    7       1       2.566899        253.5103
2009    7       2       2.75044         256.8572
2009    7       3       2.826843        258.1799
2009    7       4       2.719609        256.2654
2009    7       5       2.662813        254.8412
2009    7       6       2.610908        253.3559
2009    7       7       2.631317        253.2203
2009    8       0       2.62003         253.454
2009    8       1       2.596049        253.0922
2009    8       2       2.557839        252.5071
2009    8       3       2.459423        250.5888
2009    8       4       2.453817        250.0743
2009    8       5       2.408407        248.6728
2009    8       6       2.392301        247.9935
2009    8       7       2.776173        255.444
2009    9       0       2.673195        253.9154
2009    9       1       2.568147        252.2793
2009    9       2       2.396362        248.3276
2009    9       3       2.314439        245.6683
2009    9       4       2.346026        246.0946
2009    9       5       2.35988         246.5467
2009    9       6       2.426218        248.2333
2009    9       7       2.836082        256.4245
2009    10      0       2.882994        257.5113
2009    10      1       2.764122        255.3023
2009    10      2       2.759072        254.9356
2009    10      3       2.777592        255.4506
2009    10      4       2.760393        255.0971
2009    10      5       2.629385        252.7654
2009    10      6       2.414125        248.2205
2009    10      7       2.34326         246.7522
2009    11      0       2.459291        249.9347
2009    11      1       2.730731        255.2159
2009    11      2       2.881558        256.7741
2009    11      3       2.919182        257.1596
2009    11      4       3.245661        261.238
2009    11      5       3.284683        261.4288
2009    11      6       3.693166        265.3965
2009    11      7       3.44401         263.1955
2009    12      0       3.471624        263.7954
2009    12      1       2.896954        256.9771
2009    12      2       2.52463         250.352
2009    12      3       2.769293        255.3105
2009    12      4       2.762796        254.1632
2009    12      5       2.798704        254.7051
2009    12      6       2.910075        256.1459
2009    12      7       3.321678        261.4456
2009    13      0       2.966758        257.5724
2009    13      1       2.95783         257.3961
2009    13      2       2.896273        256.7412
2009    13      3       2.969848        257.6042
2009    13      4       2.996883        257.6975
2009    13      5       3.133959        259.287
2009    13      6       3.104369        258.7661
2009    13      7       2.829718        254.3593
2009    14      0       2.816411        254.1777
2009    14      1       2.83598         254.2144
2009    14      2       2.681506        251.8294
2009    14      3       2.651763        251.3853
2009    14      4       2.730247        252.7934
2009    14      5       2.754613        253.2099
2009    14      6       2.828826        254.3358
2009    14      7       2.950687        256.113
2009    15      0       3.057798        256.9202
2009    15      1       2.632125        250.6908
2009    15      2       2.310898        243.6845
2009    15      3       2.126239        238.5625
2009    15      4       2.001449        234.9536
2009    15      5       1.915579        232.0677
2009    15      6       1.784512        226.3626
2009    15      7       1.63314         219.2955
2009    16      0       1.951228        234.9565
2009    16      1       2.20633         244.7011
2009    16      2       2.163574        243.5978
2009    16      3       2.032218        239.6531
2009    16      4       2.260239        246.5497
2009    16      5       2.496529        252.3223
2009    16      6       3.01623         261.5163
2009    16      7       3.318893        265.3548
2009    17      0       3.995274        270.25
2009    17      1       3.883544        268.2254
2009    17      2       4.079225        269.0039
2009    17      3       3.272434        263.8069
2009    17      4       2.971626        259.816
2009    17      5       2.965481        259.6921
2009    17      6       3.375118        264.0113
2009    17      7       3.557809        265.3961
2009    18      0       3.752781        266.6595
2009    18      1       4.073815        268.2103
2009    18      2       3.182222        259.924
2009    18      3       2.929034        256.1076
2009    18      4       3.108296        258.489
2009    18      5       3.316304        260.9873
2009    18      6       3.418695        261.5761
2009    18      7       3.314334        259.9049
2009    19      0       3.286232        259.2763
2009    19      1       3.231385        258.6465
2009    19      2       3.194983        257.8449
2009    19      3       2.851689        252.523
2009    19      4       2.527856        246.0368
2009    19      5       2.271265        239.2424
2009    19      6       2.075579        233.1354
2009    19      7       2.381337        241.5881
2009    20      0       2.464849        243.2049
2009    20      1       2.344003        239.4911
2009    20      2       2.056356        230.8497
2009    20      3       1.882168        224.5491
2009    20      4       1.793116        220.7759
2009    20      5       1.771416        220.0245
2009    20      6       1.744153        219.3553
2009    20      7       1.871769        224.4605
2009    21      0       2.050351        232.7481
2009    21      1       2.009177        231.7362
2009    21      2       2.053804        233.7124
2009    21      3       2.098533        235.6408
2009    21      4       2.180041        238.056
2009    21      5       2.310412        241.431
2009    21      6       1.665441        217.4435
2009    21      7       1.501017        207.8768
2009    22      0       2.080335        234.0243
2009    22      1       2.139717        236.576
2009    22      2       2.099325        235.6949
2009    22      3       2.291607        241.0236
2009    22      4       2.199443        238.5431
2009    22      5       2.369149        242.5833
2009    22      6       1.978889        230.4682
2009    22      7       2.066332        233.4328
2009    23      0       2.130818        234.7451
2009    23      1       1.949895        228.4113
2009    23      2       1.871539        225.0227
2009    23      3       2.35556         241.0346
2009    23      4       2.621817        247.1693
2009    23      5       2.589392        246.0299
2009    23      6       2.28505         238.1782
2009    23      7       2.473699        241.9257
2009    24      0       2.38859         239.0754
2009    24      1       1.630812        211.1054
2009    24      2       1.255009        188.0258
2009    24      3       1.247811        187.2701
2009    24      4       1.102062        175.4693
2009    24      5       0.8690326       153.1539
2009    24      6       0.8268339       149.0318
2009    24      7       1.036273        170.7323
2009    25      0       1.475749        204.0516
2009    25      1       1.740327        218.0582
2009    25      2       1.729838        217.9695
2009    25      3       1.845187        223.7815
2009    25      4       1.902663        226.5858
2009    25      5       2.043707        231.96
2009    25      6       2.085036        233.6559
2009    25      7       2.066391        233.6763
2009    26      0       2.600045        247.041
2009    26      1       2.363689        241.7854
2009    26      2       2.434337        243.6169
2009    26      3       2.689632        249.0891
2009    26      4       2.736644        249.2186
2009    26      5       2.416781        241.5087
2009    26      6       2.046835        230.404
2009    26      7       1.919202        224.9266
2009    27      0       2.163328        232.6193
2009    27      1       1.799633        218.3345
2009    27      2       1.630216        209.753
2009    27      3       1.591452        207.2362
2009    27      4       1.210162        183.3421
2009    27      5       1.123709        176.094
2009    27      6       1.082794        172.497
2009    27      7       1.314514        190.6964
2009    28      0       1.305508        190.025
2009    28      1       1.183849        180.515
2009    28      2       1.132364        175.9018
2009    28      3       0.996994        163.9699
2009    28      4       1.102472        173.3052
2009    28      5       0.8440716       148.3025
2009    28      6       0.8344233       147.2595
2009    28      7       1.079132        171.397
2009    29      0       0.9611585       161.1906
2009    29      1       0.8434199       149.4553
2009    29      2       0.7943645       144.3955
2009    29      3       0.7636803       141.1225
2009    29      4       0.7291162       137.1616
2009    29      5       0.721696        136.4224
2009    29      6       0.7974682       145.3456
2009    29      7       0.9059951       157.2897
2009    30      0       1.187663        182.6572
2009    30      1       1.293526        190.7923
2009    30      2       1.297538        191.4282
2009    30      3       1.275771        189.9814
2009    30      4       1.243922        187.5894
2009    30      5       1.335163        193.9867
2009    30      6       1.405264        198.9382
2009    30      7       1.488955        204.3372
2010    1       0       3.597396        263.6193
2010    1       1       3.181879        259.1265
2010    1       2       2.831125        254.4416
2010    1       3       2.719323        252.9012
2010    1       4       2.711131        252.7362
2010    1       5       2.948303        256.5128
2010    1       6       3.150268        259.1286
2010    1       7       3.51621         263.0104
2010    2       0       4.162902        267.5248
2010    2       1       3.826976        265.2719
2010    2       2       3.274071        260.4668
2010    2       3       2.620743        250.7426
2010    2       4       2.089044        236.6791
2010    2       5       1.862744        227.8725
2010    2       6       1.830269        226.4989
2010    2       7       2.313604        242.9995
2010    3       0       2.319151        243.3872
2010    3       1       2.321499        243.3354
2010    3       2       2.223296        240.8081
2010    3       3       2.170013        239.4091
2010    3       4       2.127719        237.6449
2010    3       5       2.128885        237.3405
2010    3       6       2.227292        240.2921
2010    3       7       2.370034        244.3467
2010    4       0       2.47793         247.3568
2010    4       1       2.31338         243.6532
2010    4       2       2.200751        240.8154
2010    4       3       2.146766        239.6565
2010    4       4       2.008289        235.1863
2010    4       5       1.940897        232.446
2010    4       6       2.11817         238.2129
2010    4       7       2.715252        252.9354
2010    5       0       3.223399        260.8528
2010    5       1       3.314957        261.9588
2010    5       2       3.358061        262.225
2010    5       3       3.417175        262.8342
2010    5       4       3.545544        264.1049
2010    5       5       3.294101        261.5165
2010    5       6       3.362644        262.5759
2010    5       7       3.826516        266.765
2010    6       0       3.162154        260.9144
2010    6       1       3.043093        259.4092
2010    6       2       3.221972        261.6171
2010    6       3       2.818558        255.5886
2010    6       4       2.587577        250.7415
2010    6       5       2.709169        253.7908
2010    6       6       2.577846        251.4277
2010    6       7       2.540101        250.9761
2010    7       0       3.247562        262.4803
2010    7       1       2.983466        259.8043
2010    7       2       2.425288        249.9836
2010    7       3       2.101717        241.782
2010    7       4       2.003094        238.6751
2010    7       5       2.034426        239.4065
2010    7       6       3.01249         261.1284
2010    7       7       4.145559        270.0956
2010    8       0       3.833091        268.8134
2010    8       1       3.877777        269.4202
2010    8       2       4.13107         270.3507
2010    8       3       4.027919        268.9666
2010    8       4       3.671146        266.4219
2010    8       5       2.885293        257.5807
2010    8       6       2.701925        253.773
2010    8       7       3.509496        264.0626
2010    9       0       3.865081        266.3174
2010    9       1       3.457243        262.8829
2010    9       2       3.715449        265.3869
2010    9       3       4.585712        269.7447
2010    9       4       3.979969        267.3867
2010    9       5       3.318361        262.4826
2010    9       6       3.041104        259.2223
2010    9       7       2.95876         258.1347
2010    10      0       4.429597        269.8563
2010    10      1       2.865945        256.2213
2010    10      2       3.200455        260.9176
2010    10      3       2.689039        253.5142
2010    10      4       1.969798        234.5508
2010    10      5       1.572084        216.2124
2010    10      6       1.65198         220.094
2010    10      7       1.871345        230.1026
2010    11      0       2.724037        253.6565
2010    11      1       3.078084        259.406
2010    11      2       3.036546        258.5395
2010    11      3       2.763877        254.2942
2010    11      4       2.065076        237.2955
2010    11      5       1.564348        215.8797
2010    11      6       1.20577         191.5892
2010    11      7       1.181923        189.2996
2010    12      0       1.681418        221.7222
2010    12      1       1.639029        219.8956
2010    12      2       1.266681        196.4101
2010    12      3       1.415897        206.9597
2010    12      4       1.420569        207.4984
2010    12      5       1.341205        202.3683
2010    12      6       1.31685         200.8529
2010    12      7       1.527813        214.2238
2010    13      0       1.674833        222.5886
2010    13      1       1.936331        233.8928
2010    13      2       2.053541        238.0061
2010    13      3       1.92211         233.2893
2010    13      4       1.931617        233.5155
2010    13      5       2.164766        241.8302
2010    13      6       2.290519        245.2625
2010    13      7       2.321545        246.103
2010    14      0       2.281808        245.9001
2010    14      1       2.144128        242.339
2010    14      2       1.925409        233.955
2010    14      3       1.743197        225.4588
2010    14      4       1.65039         221.0878
2010    14      5       1.73976         225.6727
2010    14      6       1.725952        225.1382
2010    14      7       1.711494        225.1135
2010    15      0       2.159762        243.6438
2010    15      1       2.33528         248.922
2010    15      2       2.069224        241.1773
2010    15      3       1.709935        226.5448
2010    15      4       1.614013        221.5515
2010    15      5       1.666213        224.1987
2010    15      6       1.575845        219.2633
2010    15      7       1.989268        237.7288
2010    16      0       2.569487        254.208
2010    16      1       2.593487        254.9092
2010    16      2       2.369761        249.1917
2010    16      3       1.58781         218.5339
2010    16      4       1.961763        235.9985
2010    16      5       1.806805        229.6594
2010    16      6       1.697477        223.8952
2010    16      7       1.867033        231.1181
2010    17      0       2.175957        242.459
2010    17      1       2.072417        239.3113
2010    17      2       1.927514        233.7927
2010    17      3       1.680884        222.5459
2010    17      4       1.733574        224.7878
2010    17      5       1.774396        226.3406
2010    17      6       1.945829        232.8488
2010    17      7       2.466729        248.3541
2010    18      0       2.415729        247.8171
2010    18      1       3.038974        258.9611
2010    18      2       2.341566        245.5482
2010    18      3       2.220401        242.9179
2010    18      4       2.191321        242.1275
2010    18      5       2.10642         238.8893
2010    18      6       1.872544        230.4034
2010    18      7       1.699589        222.7673
2010    19      0       1.884682        231.0638
2010    19      1       1.911177        232.5798
2010    19      2       1.772939        226.6346
2010    19      3       1.417756        207.2166
2010    19      4       1.143464        186.8136
2010    19      5       1.060036        179.6003
2010    19      6       0.9229372       165.8292
2010    19      7       0.854653        158.0344
2010    20      0       1.318371        200.476
2010    20      1       1.219378        193.0069
2010    20      2       0.9108213       163.9987
2010    20      3       0.9115903       164.061
2010    20      4       1.012677        174.4459
2010    20      5       1.26634         196.4606
2010    20      6       1.45177         209.4228
2010    20      7       1.571112        216.4997
2010    21      0       1.729702        224.684
2010    21      1       1.807409        227.8995
2010    21      2       1.841426        229.1731
2010    21      3       1.879728        230.8188
2010    21      4       1.901651        231.8764
2010    21      5       2.010886        236.0792
2010    21      6       2.134755        240.2419
2010    21      7       2.161365        240.8329
2010    22      0       2.46781         247.4074
2010    22      1       2.392717        244.409
2010    22      2       2.454209        244.9581
2010    22      3       2.045372        233.489
2010    22      4       1.622856        214.8065
2010    22      5       1.243176        190.4297
2010    22      6       1.095093        178.3779
2010    22      7       1.082307        176.2683
2010    23      0       1.046787        173.1893
2010    23      1       1.026353        170.6251
2010    23      2       0.9745768       165.5999
2010    23      3       0.9088645       158.9733
2010    23      4       0.8348192       150.6437
2010    23      5       0.7010649       134.1063
2010    23      6       0.7079532       134.3994
2010    23      7       0.8001392       145.544
2010    24      0       0.8076275       146.3469
2010    24      1       0.8831485       154.1677
2010    24      2       0.8645327       152.2379
2010    24      3       0.6794074       131.0221
2010    24      4       0.5874854       118.7818
2010    24      5       0.5319968       110.5044
2010    24      6       0.4607222       99.64233
2010    24      7       0.616753        122.611
2010    25      0       0.6701937       130.328
2010    25      1       0.7072113       135.3477
2010    25      2       0.5856134       119.4941
2010    25      3       0.393336        89.80477
2010    25      4       0.4463998       98.81853
2010    25      5       0.5784224       118.9625
2010    25      6       0.6122302       123.645
2010    25      7       0.7214659       140.4317
2010    26      0       0.7630477       143.0914
2010    26      1       0.8143344       148.4686
2010    26      2       0.9491935       162.1646
2010    26      3       1.026737        169.1482
2010    26      4       1.09654         175.0041
2010    26      5       1.068948        172.0341
2010    26      6       1.31955         191.144
2010    26      7       1.112448        175.4331
2010    27      0       1.024051        167.7895
2010    27      1       1.125352        175.9912
2010    27      2       1.008608        165.8578
2010    27      3       1.057754        170.3532
2010    27      4       1.008011        165.585
2010    27      5       0.956828        160.3464
2010    27      6       1.048853        168.711
2010    27      7       0.8439739       149.0674
2010    28      0       0.7950182       143.9035
2010    28      1       0.8461033       149.6047
2010    28      2       0.8756509       152.8457
2010    28      3       0.7918062       143.5992
2010    28      4       0.7385398       137.1313
2010    28      5       0.7382858       137.1757
2010    28      6       0.7122395       134.0125
2010    28      7       0.7576581       139.5969
2010    29      0       0.787925        143.4695
2010    29      1       0.7984767       144.9116
2010    29      2       0.8933115       155.4206
2010    29      3       1.105857        174.9414
2010    29      4       1.343429        192.7162
2010    29      5       1.513163        204.167
2010    29      6       1.764484        217.9927
2010    29      7       1.791082        220.1252
2010    30      0       1.924261        225.8834
2010    30      1       1.982522        229.103
2010    30      2       2.38961         242.467
2010    30      3       2.227972        238.3883
2010    30      4       1.81779         223.842
2010    30      5       1.679496        217.832
2010    30      6       1.676819        217.4927
2010    30      7       1.772644        221.8402
2011    1       0       3.324977        262.7129
2011    1       1       3.283468        261.8259
2011    1       2       3.123962        260.2933
2011    1       3       2.981465        258.4768
2011    1       4       3.08002         259.5843
2011    1       5       3.254202        261.4566
2011    1       6       3.671452        264.7056
2011    1       7       3.45271         262.2628
2011    2       0       3.784666        265.3456
2011    2       1       4.505532        268.9479
2011    2       2       4.429848        268.4026
2011    2       3       4.184882        267.0676
2011    2       4       3.104423        258.2623
2011    2       5       2.526055        249.8516
2011    2       6       2.340679        245.6209
2011    2       7       2.997316        258.1231
2011    3       0       3.189545        260.598
2011    3       1       3.008305        257.4884
2011    3       2       2.994112        257.4084
2011    3       3       2.941742        256.8747
2011    3       4       2.633943        251.4709
2011    3       5       2.552091        249.6979
2011    3       6       2.367598        245.6787
2011    3       7       2.648065        251.2252
2011    4       0       2.578021        250.0737
2011    4       1       2.659329        251.7154
2011    4       2       2.726559        252.7048
2011    4       3       2.649324        251.2273
2011    4       4       2.442446        246.8622
2011    4       5       2.354963        244.2738
2011    4       6       2.361706        244.5866
2011    4       7       2.867637        254.4464
2011    5       0       2.799019        254.0763
2011    5       1       2.516582        249.3163
2011    5       2       2.261268        243.0698
2011    5       3       2.147758        239.5003
2011    5       4       2.055869        235.9823
2011    5       5       1.949163        231.7614
2011    5       6       1.864462        228.281
2011    5       7       1.961115        233.095
2011    6       0       1.940766        233.3
2011    6       1       2.10753         239.7446
2011    6       2       2.131309        240.0417
2011    6       3       2.287683        244.2772
2011    6       4       2.996388        257.0781
2011    6       5       3.01217         257.4847
2011    6       6       2.601771        250.8597
2011    6       7       2.76127         253.8115
2011    7       0       2.683073        252.3036
2011    7       1       2.525588        249.0304
2011    7       2       2.267141        242.4331
2011    7       3       1.988176        233.3239
2011    7       4       2.013912        233.8538
2011    7       5       1.998058        233.3183
2011    7       6       1.932421        231.4255
2011    7       7       2.265785        242.5248
2011    8       0       2.538774        249.1653
2011    8       1       2.381586        245.5325
2011    8       2       2.414946        246.4507
2011    8       3       2.17263         240.2589
2011    8       4       2.009099        235.0595
2011    8       5       1.972792        233.3661
2011    8       6       2.010562        234.5496
2011    8       7       2.451612        247.1665
2011    9       0       2.798864        254.1262
2011    9       1       2.475438        248.2687
2011    9       2       2.389596        246.2068
2011    9       3       2.315242        244.2123
2011    9       4       2.244385        241.7886
2011    9       5       2.157151        238.5301
2011    9       6       2.27384         241.305
2011    9       7       3.114792        257.0919
2011    10      0       3.093782        257.2455
2011    10      1       2.780218        252.2143
2011    10      2       2.92128         253.8173
2011    10      3       3.4315          259.9099
2011    10      4       3.446956        259.7025
2011    10      5       2.918852        252.6041
2011    10      6       2.851278        251.4297
2011    10      7       3.310966        257.8953
2011    11      0       3.279555        257.716
2011    11      1       3.145815        256.2153
2011    11      2       3.31829         258.5404
2011    11      3       3.166779        256.9632
2011    11      4       2.857546        252.741
2011    11      5       2.563958        247.3328
2011    11      6       2.284922        241.1108
2011    11      7       2.705536        250.7954
2011    12      0       2.86799         254.5957
2011    12      1       2.806364        254.3161
2011    12      2       2.588379        250.8407
2011    12      3       2.339458        245.6759
2011    12      4       1.988146        235.2034
2011    12      5       1.622019        219.7489
2011    12      6       1.631867        220.3736
2011    12      7       2.278301        244.5449
2011    13      0       2.940982        259.3073
2011    13      1       2.756358        257.349
2011    13      2       2.855786        259.8723
2011    13      3       2.816594        259.8849
2011    13      4       2.384459        250.2153
2011    13      5       2.09986         240.2917
2011    13      6       2.862919        258.4003
2011    13      7       3.633633        267.0184
2011    14      0       2.480169        252.107
2011    14      1       2.524224        252.6499
2011    14      2       1.970289        237.0336
2011    14      3       1.561841        217.1681
2011    14      4       1.341397        202.8927
2011    14      5       1.507853        213.1234
2011    14      6       1.892551        231.7874
2011    14      7       2.092046        239.2001
2011    15      0       2.758588        254.6006
2011    15      1       3.09428         259.4527
2011    15      2       3.314278        261.4196
2011    15      3       3.418023        262.4335
2011    15      4       3.480187        262.8253
2011    15      5       2.607884        250.0454
2011    15      6       2.389514        244.2893
2011    15      7       2.350539        242.6734
2011    16      0       2.277172        240.6306
2011    16      1       2.208978        238.7155
2011    16      2       2.000676        232.0386
2011    16      3       2.242787        240.3543
2011    16      4       2.603799        249.1877
2011    16      5       2.597847        249.4569
2011    16      6       2.32391         243.2062
2011    16      7       2.270555        241.4624
2011    17      0       2.43673         246.5661
2011    17      1       2.364848        244.993
2011    17      2       2.290552        242.7786
2011    17      3       2.191061        239.6414
2011    17      4       2.074609        235.512
2011    17      5       2.149596        237.2195
2011    17      6       2.20121         238.5495
2011    17      7       2.331115        241.7973
2011    18      0       2.877813        253.2688
2011    18      1       2.358703        242.617
2011    18      2       2.16666         237.5626
2011    18      3       2.003217        232.389
2011    18      4       1.828475        225.4904
2011    18      5       1.644201        216.3121
2011    18      6       1.567907        212.1454
2011    18      7       1.753124        221.6819
2011    19      0       1.932702        229.5973
2011    19      1       2.345612        242.8554
2011    19      2       2.37563         243.4416
2011    19      3       2.237783        239.3802
2011    19      4       2.205359        239.2025
2011    19      5       1.85284         226.9923
2011    19      6       1.727631        220.8022
2011    19      7       1.91485         228.4057
2011    20      0       2.022638        233.1001
2011    20      1       1.974062        231.5769
2011    20      2       1.723926        220.8941
2011    20      3       2.531803        249.2635
2011    20      4       3.034574        257.9103
2011    20      5       2.825442        254.5284
2011    20      6       1.688175        221.6857
2011    20      7       1.892046        229.5975
2011    21      0       2.074727        236.7303
2011    21      1       2.018549        235.3582
2011    21      2       2.281366        243.6237
2011    21      3       2.259598        243.6216
2011    21      4       2.045799        236.1308
2011    21      5       1.968567        233.405
2011    21      6       1.839718        228.4822
2011    21      7       1.932943        232.4723
2011    22      0       1.953609        233.8376
2011    22      1       1.962205        234.1624
2011    22      2       2.023566        236.064
2011    22      3       2.045209        236.358
2011    22      4       2.038482        235.1267
2011    22      5       1.992126        232.7904
2011    22      6       1.994581        232.4943
2011    22      7       2.103661        235.9916
2011    23      0       2.52072         247.3778
2011    23      1       2.789964        252.9067
2011    23      2       2.912728        254.9778
2011    23      3       2.663599        250.4326
2011    23      4       2.670792        250.1551
2011    23      5       3.340784        259.3479
2011    23      6       3.125327        256.6476
2011    23      7       2.970304        254.0927
2011    24      0       2.956987        253.1418
2011    24      1       2.489751        243.9415
2011    24      2       2.112793        233.5878
2011    24      3       2.162637        235.6442
2011    24      4       2.47549         244.433
2011    24      5       2.559249        246.4795
2011    24      6       2.771616        251.0379
2011    24      7       3.048875        255.5893
2011    25      0       3.019589        254.6281
2011    25      1       2.854192        252.113
2011    25      2       2.24422         238.866
2011    25      3       2.053325        232.8979
2011    25      4       2.012284        231.3829
2011    25      5       1.908464        227.2651
2011    25      6       1.974018        229.5314
2011    25      7       1.966678        228.9533
2011    26      0       2.360775        241.3903
2011    26      1       2.05854         232.2035
2011    26      2       1.915429        226.2605
2011    26      3       1.788226        220.8678
2011    26      4       1.776856        220.3221
2011    26      5       1.73964         218.5815
2011    26      6       1.69414         216.4719
2011    26      7       1.821137        221.8929
2011    27      0       2.035794        230.4464
2011    27      1       1.975251        228.1082
2011    27      2       1.739686        218.1149
2011    27      3       1.701492        215.9884
2011    27      4       1.659292        213.4204
2011    27      5       1.706525        215.1888
2011    27      6       1.586553        209.0241
2011    27      7       1.831377        220.5847
2011    28      0       1.832949        220.6522
2011    28      1       1.778904        218.2904
2011    28      2       1.882727        222.8151
2011    28      3       1.982828        226.7877
2011    28      4       1.815466        220.0569
2011    28      5       1.831889        220.6659
2011    28      6       1.576827        208.3451
2011    28      7       1.781353        218.7523
2011    29      0       1.613601        210.9077
2011    29      1       1.522945        205.8028
2011    29      2       1.443974        201.1927
2011    29      3       1.418544        199.7806
2011    29      4       1.420971        199.7146
2011    29      5       1.372822        196.4415
2011    29      6       1.253088        188.3322
2011    29      7       1.424177        200.2547
2011    30      0       1.508894        205.9207
2011    30      1       1.547632        208.0861
2011    30      2       1.539558        207.6822
2011    30      3       1.521802        206.6114
2011    30      4       1.561121        208.5948
2011    30      5       1.595145        210.0047
2011    30      6       1.510793        205.1198
2011    30      7       1.523553        205.8987
2012    1       0       3.059195        258.0652
2012    1       1       2.823507        254.9371
2012    1       2       2.723204        253.5924
2012    1       3       2.75943         254.5261
2012    1       4       2.61259         252.3333
2012    1       5       2.951566        258.3834
2012    1       6       3.537198        264.824
2012    1       7       3.781594        266.7032
2012    2       0       4.487391        269.8171
2012    2       1       3.707832        264.876
2012    2       2       3.457415        262.0516
2012    2       3       3.210217        259.643
2012    2       4       3.87943         265.1399
2012    2       5       3.781491        264.1671
2012    2       6       3.195239        258.7449
2012    2       7       3.001007        256.2483
2012    3       0       2.478469        247.5785
2012    3       1       2.362877        244.9913
2012    3       2       2.187466        240.3055
2012    3       3       2.340155        245.0891
2012    3       4       2.505214        249.5636
2012    3       5       2.585252        251.9565
2012    3       6       2.794394        256.3927
2012    3       7       3.35707         263.1776
2012    4       0       3.089213        260.256
2012    4       1       2.911987        258.1249
2012    4       2       3.086243        259.6953
2012    4       3       3.211501        260.6442
2012    4       4       2.182268        239.409
2012    4       5       2.047178        235.2105
2012    4       6       2.065061        235.8541
2012    4       7       2.34644         244.2357
2012    5       0       2.399212        246.9207
2012    5       1       2.837178        255.1968
2012    5       2       2.709571        253.2596
2012    5       3       2.752701        253.4747
2012    5       4       2.72458         252.3813
2012    5       5       1.959314        232.4219
2012    5       6       2.031104        234.129
2012    5       7       2.459376        245.8545
2012    6       0       2.336877        242.857
2012    6       1       2.459923        245.9291
2012    6       2       2.695765        249.5787
2012    6       3       2.261518        239.3812
2012    6       4       2.271215        239.2881
2012    6       5       2.375893        241.7856
2012    6       6       2.147382        234.623
2012    6       7       2.640403        246.5006
2012    7       0       2.58809         245.6164
2012    7       1       1.977334        228.5332
2012    7       2       1.895975        225.2052
2012    7       3       1.762659        219.6026
2012    7       4       1.718013        217.2546
2012    7       5       1.757345        219.0136
2012    7       6       2.562926        244.5866
2012    7       7       2.12688         232.7923
2012    8       0       2.113586        232.416
2012    8       1       2.070634        230.9466
2012    8       2       1.878669        224.2387
2012    8       3       1.857134        223.4756
2012    8       4       1.914603        225.5754
2012    8       5       1.855265        222.8462
2012    8       6       2.008233        228.634
2012    8       7       1.925787        225.881
2012    9       0       2.022307        229.3424
2012    9       1       2.116451        233.0841
2012    9       2       1.792316        220.7704
2012    9       3       1.421149        200.6807
2012    9       4       1.175849        183.0116
2012    9       5       1.154782        181.4492
2012    9       6       1.310881        193.388
2012    9       7       2.143436        233.588
2012    10      0       1.659125        214.0799
2012    10      1       1.618396        211.7205
2012    10      2       1.484179        203.8515
2012    10      3       1.481291        203.1079
2012    10      4       1.435587        200.0278
2012    10      5       1.366053        195.1867
2012    10      6       1.77831         217.4905
2012    10      7       1.971679        225.5576
2012    11      0       1.838413        220.7971
2012    11      1       1.903274        223.7023
2012    11      2       1.890676        223.3031
2012    11      3       1.760854        217.8049
2012    11      4       1.309441        192.0186
2012    11      5       1.171673        181.79
2012    11      6       1.133097        178.7763
2012    11      7       1.312047        193.0648
2012    12      0       1.309517        193.7634
2012    12      1       1.315883        194.6103
2012    12      2       1.283652        192.6077
2012    12      3       1.161293        183.5968
2012    12      4       1.119962        180.0909
2012    12      5       1.064988        175.1833
2012    12      6       1.025533        171.4237
2012    12      7       1.124519        180.3123
2012    13      0       1.134526        181.3691
2012    13      1       1.197697        186.3817
2012    13      2       1.246406        189.8685
2012    13      3       1.227886        188.1302
2012    13      4       1.289767        192.1266
2012    13      5       1.341317        195.3897
2012    13      6       1.283281        191.7428
2012    13      7       1.259903        190.4598
2012    14      0       1.261791        190.7973
2012    14      1       1.254634        190.3446
2012    14      2       1.253108        189.818
2012    14      3       1.268877        190.1844
2012    14      4       1.206202        185.1872
2012    14      5       1.197884        184.3668
2012    14      6       1.341884        195.367
2012    14      7       1.925833        226.5073
2012    15      0       2.361538        240.3866
2012    15      1       1.757467        219.7805
2012    15      2       1.877804        225.3063
2012    15      3       2.227218        238.1017
2012    15      4       2.080231        233.6146
2012    15      5       1.935349        228.9136
2012    15      6       2.237644        239.0179
2012    15      7       2.591573        247.8381
2012    16      0       2.549814        247.1115
2012    16      1       2.514718        246.835
2012    16      2       2.54257         248.087
2012    16      3       2.625528        249.7335
2012    16      4       2.792466        253.2027
2012    16      5       2.97421         257.293
2012    16      6       3.271068        262.7159
2012    16      7       3.667726        267.402
2012    17      0       3.406664        265.2251
2012    17      1       3.046994        259.8296
2012    17      2       1.819481        226.3527
2012    17      3       1.953401        228.6617
2012    17      4       1.86967         225.8187
2012    17      5       1.872097        225.8997
2012    17      6       1.881763        225.5665
2012    17      7       1.651704        215.2531
2012    18      0       1.617047        213.1127
2012    18      1       1.574335        211.0899
2012    18      2       1.540862        209.1973
2012    18      3       1.575611        210.8341
2012    18      4       1.583037        212.3259
2012    18      5       1.65749         216.4189
2012    18      6       2.004551        231.5382
2012    18      7       2.098519        234.4006
2012    19      0       2.089908        234.4304
2012    19      1       1.785022        223.6143
2012    19      2       1.724623        221.1415
2012    19      3       1.930139        229.9784
2012    19      4       2.260868        240.9293
2012    19      5       2.505499        246.9821
2012    19      6       3.000496        256.7187
2012    19      7       3.230181        260.2637
2012    20      0       3.591641        265.0144
2012    20      1       4.057413        269.581
2012    20      2       4.382156        271.0904
2012    20      3       3.50648         266.8833
2012    20      4       3.576744        266.866
2012    20      5       3.621995        266.4492
2012    20      6       3.796594        267.6101
2012    20      7       3.794757        267.9392
2012    21      0       4.027669        269.4947
2012    21      1       4.537133        272.7692
2012    21      2       4.471743        273.8386
2012    21      3       3.772805        270.1686
2012    21      4       3.763634        268.312
2012    21      5       3.337603        263.7163
2012    21      6       1.966571        234.5587
2012    21      7       2.105667        239.6041
2012    22      0       2.07324         238.8659
2012    22      1       1.979765        236.7968
2012    22      2       3.341119        267.0372
2012    22      3       3.76648         271.6313
2012    22      4       3.44957         269.6233
2012    22      5       3.073975        265.5955
2012    22      6       2.731467        260.4873
2012    22      7       2.806557        261.8169
2012    23      0       2.673314        260.1481
2012    23      1       2.555868        256.6616
2012    23      2       2.898008        261.5353
2012    23      3       3.467456        266.4311
2012    23      4       3.16302         261.9159
2012    23      5       1.988655        236.5813
2012    23      6       2.170147        241.9472
2012    23      7       1.967139        234.3873
2012    24      0       2.060695        237.2861
2012    24      1       2.263441        242.5655
2012    24      2       2.3225          243.3145
2012    24      3       3.223655        258.5834
2012    24      4       1.953903        229.0985
2012    24      5       1.91142         225.9676
2012    24      6       1.831666        222.7941
2012    24      7       1.880087        224.9641
2012    25      0       2.075144        233.1143
2012    25      1       1.881119        227.4555
2012    25      2       1.884605        229.0476
2012    25      3       1.815522        227.1608
2012    25      4       1.496544        211.2055
2012    25      5       1.235223        193.0737
2012    25      6       1.40061         203.4833
2012    25      7       1.589475        214.1641
2012    26      0       2.161083        238.4431
2012    26      1       2.01541         233.9345
2012    26      2       2.032258        234.4612
2012    26      3       2.32486         242.6843
2012    26      4       2.67044         250.0706
2012    26      5       2.54665         246.9617
2012    26      6       2.01331         231.6847
2012    26      7       1.558139        211.4995
2012    27      0       1.701466        220.2281
2012    27      1       1.203306        189.1977
2012    27      2       1.260314        192.7478
2012    27      3       1.669317        218.0826
2012    27      4       1.726504        219.6818
2012    27      5       2.419086        243.3572
2012    27      6       2.584208        247.1431
2012    27      7       2.197723        237.0961
2012    28      0       1.867709        226.4155
2012    28      1       2.040608        233.1363
2012    28      2       1.831976        224.7963
2012    28      3       1.569339        212.2742
2012    28      4       1.535606        210.4844
2012    28      5       1.7142          219.7299
2012    28      6       1.685203        218.3162
2012    28      7       1.755718        221.3652
2012    29      0       1.834611        225.0509
2012    29      1       1.814806        223.7868
2012    29      2       1.731506        219.4265
2012    29      3       1.471345        205.2509
2012    29      4       1.30557         194.1413
2012    29      5       1.306752        193.8441
2012    29      6       1.282506        191.8463
2012    29      7       1.23212         188.3049
2012    30      0       1.394165        199.2692
2012    30      1       1.40768         199.8744
2012    30      2       1.568105        208.7707
2012    30      3       1.591979        209.5194
2012    30      4       1.412212        198.9363
2012    30      5       1.22735         185.6547
2012    30      6       1.071998        172.6184
2012    30      7       1.002944        165.9211
2013    1       0       1.928766        225.5329
2013    1       1       1.734186        217.4751
2013    1       2       1.366249        196.3164
2013    1       3       1.204002        184.3757
2013    1       4       1.193601        183.3398
2013    1       5       1.211828        184.8236
2013    1       6       1.358346        196.8045
2013    1       7       1.867177        225.2488
2013    2       0       2.294505        240.6504
2013    2       1       2.835988        253.5059
2013    2       2       3.118879        258.0731
2013    2       3       3.176964        259.1499
2013    2       4       3.580413        264.5392
2013    2       5       3.818417        267.0431
2013    2       6       4.091189        269.3718
2013    2       7       4.530857        272.2041
2013    3       0       4.09754         271.4699
2013    3       1       4.039736        272.1311
2013    3       2       4.079681        271.7354
2013    3       3       3.676893        268.2136
2013    3       4       3.12895         263.5716
2013    3       5       2.836199        258.9514
2013    3       6       3.303313        263.8989
2013    3       7       3.145904        262.3388
2013    4       0       3.226882        265.0471
2013    4       1       3.73057         267.6726
2013    4       2       2.994029        260.5486
2013    4       3       2.946551        258.1508
2013    4       4       2.223765        242.1875
2013    4       5       2.149949        239.9067
2013    4       6       2.461338        248.3047
2013    4       7       3.16439         259.3253
2013    5       0       2.735687        252.7917
2013    5       1       2.789165        252.6112
2013    5       2       2.467504        246.4141
2013    5       3       2.500242        247.8434
2013    5       4       2.569111        248.8352
2013    5       5       2.063291        234.3666
2013    5       6       1.681581        218.1059
2013    5       7       2.456877        245.2104
2013    6       0       2.451086        245.5928
2013    6       1       2.362284        244.1598
2013    6       2       2.510578        247.3429
2013    6       3       2.348607        243.0126
2013    6       4       2.030639        233.6144
2013    6       5       1.875237        227.9701
2013    6       6       1.915105        230.6967
2013    6       7       2.708909        252.6945
2013    7       0       3.624067        264.8126
2013    7       1       3.957587        268.2682
2013    7       2       3.443574        265.8857
2013    7       3       2.984082        260.7395
2013    7       4       2.604134        252.9749
2013    7       5       2.536621        250.9701
2013    7       6       2.612072        252.1752
2013    7       7       2.817396        255.925
2013    8       0       3.243774        262.2494
2013    8       1       3.314557        262.9802
2013    8       2       3.340352        263.407
2013    8       3       3.447342        264.2646
2013    8       4       3.583255        265.0702
2013    8       5       3.904222        267.0993
2013    8       6       4.062464        268.2497
2013    8       7       4.600861        270.5144
2013    9       0       4.258895        269.091
2013    9       1       4.045848        267.566
2013    9       2       3.928833        266.5021
2013    9       3       3.164067        259.2388
2013    9       4       2.485756        247.9587
2013    9       5       1.725266        223.0536
2013    9       6       1.587954        216.1459
2013    9       7       2.081971        237.6802
2013    10      0       2.311756        244.6185
2013    10      1       2.239862        242.208
2013    10      2       2.430399        247.6864
2013    10      3       2.483272        249.2985
2013    10      4       2.403745        248.1055
2013    10      5       2.359972        247.0899
2013    10      6       2.440929        249.2158
2013    10      7       2.586148        252.7063
2013    11      0       2.915248        258.8715
2013    11      1       2.803934        256.8512
2013    11      2       2.740705        255.4424
2013    11      3       2.478888        250.7381
2013    11      4       2.409837        249.2206
2013    11      5       2.618134        253.0326
2013    11      6       3.531386        265.0998
2013    11      7       3.649521        265.537
2013    12      0       3.390717        263.2428
2013    12      1       3.606784        264.453
2013    12      2       3.795213        264.5467
2013    12      3       3.532148        262.498
2013    12      4       2.893802        255.6338
2013    12      5       1.828341        227.3202
2013    12      6       1.842872        228.3597
2013    12      7       2.272586        243.2201
2013    13      0       2.281376        244.3528
2013    13      1       2.25328         244.0097
2013    13      2       2.414988        247.7168
2013    13      3       2.451829        248.9218
2013    13      4       2.32968         246.2429
2013    13      5       2.364677        246.3852
2013    13      6       2.19255         241.0697
2013    13      7       2.465173        247.4349
2013    14      0       2.623918        250.1877
2013    14      1       2.508752        247.9513
2013    14      2       2.714661        252.5356
2013    14      3       2.772654        253.0763
2013    14      4       3.033785        257.0579
2013    14      5       3.791728        264.2724
2013    14      6       3.253393        259.3993
2013    14      7       2.994538        256.1411
2013    15      0       2.242158        240.8459
2013    15      1       1.598452        214.6376
2013    15      2       1.344719        198.78
2013    15      3       1.043728        175.2173
2013    15      4       0.8725859       157.9407
2013    15      5       0.8876258       159.2399
2013    15      6       0.963099        166.7593
2013    15      7       1.176215        185.8448
2013    16      0       1.254006        192.2162
2013    16      1       1.231422        190.6194
2013    16      2       0.914042        162.2382
2013    16      3       0.7894051       148.4286
2013    16      4       0.7743279       146.7015
2013    16      5       0.602929        124.1417
2013    16      6       0.4568026       101.4026
2013    16      7       0.5177724       111.331
2013    17      0       1.030306        173.6403
2013    17      1       0.9973117       170.0672
2013    17      2       0.7760653       146.3881
2013    17      3       1.175682        186.7157
2013    17      4       1.687621        218.9404
2013    17      5       1.909857        227.8938
2013    17      6       2.113957        234.7383
2013    17      7       2.381107        240.7409
2013    18      0       2.3102          239.2088
2013    18      1       2.197558        236.937
2013    18      2       2.496302        245.172
2013    18      3       2.674356        248.7776
2013    18      4       2.683771        248.8171
2013    18      5       2.55089         245.7341
2013    18      6       2.453034        243.2337
2013    18      7       2.542653        244.9384
2013    19      0       2.587352        245.0716
2013    19      1       2.134674        232.9427
2013    19      2       1.696265        215.66
2013    19      3       1.592687        210.2508
2013    19      4       1.799296        220.0519
2013    19      5       2.137962        232.6798
2013    19      6       2.13072         232.0881
2013    19      7       2.083207        230.0737
2013    20      0       2.069675        229.6604
2013    20      1       1.93208         224.1754
2013    20      2       1.732146        215.2924
2013    20      3       1.456207        200.8568
2013    20      4       1.413827        198.1508
2013    20      5       1.407162        197.5679
2013    20      6       1.424169        198.3854
2013    20      7       1.386612        196.7653
2013    21      0       1.340425        194.2195
2013    21      1       1.232321        186.6297
2013    21      2       1.121135        177.784
2013    21      3       1.05186         171.8883
2013    21      4       1.158745        181.4893
2013    21      5       1.298042        192.3568
2013    21      6       1.424513        200.9675
2013    21      7       1.663385        214.7666
2013    22      0       1.761662        219.8062
2013    22      1       1.91854         226.3334
2013    22      2       2.186044        235.3187
2013    22      3       2.376062        240.0906
2013    22      4       2.111059        231.9938
2013    22      5       1.942268        225.8085
2013    22      6       2.032899        229.3994
2013    22      7       2.296384        237.5267
2013    23      0       2.344004        238.2366
2013    23      1       2.056394        229.0034
2013    23      2       1.750928        217.15
2013    23      3       1.709616        215.5741
2013    23      4       1.617697        210.909
2013    23      5       1.531779        206.0885
2013    23      6       1.461237        202.6802
2013    23      7       1.827188        224.0089
2013    24      0       1.834412        225.4611
2013    24      1       1.7792          224.0612
2013    24      2       1.571862        212.0501
2013    24      3       1.50145         206.7031
2013    24      4       1.340853        195.8501
2013    24      5       1.034151        172.5014
2013    24      6       0.7491227       143.5138
2013    24      7       0.7130714       136.7018
2013    25      0       0.7920307       146.9115
2013    25      1       0.8111397       149.9085
2013    25      2       0.9808056       168.6071
2013    25      3       1.342022        198.9256
2013    25      4       2.082989        236.4416
2013    25      5       2.440161        246.8757
2013    25      6       2.982844        256.4667
2013    25      7       3.09807         257.7672
2013    26      0       2.924463        254.8978
2013    26      1       2.203982        240.8965
2013    26      2       2.445093        246.0964
2013    26      3       2.274974        241.1728
2013    26      4       2.260076        240.4669
2013    26      5       2.342384        242.3017
2013    26      6       2.403197        243.4419
2013    26      7       2.533996        246.3993
2013    27      0       2.616027        248.5765
2013    27      1       2.239993        239.5199
2013    27      2       2.221248        239.172
2013    27      3       2.264222        240.3295
2013    27      4       2.098999        235.4146
2013    27      5       1.947725        229.9409
2013    27      6       1.82836         225.0459
2013    27      7       1.768764        222.4177
2013    28      0       1.909746        228.972
2013    28      1       1.831813        225.8285
2013    28      2       1.751892        221.643
2013    28      3       1.690095        218.1294
2013    28      4       1.770615        221.3883
2013    28      5       1.853687        224.5487
2013    28      6       1.915408        227.3379
2013    28      7       2.148893        235.7388
2013    29      0       2.378677        242.3822
2013    29      1       2.616639        247.2334
2013    29      2       2.549522        245.6045
2013    29      3       2.281655        239.0304
2013    29      4       2.167464        235.712
2013    29      5       2.066848        232.2212
2013    29      6       2.031165        230.6256
2013    29      7       2.359324        239.7208
2013    30      0       2.286192        238.0168
2013    30      1       2.234984        235.9347
2013    30      2       2.096538        231.2052
2013    30      3       1.77846         219.5802
2013    30      4       1.85882         223.5457
2013    30      5       2.084223        231.8895
2013    30      6       2.090702        232.439
2013    30      7       2.015026        230.018
2014    1       0       1.441993        202.4418
2014    1       1       1.439667        202.6166
2014    1       2       1.536588        208.135
2014    1       3       1.505881        206.5391
2014    1       4       1.428362        202.362
2014    1       5       1.414911        201.4207
2014    1       6       1.520756        207.8752
2014    1       7       1.873761        224.5531
2014    2       0       2.222615        237.4345
2014    2       1       3.461966        261.0951
2014    2       2       3.919621        265.4632
2014    2       3       3.801431        264.6137
2014    2       4       4.224679        266.8582
2014    2       5       3.431487        260.3649
2014    2       6       2.668892        248.2494
2014    2       7       2.11815         233.5007
2014    3       0       1.823881        222.4121
2014    3       1       1.776287        220.0033
2014    3       2       1.663406        214.0897
2014    3       3       1.49901         204.9785
2014    3       4       1.293569        191.2144
2014    3       5       1.816676        219.8606
2014    3       6       1.929908        224.0095
2014    3       7       1.50939         204.7972
2014    4       0       1.414378        199.4347
2014    4       1       1.396364        198.5212
2014    4       2       1.307489        192.9157
2014    4       3       1.153496        181.502
2014    4       4       0.9852645       166.6214
2014    4       5       0.8036121       147.317
2014    4       6       0.6784301       131.2633
2014    4       7       1.029365        170.4738
2014    5       0       1.344489        196.1327
2014    5       1       1.327761        195.4149
2014    5       2       1.190212        185.4935
2014    5       3       1.057083        174.3785
2014    5       4       0.8641188       155.0569
2014    5       5       0.8196673       150.1701
2014    5       6       1.127071        181.2068
2014    5       7       1.3974          201.1685
2014    6       0       1.59285         212.6037
2014    6       1       1.396471        201.0267
2014    6       2       1.137627        182.0874
2014    6       3       1.028299        172.5729
2014    6       4       1.032106        172.7105
2014    6       5       1.016254        170.9256
2014    6       6       0.9772801       167.0878
2014    6       7       1.023711        171.3763
2014    7       0       1.261748        191.2384
2014    7       1       1.289515        193.3732
2014    7       2       1.211139        187.2099
2014    7       3       0.9626095       165.2559
2014    7       4       0.8865188       157.6678
2014    7       5       0.7868929       146.3333
2014    7       6       0.6710387       132.2341
2014    7       7       0.9336587       164.1797
2014    8       0       0.9768984       169.6487
2014    8       1       0.971019        169.5509
2014    8       2       1.007265        173.1267
2014    8       3       1.243943        193.8191
2014    8       4       1.546303        214.0776
2014    8       5       1.615379        217.9695
2014    8       6       1.649778        220.0566
2014    8       7       1.762605        225.6131
2014    9       0       1.933268        233.7602
2014    9       1       1.987443        236.1358
2014    9       2       1.915793        233.3379
2014    9       3       1.878542        231.6
2014    9       4       1.906679        232.0955
2014    9       5       1.966482        233.649
2014    9       6       2.038734        235.7295
2014    9       7       2.293585        243.5074
2014    10      0       2.6063          251.4066
2014    10      1       2.690296        253.5248
2014    10      2       2.979817        258.3088
2014    10      3       3.175258        260.7175
2014    10      4       3.448107        263.4553
2014    10      5       3.83693         266.8766
2014    10      6       3.331943        262.5231
2014    10      7       3.326344        262.2838
2014    11      0       3.602095        265.2329
2014    11      1       3.545488        264.881
2014    11      2       3.365076        263.2634
2014    11      3       3.298121        262.3953
2014    11      4       3.296006        262.2748
2014    11      5       3.096597        259.5579
2014    11      6       2.821453        255.7413
2014    11      7       3.029277        258.8501
2014    12      0       3.070981        260.6174
2014    12      1       3.011857        260.4031
2014    12      2       2.815434        257.6294
2014    12      3       2.547053        252.7281
2014    12      4       2.395302        249.1612
2014    12      5       2.116426        241.5227
2014    12      6       2.129804        242.0691
2014    12      7       3.333345        264.2938
2014    13      0       4.056206        269.8895
2014    13      1       3.925029        270.0967
2014    13      2       3.972455        271.2698
2014    13      3       4.143153        272.8026
2014    13      4       3.963836        272.5083
2014    13      5       4.009533        272.9519
2014    13      6       4.066961        273.4609
2014    13      7       4.054937        273.0955
2014    14      0       4.291466        273.9018
2014    14      1       3.791413        271.6754
2014    14      2       3.399984        268.4977
2014    14      3       3.390177        268.1124
2014    14      4       3.624181        268.7816
2014    14      5       3.625969        267.403
2014    14      6       3.252134        264.6479
2014    14      7       3.11519         263.805
2014    15      0       3.425401        267.4301
2014    15      1       3.068086        263.9789
2014    15      2       2.571451        256.1989
2014    15      3       1.817101        231.5585
2014    15      4       2.410287        252.1121
2014    15      5       3.333694        266.7199
2014    15      6       3.644879        268.8922
2014    15      7       3.228649        264.9134
2014    16      0       3.25692         263.0664
2014    16      1       2.618759        254.1043
2014    16      2       2.563153        252.1975
2014    16      3       2.504343        250.1946
2014    16      4       2.45283         248.418
2014    16      5       2.515047        249.0686
2014    16      6       2.554127        249.6845
2014    16      7       2.832787        254.507
2014    17      0       2.861474        254.7633
2014    17      1       2.840261        254.651
2014    17      2       2.524119        249.652
2014    17      3       2.277607        243.4884
2014    17      4       2.257893        242.4915
2014    17      5       2.249651        242.3703
2014    17      6       2.220746        241.3801
2014    17      7       2.484509        248.4751
2014    18      0       2.577625        251.3465
2014    18      1       2.558843        250.567
2014    18      2       2.452213        247.7986
2014    18      3       2.295078        244.3432
2014    18      4       2.144645        239.9106
2014    18      5       2.058808        237.0185
2014    18      6       2.009186        236.0218
2014    18      7       2.163569        241.8313
2014    19      0       2.324223        247.6132
2014    19      1       2.302083        247.1548
2014    19      2       2.088393        240.0984
2014    19      3       2.017836        237.7521
2014    19      4       2.168764        243.0221
2014    19      5       2.398373        249.5029
2014    19      6       2.538851        252.7731
2014    19      7       2.762877        256.9061
2014    20      0       3.026592        260.6138
2014    20      1       3.186389        261.3974
2014    20      2       3.016183        258.9339
2014    20      3       2.788991        255.3897
2014    20      4       2.532832        249.791
2014    20      5       2.819668        254.6953
2014    20      6       2.94718         256.1976
2014    20      7       2.926261        255.3067
2014    21      0       2.811004        253.3799
2014    21      1       3.306207        259.4409
2014    21      2       3.283138        258.9596
2014    21      3       2.58126         247.8338
2014    21      4       2.482477        245.4625
2014    21      5       2.354909        241.8695
2014    21      6       2.300169        240.0525
2014    21      7       2.354607        240.9402
2014    22      0       2.296968        239.0437
2014    22      1       2.241311        236.947
2014    22      2       1.958411        227.3059
2014    22      3       1.687697        215.5876
2014    22      4       1.525152        207.005
2014    22      5       1.36376         196.8925
2014    22      6       1.261867        189.8006
2014    22      7       1.977045        227.6408
2014    23      0       1.805548        221.2105
2014    23      1       1.298088        193.1118
2014    23      2       1.159747        186.8472
2014    23      3       1.195011        184.4031
2014    23      4       1.459051        203.4373
2014    23      5       1.686104        215.583
2014    23      6       1.660793        213.9216
2014    23      7       1.739808        217.5784
2014    24      0       2.292897        237.8535
2014    24      1       1.953336        225.8162
2014    24      2       1.559911        207.0057
2014    24      3       1.220451        184.8313
2014    24      4       0.7730493       142.4002
2014    24      5       0.6398598       125.3929
2014    24      6       0.7773868       142.2175
2014    24      7       1.252929        187.2196
2014    25      0       1.368815        196.0819
2014    25      1       1.593674        209.7617
2014    25      2       1.517287        205.3023
2014    25      3       1.298079        191.5646
2014    25      4       1.003202        167.5651
2014    25      5       0.9919927       166.2846
2014    25      6       0.9450157       161.9255
2014    25      7       0.895117        157.1578
2014    26      0       1.092165        176.7971
2014    26      1       1.044959        172.8191
2014    26      2       0.926039        161.7313
2014    26      3       0.9075217       160.4487
2014    26      4       0.9376504       163.6031
2014    26      5       0.8697192       156.1809
2014    26      6       0.87244         155.9825
2014    26      7       0.9579122       164.5338
2014    27      0       0.9905032       168.2687
2014    27      1       0.965949        166.482
2014    27      2       1.171252        185.5113
2014    27      3       1.433655        204.5358
2014    27      4       1.5272          209.9979
2014    27      5       1.687319        218.3851
2014    27      6       1.657863        217.0427
2014    27      7       1.755428        221.7543
2014    28      0       1.831971        225.2848
2014    28      1       1.545971        211.2697
2014    28      2       1.445332        205.51
2014    28      3       1.40408         203.1283
2014    28      4       1.344199        199.5114
2014    28      5       1.20466         189.4892
2014    28      6       1.241176        192.4271
2014    28      7       1.362401        200.4234
2014    29      0       1.543841        211.7105
2014    29      1       1.620193        215.6771
2014    29      2       1.581064        212.7999
2014    29      3       1.426749        202.1232
2014    29      4       1.329745        195.0901
2014    29      5       2.193514        235.0015
2014    29      6       1.534453        207.0094
2014    29      7       1.547942        207.0533
2014    30      0       1.399381        197.8858
2014    30      1       1.341436        193.7749
2014    30      2       1.675034        212.2984
2014    30      3       1.931051        222.8021
2014    30      4       1.807748        217.2645
2014    30      5       1.690134        211.9683
2014    30      6       1.670472        211.3774
2014    30      7       2.039552        226.5499
2015    1       0       1.632344        213.1459
2015    1       1       1.594441        211.3338
2015    1       2       1.427164        201.5983
2015    1       3       1.369289        197.9816
2015    1       4       1.483078        205.2706
2015    1       5       1.608128        212.4767
2015    1       6       1.601256        212.7051
2015    1       7       1.890167        226.685
2015    2       0       1.986696        235.7586
2015    2       1       1.946389        235.7418
2015    2       2       1.626861        220.3185
2015    2       3       1.54866         211.6041
2015    2       4       1.422866        208.3291
2015    2       5       1.449898        210.6077
2015    2       6       1.525258        210.4632
2015    2       7       1.773406        223.4365
2015    3       0       1.925531        231.4521
2015    3       1       2.054224        236.8433
2015    3       2       2.245019        242.5483
2015    3       3       2.393344        246.0289
2015    3       4       2.433889        247.037
2015    3       5       2.445745        247.5438
2015    3       6       2.387593        246.2695
2015    3       7       2.284472        244.1719
2015    4       0       2.249336        244.4843
2015    4       1       2.191894        243.2326
2015    4       2       2.144264        241.628
2015    4       3       1.91237         233.2365
2015    4       4       1.827264        229.4869
2015    4       5       1.857398        230.5558
2015    4       6       1.914289        232.7004
2015    4       7       2.356955        246.46
2015    5       0       2.532429        251.0039
2015    5       1       2.567033        251.8947
2015    5       2       2.405384        247.5734
2015    5       3       2.055091        237.1109
2015    5       4       1.914254        231.8049
2015    5       5       1.787096        226.2537
2015    5       6       1.711908        222.0527
2015    5       7       1.987042        233.1381
2015    6       0       1.798069        226.3083
2015    6       1       1.756564        224.6941
2015    6       2       1.732157        223.3638
2015    6       3       1.618777        217.415
2015    6       4       1.390383        203.8239
2015    6       5       1.197541        189.634
2015    6       6       1.078456        179.4928
2015    6       7       1.420915        205.9491
2015    7       0       1.444908        207.9472
2015    7       1       1.51591         212.2148
2015    7       2       1.581358        215.6305
2015    7       3       1.601879        216.7161
2015    7       4       1.627856        217.9094
2015    7       5       1.643984        218.4039
2015    7       6       1.591291        215.2688
2015    7       7       1.847954        227.4121
2015    8       0       2.065989        236.0895
2015    8       1       2.211404        240.3822
2015    8       2       2.33562         243.7175
2015    8       3       2.491503        247.6793
2015    8       4       2.471414        247.2806
2015    8       5       2.495683        247.7712
2015    8       6       2.889608        254.7727
2015    8       7       3.303978        260.0107
2015    9       0       3.393249        261.4603
2015    9       1       2.911171        255.3124
2015    9       2       2.984259        256.4601
2015    9       3       3.002672        256.2843
2015    9       4       2.946571        255.4436
2015    9       5       2.537879        248.3317
2015    9       6       2.25152         240.9681
2015    9       7       2.627757        249.5912
2015    10      0       2.552463        248.1448
2015    10      1       2.053172        235.1914
2015    10      2       2.069312        236.1864
2015    10      3       1.908918        230.7847
2015    10      4       1.966274        232.1346
2015    10      5       2.285755        241.7733
2015    10      6       2.718302        251.4548
2015    10      7       2.188498        239.6718
2015    11      0       2.176238        239.2893
2015    11      1       2.139626        237.9775
2015    11      2       2.182106        238.9899
2015    11      3       2.047461        234.4775
2015    11      4       1.37471         199.6689
2015    11      5       1.220404        188.3873
2015    11      6       1.354003        197.4726
2015    11      7       1.758337        219.415
2015    12      0       1.903383        226.5123
2015    12      1       1.901971        226.8607
2015    12      2       1.922042        227.4988
2015    12      3       1.880842        225.6771
2015    12      4       1.758122        222.0514
2015    12      5       1.789397        223.1722
2015    12      6       1.764375        221.3963
2015    12      7       2.107232        233.7105
2015    13      0       2.178439        235.3029
2015    13      1       1.545938        208.3256
2015    13      2       1.282332        191.083
2015    13      3       1.069122        174.0425
2015    13      4       1.173798        182.0424
2015    13      5       1.507055        204.8751
2015    13      6       1.492109        203.4974
2015    13      7       2.034914        228.5711
2015    14      0       1.829124        221.1808
2015    14      1       2.011766        227.852
2015    14      2       2.026062        228.4719
2015    14      3       2.083523        230.4948
2015    14      4       2.145149        232.5839
2015    14      5       2.224695        236.5422
2015    14      6       2.30373         238.839
2015    14      7       2.37265         240.3747
2015    15      0       2.440886        242.1321
2015    15      1       2.384245        240.9326
2015    15      2       2.165515        234.9233
2015    15      3       2.136716        234.043
2015    15      4       1.917332        226.1832
2015    15      5       1.539286        208.3914
2015    15      6       1.332032        195.598
2015    15      7       1.373805        198.2696
2015    16      0       1.395536        199.301
2015    16      1       1.608762        211.3512
2015    16      2       1.53651         207.419
2015    16      3       1.704787        216.2977
2015    16      4       1.98735         228.867
2015    16      5       2.066131        232.2316
2015    16      6       2.042357        231.4471
2015    16      7       1.836894        223.6964
2015    17      0       1.978414        229.7668
2015    17      1       1.936984        228.3136
2015    17      2       1.830703        224.2984
2015    17      3       1.938845        228.9636
2015    17      4       2.044608        232.6847
2015    17      5       2.021711        231.809
2015    17      6       2.103741        234.4685
2015    17      7       2.221686        237.7953
2015    18      0       2.568714        246.3706
2015    18      1       2.314352        240.2982
2015    18      2       2.350062        240.9111
2015    18      3       2.245419        237.743
2015    18      4       2.153765        234.8233
2015    18      5       2.11556         233.4466
2015    18      6       2.130933        233.8255
2015    18      7       2.08628         232.5338
2015    19      0       2.163936        235.1402
2015    19      1       1.966977        228.1784
2015    19      2       1.801618        221.173
2015    19      3       1.781542        220.0926
2015    19      4       1.782464        219.8903
2015    19      5       1.679204        214.6859
2015    19      6       1.612944        210.795
2015    19      7       1.914138        224.2649
2015    20      0       1.973919        226.6462
2015    20      1       1.737265        216.9019
2015    20      2       1.561825        207.9301
2015    20      3       1.515284        205.3373
2015    20      4       1.474269        203.04
2015    20      5       1.469548        202.6756
2015    20      6       1.500799        204.1404
2015    20      7       1.87687         222.3892
2015    21      0       1.74829         216.9975
2015    21      1       1.615897        210.4423
2015    21      2       1.467508        202.3891
2015    21      3       1.389334        197.5196
2015    21      4       1.390107        197.3611
2015    21      5       1.43926         200.1079
2015    21      6       1.524436        204.6837
2015    21      7       1.511608        203.9168
2015    22      0       1.53027         205.2121
2015    22      1       1.691541        213.7812
2015    22      2       1.502451        203.864
2015    22      3       1.600174        209.0296
2015    22      4       1.622933        209.9284
2015    22      5       1.557677        206.2031
2015    22      6       1.632633        209.598
2015    22      7       1.407705        196.798
2015    23      0       1.331249        191.8297
2015    23      1       1.557752        205.2921
2015    23      2       1.355331        192.7957
2015    23      3       1.329623        190.7854
2015    23      4       1.318754        189.6588
2015    23      5       1.279434        186.7123
2015    23      6       1.319513        189.4837
2015    23      7       1.233275        183.7302
2015    24      0       1.071239        171.1025
2015    24      1       1.17074         179.5049
2015    24      2       1.115914        175.2471
2015    24      3       0.9105904       156.4065
2015    24      4       0.8365314       148.7225
2015    24      5       0.821161        147.4529
2015    24      6       0.9246226       158.7178
2015    24      7       1.285301        189.2731
2015    25      0       1.11837         177.2782
2015    25      1       1.110865        177.208
2015    25      2       1.034646        170.6262
2015    25      3       0.9685118       163.5955
2015    25      4       1.095384        174.3443
2015    25      5       1.110087        176.6117
2015    25      6       1.943131        225.9197
2015    25      7       2.240876        235.2063
2015    26      0       2.054107        229.0614
2015    26      1       1.251065        186.8857
2015    26      2       1.264201        186.6292
2015    26      3       1.118511        175.1293
2015    26      4       0.9086741       156.4123
2015    26      5       0.7933142       145.1543
2015    26      6       0.7809153       143.9619
2015    26      7       1.040782        170.8021
2015    27      0       1.259767        189.3293
2015    27      1       1.119891        178.2322
2015    27      2       1.459272        202.0508
2015    27      3       1.636788        212.7909
2015    27      4       1.508848        206.0972
2015    27      5       1.282302        191.9066
2015    27      6       1.661949        214.8783
2015    27      7       2.567212        246.2777
2015    28      0       2.997834        255.9466
2015    28      1       3.371801        261.9648
2015    28      2       3.511349        263.5818
2015    28      3       3.457114        263.3002
2015    28      4       3.329614        262.6921
2015    28      5       2.951072        258.8581
2015    28      6       3.579675        265.6523
2015    28      7       4.260762        268.9178
2015    29      0       3.428622        262.5044
2015    29      1       3.092642        259.0857
2015    29      2       3.341695        261.9715
2015    29      3       4.090024        267.0477
2015    29      4       3.985048        266.5586
2015    29      5       3.658417        263.604
2015    29      6       3.380654        259.557
2015    29      7       3.102043        259.5444
2015    30      0       2.874841        256.3079
2015    30      1       2.140277        240.3844
2015    30      2       1.686599        222.7165
2015    30      3       2.041078        233.2454
2015    30      4       1.886367        222.1506
2015    30      5       1.816546        218.0598
2015    30      6       1.758663        214.9063
2015    30      7       1.6096          207.0067
2016    1       0       2.009966        236.0315
2016    1       1       2.083333        238.9484
2016    1       2       2.127314        239.9433
2016    1       3       2.119108        239.1049
2016    1       4       2.057804        236.7186
2016    1       5       2.147536        239.2292
2016    1       6       2.237137        241.5677
2016    1       7       2.396169        245.4924
2016    2       0       2.637206        251.0578
2016    2       1       2.347685        244.7468
2016    2       2       1.963516        232.9996
2016    2       3       1.867487        229.4644
2016    2       4       1.765283        224.8003
2016    2       5       1.699886        221.5723
2016    2       6       1.722614        222.5666
2016    2       7       2.076832        236.6447
2016    3       0       2.18247         240.0614
2016    3       1       2.046266        235.9028
2016    3       2       1.970348        233.8474
2016    3       3       1.886272        231.1514
2016    3       4       1.623367        219.4145
2016    3       5       1.33135         201.7714
2016    3       6       1.147433        187.668
2016    3       7       1.231434        194.7489
2016    4       0       1.584013        218.7747
2016    4       1       1.502183        214.3877
2016    4       2       1.38197         206.5345
2016    4       3       1.360958        204.943
2016    4       4       1.405815        207.8171
2016    4       5       1.409278        207.9969
2016    4       6       1.61513         220.3753
2016    4       7       1.801388        229.3612
2016    5       0       2.064427        239.832
2016    5       1       2.175076        243.0359
2016    5       2       1.866764        231.2546
2016    5       3       1.915094        232.5684
2016    5       4       2.207801        242.0315
2016    5       5       2.671366        252.5308
2016    5       6       3.178945        260.022
2016    5       7       2.924627        256.3333
2016    6       0       3.99499         266.5738
2016    6       1       3.581735        263.4581
2016    6       2       3.458766        262.6417
2016    6       3       3.285084        261.0436
2016    6       4       3.320958        261.2948
2016    6       5       3.652063        264.3037
2016    6       6       3.84231         265.3225
2016    6       7       3.506612        262.5828
2016    7       0       3.505764        262.4692
2016    7       1       3.161426        258.4866
2016    7       2       2.591864        248.4327
2016    7       3       2.180338        237.5694
2016    7       4       2.039019        232.9687
2016    7       5       1.917871        228.314
2016    7       6       1.665566        216.6419
2016    7       7       1.429906        203.1771
2016    8       0       1.42882         203.8674
2016    8       1       1.432935        204.481
2016    8       2       1.374368        200.3959
2016    8       3       1.2308          189.6253
2016    8       4       1.114336        179.6747
2016    8       5       0.9263938       161.4544
2016    8       6       0.814645        148.9514
2016    8       7       0.6708743       130.9954
2016    9       0       1.014887        170.1327
2016    9       1       1.423316        202.3175
2016    9       2       1.6772          216.7177
2016    9       3       1.7438          219.8412
2016    9       4       1.610671        213.2123
2016    9       5       1.356763        198.0337
2016    9       6       1.134509        181.1867
2016    9       7       1.13544         181.2561
2016    10      0       1.14731         182.4089
2016    10      1       1.023946        171.5566
2016    10      2       1.183439        185.3616
2016    10      3       1.255757        190.8113
2016    10      4       1.30556         194.5072
2016    10      5       1.149788        182.5206
2016    10      6       0.8592892       154.9629
2016    10      7       0.8914031       159.3249
2016    11      0       1.112764        180.983
2016    11      1       1.225153        190.7774
2016    11      2       1.355171        200.3805
2016    11      3       1.176236        187.1815
2016    11      4       1.241694        192.2321
2016    11      5       1.388866        202.8387
2016    11      6       1.458796        206.8531
2016    11      7       1.830966        224.7653
2016    12      0       2.459111        245.1852
2016    12      1       3.353286        261.4595
2016    12      2       3.547001        264.8772
2016    12      3       3.52023         265.2875
2016    12      4       3.611889        266.8709
2016    12      5       3.152094        262.7275
2016    12      6       2.696288        255.6292
2016    12      7       3.208025        260.8648
2016    13      0       3.200398        260.4108
2016    13      1       2.900513        256.9949
2016    13      2       2.954684        258.3358
2016    13      3       3.049089        259.1518
2016    13      4       4.402107        268.6104
2016    13      5       2.187184        238.6554
2016    13      6       2.181478        237.1985
2016    13      7       3.003374        254.0725
2016    14      0       3.04962         254.6857
2016    14      1       2.891428        252.1872
2016    14      2       2.905406        252.2419
2016    14      3       2.744453        249.7125
2016    14      4       2.300458        240.3289
2016    14      5       1.868115        225.766
2016    14      6       1.76045         221.4857
2016    14      7       2.691126        250.1353
2016    15      0       2.91219         254.1037
2016    15      1       2.669452        249.6112
2016    15      2       2.537447        246.712
2016    15      3       2.47229         245.6387
2016    15      4       2.457224        245.7055
2016    15      5       2.359056        244.3627
2016    15      6       2.426343        246.9374
2016    15      7       2.695408        252.3186
2016    16      0       2.999072        258.4583
2016    16      1       2.68223         253.7883
2016    16      2       2.699659        253.8
2016    16      3       2.982041        257.572
2016    16      4       3.152515        259.5007
2016    16      5       3.226467        260.3581
2016    16      6       3.215333        259.8634
2016    16      7       2.863077        254.8649
2016    17      0       2.513877        247.775
2016    17      1       2.445301        246.2447
2016    17      2       2.394788        245.4377
2016    17      3       2.371555        244.7778
2016    17      4       2.27521         242.2258
2016    17      5       2.118037        237.3081
2016    17      6       2.164412        238.3696
2016    17      7       2.284806        241.6692
2016    18      0       2.73979         252.3364
2016    18      1       2.791903        253.2328
2016    18      2       3.149524        257.7551
2016    18      3       3.064513        256.1706
2016    18      4       2.658478        249.2286
2016    18      5       1.973766        228.9937
2016    18      6       1.698522        216.5281
2016    18      7       1.362497        197.1355
2016    19      0       1.262036        189.5215
2016    19      1       0.8987457       156.9437
2016    19      2       0.8183849       148.2236
2016    19      3       1.247333        188.5738
2016    19      4       1.704542        216.3687
2016    19      5       1.973398        227.3803
2016    19      6       1.984942        227.9216
2016    19      7       1.783694        220.6602
2016    20      0       1.959834        228.5011
2016    20      1       1.946873        229.6533
2016    20      2       1.948994        230.5882
2016    20      3       1.827578        226.5024
2016    20      4       1.929712        230.117
2016    20      5       1.884504        228.5704
2016    20      6       2.130706        237.8863
2016    20      7       2.187687        239.1711
2016    21      0       2.033809        233.9217
2016    21      1       2.313871        242.7288
2016    21      2       2.323105        243.4928
2016    21      3       2.351048        243.9767
2016    21      4       2.210029        239.9297
2016    21      5       2.678911        250.9108
2016    21      6       2.406796        245.8655
2016    21      7       2.695304        251.3762
2016    22      0       2.623979        250.434
2016    22      1       2.619828        250.7391
2016    22      2       2.760229        253.6302
2016    22      3       3.224106        261.255
2016    22      4       3.158758        259.9771
2016    22      5       2.896911        256.3021
2016    22      6       2.921758        257.1785
2016    22      7       3.032498        258.8588
2016    23      0       2.353434        245.4779
2016    23      1       1.746624        222.7942
2016    23      2       1.867571        226.7605
2016    23      3       1.951205        229.2653
2016    23      4       1.76866         220.8981
2016    23      5       1.792333        221.735
2016    23      6       1.851885        223.9255
2016    23      7       2.138945        233.8566
2016    24      0       2.065571        231.1853
2016    24      1       2.175992        235.3789
2016    24      2       2.027344        230.5807
2016    24      3       1.81022         222.3053
2016    24      4       1.577696        211.3429
2016    24      5       1.614806        213.4581
2016    24      6       1.723801        218.794
2016    24      7       2.010884        230.2474
2016    25      0       1.985884        229.7992
2016    25      1       1.948877        228.5796
2016    25      2       1.852406        224.7655
2016    25      3       1.769817        221.1345
2016    25      4       1.820356        223.2236
2016    25      5       1.772912        221.0879
2016    25      6       2.082874        232.927
2016    25      7       2.445095        242.689
2016    26      0       2.040725        229.5262
2016    26      1       1.614016        211.2082
2016    26      2       1.524103        205.8343
2016    26      3       1.39086         197.5702
2016    26      4       1.204724        184.4697
2016    26      5       0.9738694       164.4634
2016    26      6       0.8393335       150.5053
2016    26      7       1.125706        178.151
2016    27      0       1.212396        185.3877
2016    27      1       1.258046        188.772
2016    27      2       1.172095        181.952
2016    27      3       1.024616        168.8796
2016    27      4       0.9735924       163.7817
2016    27      5       1.199297        183.2489
2016    27      6       1.344605        194.0376
2016    27      7       1.900949        223.5819
2016    28      0       1.616745        211.3713
2016    28      1       1.514417        205.9185
2016    28      2       1.535715        206.5994
2016    28      3       1.215469        185.1735
2016    28      4       1.079802        174.0027
2016    28      5       1.232125        187.2597
2016    28      6       1.497587        205.311
2016    28      7       1.885904        223.4404
2016    29      0       2.081966        232.4203
2016    29      1       2.270019        238.228
2016    29      2       2.358158        239.9579
2016    29      3       2.418762        240.5079
2016    29      4       2.317818        237.6277
2016    29      5       2.416979        240.3107
2016    29      6       1.855269        222.3883
2016    29      7       1.53838         206.8462
2016    30      0       1.493319        204.572
2016    30      1       0.966309        164.178
2016    30      2       1.149076        180.929
2016    30      3       1.216563        186.7678
2016    30      4       1.168693        183.1435
2016    30      5       1.246112        190.7572
2016    30      6       1.501079        208.8741
2016    30      7       1.902304        228.3181
2017    1       0       2.513322        250.5445
2017    1       1       2.536079        250.5834
2017    1       2       2.505695        249.8148
2017    1       3       2.394595        246.9233
2017    1       4       2.269246        243.1519
2017    1       5       2.320208        244.4285
2017    1       6       2.216319        242.0003
2017    1       7       2.656225        251.938
2017    2       0       2.859132        254.8041
2017    2       1       2.028614        235.1109
2017    2       2       1.751251        222.8038
2017    2       3       1.723946        220.3656
2017    2       4       1.655215        215.7884
2017    2       5       1.672294        216.1423
2017    2       6       1.842351        223.9484
2017    2       7       2.096598        233.1607
2017    3       0       1.873975        225.6237
2017    3       1       1.768862        221.8281
2017    3       2       1.747767        221.3119
2017    3       3       1.809153        224.2363
2017    3       4       1.782752        223.2556
2017    3       5       1.611919        215.402
2017    3       6       1.490732        208.8891
2017    3       7       1.616731        215.9432
2017    4       0       1.872399        228.2698
2017    4       1       2.115595        237.2443
2017    4       2       1.840999        226.9728
2017    4       3       2.189702        239.5347
2017    4       4       2.238675        240.9327
2017    4       5       2.166794        241.3187
2017    4       6       2.245291        244.5453
2017    4       7       2.495473        250.6667
2017    5       0       2.660814        254.6738
2017    5       1       2.859246        257.6064
2017    5       2       2.539077        251.1471
2017    5       3       2.396501        247.689
2017    5       4       2.357226        246.3342
2017    5       5       2.501195        249.4198
2017    5       6       2.798313        254.8923
2017    5       7       2.9555          257.2335
2017    6       0       3.422316        263.2452
2017    6       1       4.10043         269.9214
2017    6       2       4.725482        274.6852
2017    6       3       4.864146        276.5269
2017    6       4       4.066671        274.3599
2017    6       5       2.626114        254.3907
2017    6       6       1.801485        228.2269
2017    6       7       2.145551        240.6988
2017    7       0       2.44483         248.7007
2017    7       1       2.331744        246.6436
2017    7       2       2.317075        245.7194
2017    7       3       2.288056        244.3479
2017    7       4       2.27336         243.1483
2017    7       5       2.355248        244.7803
2017    7       6       2.435961        246.2296
2017    7       7       3.008225        256.3154
2017    8       0       3.317825        260.0595
2017    8       1       2.818465        253.3992
2017    8       2       2.522466        248.1922
2017    8       3       2.366049        244.5077
2017    8       4       2.236298        240.7667
2017    8       5       2.104738        236.395
2017    8       6       1.971338        231.8017
2017    8       7       2.068982        235.7859
2017    9       0       2.054691        235.9415
2017    9       1       2.108253        238.0725
2017    9       2       2.255003        242.5289
2017    9       3       2.432217        247.2482
2017    9       4       2.414864        246.757
2017    9       5       2.383653        245.6831
2017    9       6       2.374768        245.0448
2017    9       7       2.471307        246.8241
2017    10      0       2.726688        252.0192
2017    10      1       2.7313          251.7256
2017    10      2       2.973633        255.772
2017    10      3       2.725752        251.6524
2017    10      4       2.665969        250.4469
2017    10      5       2.499567        246.6918
2017    10      6       2.270735        240.5878
2017    10      7       2.293257        241.2397
2017    11      0       2.602371        249.0545
2017    11      1       2.611488        249.1449
2017    11      2       2.275095        240.6276
2017    11      3       2.261235        240.1176
2017    11      4       2.309986        241.059
2017    11      5       3.264214        258.5677
2017    11      6       3.064187        255.6761
2017    11      7       2.442217        243.1609
2017    12      0       2.628101        247.4274
2017    12      1       2.661009        248.5056
2017    12      2       2.428573        243.4114
2017    12      3       2.082077        233.5589
2017    12      4       2.828499        251.9767
2017    12      5       2.296172        241.3065
2017    12      6       2.272004        241.4632
2017    12      7       2.200782        240.0905
2017    13      0       2.161209        239.9091
2017    13      1       2.487525        248.7341
2017    13      2       2.557604        249.7529
2017    13      3       2.686729        252.216
2017    13      4       2.616937        251.7418
2017    13      5       2.61252         251.8902
2017    13      6       2.69659         253.5992
2017    13      7       2.70157         253.3372
2017    14      0       2.783292        254.3593
2017    14      1       2.576918        249.8732
2017    14      2       2.502751        247.3748
2017    14      3       2.512098        247.1702
2017    14      4       2.337432        243.6352
2017    14      5       2.19907         240.0132
2017    14      6       2.262944        241.7557
2017    14      7       2.33722         243.8856
2017    15      0       2.492999        247.7966
2017    15      1       2.583849        249.0625
2017    15      2       2.67767         250.3168
2017    15      3       2.446537        244.6307
2017    15      4       2.146808        236.4709
2017    15      5       2.25732         239.5522
2017    15      6       2.327811        241.6404
2017    15      7       2.167451        237.754
2017    16      0       2.131478        237.4743
2017    16      1       2.03703         235.0768
2017    16      2       1.997043        233.8714
2017    16      3       1.919007        230.8021
2017    16      4       1.613375        216.5689
2017    16      5       1.411982        204.7317
2017    16      6       1.515013        211.7179
2017    16      7       1.761308        225.0482
2017    17      0       2.282172        243.875
2017    17      1       2.183837        240.5578
2017    17      2       2.173467        240.4718
2017    17      3       2.141408        239.635
2017    17      4       2.141997        239.7262
2017    17      5       2.048656        236.3212
2017    17      6       1.967947        233.3392
2017    17      7       2.174251        240.4113
2017    18      0       2.485093        249.0769
2017    18      1       2.603221        251.6341
2017    18      2       2.592818        251.1867
2017    18      3       2.59686         250.9794
2017    18      4       2.580194        250.3697
2017    18      5       2.473169        248.0737
2017    18      6       2.465201        247.7906
2017    18      7       2.592088        250.574
2017    19      0       2.913654        256.0878
2017    19      1       2.888695        254.8481
2017    19      2       2.861316        254.2711
2017    19      3       2.766714        252.9509
2017    19      4       2.860743        254.1712
2017    19      5       3.261714        259.0971
2017    19      6       2.779807        251.898
2017    19      7       1.939557        228.7847
2017    20      0       1.874959        225.9396
2017    20      1       1.669221        216.0679
2017    20      2       1.538516        208.7378
2017    20      3       1.468108        204.2251
2017    20      4       1.933757        226.9137
2017    20      5       1.407577        200.6033
2017    20      6       1.428203        202.1486
2017    20      7       1.63562         212.9779
2017    21      0       1.802417        220.6172
2017    21      1       1.839657        222.146
2017    21      2       1.748574        218.7789
2017    21      3       1.670893        215.6513
2017    21      4       1.558315        210.4311
2017    21      5       1.451159        204.8309
2017    21      6       1.422771        203.2229
2017    21      7       1.467715        205.9321
2017    22      0       1.817918        223.7442
2017    22      1       2.30921         240.003
2017    22      2       2.522505        246.0241
2017    22      3       2.664588        249.4808
2017    22      4       2.65791         249.7211
2017    22      5       2.549105        248.0745
2017    22      6       2.543669        248.2604
2017    22      7       2.718515        251.7875
2017    23      0       2.922517        255.5168
2017    23      1       3.184931        259.6076
2017    23      2       2.926169        256.0254
2017    23      3       2.793529        253.7592
2017    23      4       2.600645        250.5604
2017    23      5       2.474131        248.0246
2017    23      6       2.321002        244.1496
2017    23      7       2.177921        240.152
2017    24      0       2.281537        243.4012
2017    24      1       2.370349        245.7519
2017    24      2       2.282235        243.3861
2017    24      3       2.338977        245.0424
2017    24      4       2.267017        243.0486
2017    24      5       2.223313        241.6503
2017    24      6       2.280815        243.3758
2017    24      7       2.37724         245.9785
2017    25      0       2.743357        253.2436
2017    25      1       3.028974        257.2801
2017    25      2       3.044126        257.6565
2017    25      3       3.390005        261.8255
2017    25      4       3.401871        261.3882
2017    25      5       2.822589        253.0056
2017    25      6       2.454942        244.8687
2017    25      7       2.499971        245.5438
2017    26      0       2.843355        252.142
2017    26      1       2.619337        248.0137
2017    26      2       2.799442        251.1318
2017    26      3       2.54772         246.5734
2017    26      4       2.566151        246.5825
2017    26      5       2.261211        238.9823
2017    26      6       2.081108        233.6641
2017    26      7       1.89978         227.734
2017    27      0       1.931797        228.9634
2017    27      1       1.360938        200.166
2017    27      2       1.173299        187.1875
2017    27      3       1.22676         191.3636
2017    27      4       1.388325        202.5354
2017    27      5       2.304447        242.5291
2017    27      6       3.013169        257.0874
2017    27      7       2.913987        256.9959
2017    28      0       2.40418         247.6584
2017    28      1       2.036633        236.8834
2017    28      2       2.07556         238.1993
2017    28      3       2.275579        243.8634
2017    28      4       2.716145        253.6419
2017    28      5       3.54004         263.1681
2017    28      6       3.427287        261.9827
2017    28      7       3.317671        260.4834
2017    29      0       3.2617          259.1389
2017    29      1       2.892083        253.3018
2017    29      2       2.608805        247.3724
2017    29      3       2.352501        240.7843
2017    29      4       2.002169        229.6598
2017    29      5       1.830511        222.4792
2017    29      6       1.711435        216.3601
2017    29      7       1.987022        227.8147
2017    30      0       1.753229        218.6774
2017    30      1       1.307017        192.1372
2017    30      2       1.59198         208.7001
2017    30      3       1.423986        198.4445
2017    30      4       1.248307        186.4256
2017    30      5       1.441716        199.5758
2017    30      6       1.730056        215.5055
2017    30      7       1.845042        221.4542
2018    1       0       1.277175        193.0453
2018    1       1       1.946269        229.6205
2018    1       2       1.819847        224.4968
2018    1       3       1.722297        220.1271
2018    1       4       1.858507        226.0597
2018    1       5       2.099142        235.2985
2018    1       6       2.878069        253.6077
2018    1       7       3.284287        259.6869
2018    2       0       2.57049         248.2717
2018    2       1       2.989455        255.7948
2018    2       2       3.489367        261.4549
2018    2       3       3.408705        260.4052
2018    2       4       2.968944        254.8831
2018    2       5       2.508185        246.5769
2018    2       6       2.438016        245.4347
2018    2       7       2.661038        250.9537
2018    3       0       2.841977        254.1595
2018    3       1       3.389991        260.9718
2018    3       2       3.380439        260.8644
2018    3       3       3.221636        259.5183
2018    3       4       2.85724         255.1797
2018    3       5       2.104205        237.7006
2018    3       6       1.844959        228.2366
2018    3       7       1.902284        230.5705
2018    4       0       2.041238        235.1496
2018    4       1       2.301953        242.2285
2018    4       2       1.744635        221.9399
2018    4       3       1.219171        190.6785
2018    4       4       1.515086        210.2209
2018    4       5       1.785622        223.4381
2018    4       6       2.272993        240.4379
2018    4       7       2.912393        253.1837
2018    5       0       2.931017        253.0734
2018    5       1       3.540012        259.863
2018    5       2       2.641323        249.0154
2018    5       3       2.236064        239.7752
2018    5       4       2.048191        233.9871
2018    5       5       1.974535        231.8292
2018    5       6       2.055207        234.8906
2018    5       7       2.161705        238.8231
2018    6       0       3.144762        258.8225
2018    6       1       2.587547        249.6059
2018    6       2       2.824574        253.2015
2018    6       3       2.777944        251.5768
2018    6       4       2.827021        251.6388
2018    6       5       2.17102         236.4515
2018    6       6       2.613087        247.9122
2018    6       7       2.958629        253.9047
2018    7       0       3.069191        255.479
2018    7       1       2.685612        249.3262
2018    7       2       2.601496        247.4632
2018    7       3       2.437607        243.7785
2018    7       4       2.594566        247.2255
2018    7       5       2.180948        236.8522
2018    7       6       1.649798        215.9403
2018    7       7       1.606885        214.0142
2018    8       0       1.71243         219.5743
2018    8       1       1.372758        200.9815
2018    8       2       1.12555         183.3176
2018    8       3       1.192421        188.9243
2018    8       4       1.113179        182.4561
2018    8       5       0.9344899       165.2612
2018    8       6       0.776351        146.6714
2018    8       7       0.688912        135.1375
2018    9       0       0.9121116       162.3254
2018    9       1       0.7531718       143.5894
2018    9       2       0.7375793       140.8621
2018    9       3       0.8042547       149.2403
2018    9       4       1.009827        171.5613
2018    9       5       1.183409        185.9095
2018    9       6       1.730814        219.6657
2018    9       7       2.214912        238.9451
2018    10      0       1.984069        232.603
2018    10      1       1.87149         229.3216
2018    10      2       1.770243        226.2448
2018    10      3       1.710855        223.8875
2018    10      4       1.652738        221.1306
2018    10      5       1.622078        219.6335
2018    10      6       1.849255        230.7223
2018    10      7       1.934611        233.801
2018    11      0       2.191402        241.8949
2018    11      1       2.360968        246.0008
2018    11      2       2.235256        242.0876
2018    11      3       2.354475        245.3372
2018    11      4       2.299156        243.9337
2018    11      5       2.372444        245.8262
2018    11      6       2.810257        254.4607
2018    11      7       3.062731        258.3797
2018    12      0       3.240714        260.898
2018    12      1       3.376168        263.1517
2018    12      2       2.831898        256.4661
2018    12      3       2.780782        255.3157
2018    12      4       3.98481         267.698
2018    12      5       3.247167        261.2442
2018    12      6       3.812332        266.9512
2018    12      7       3.863669        267.3642
2018    13      0       4.352593        269.7502
2018    13      1       4.474225        269.9225
2018    13      2       3.768896        266.2354
2018    13      3       3.321018        261.8768
2018    13      4       3.21784         259.9706
2018    13      5       1.729411        221.7033
2018    13      6       1.368996        200.8736
2018    13      7       1.484799        208.5378
2018    14      0       1.735856        222.1478
2018    14      1       1.725075        221.3964
2018    14      2       1.614782        216.0301
2018    14      3       1.578759        213.9523
2018    14      4       1.187211        187.2638
2018    14      5       0.6785913       132.8368
2018    14      6       0.5628503       115.9747
2018    14      7       0.6302781       125.5352
2018    15      0       1.020334        171.4551
2018    15      1       1.135332        181.6624
2018    15      2       1.227326        189.6329
2018    15      3       1.484005        207.0646
2018    15      4       1.765792        221.9757
2018    15      5       1.731791        220.6157
2018    15      6       1.788592        223.3316
2018    15      7       1.876735        227.9563
2018    16      0       2.055507        234.8592
2018    16      1       2.363261        244.2959
2018    16      2       2.697966        252.3933
2018    16      3       2.700314        252.2413
2018    16      4       2.579356        249.1759
2018    16      5       2.478128        246.1935
2018    16      6       2.439022        244.9928
2018    16      7       2.59133         248.1648
2018    17      0       2.624243        249.3889
2018    17      1       2.692864        250.886
2018    17      2       2.696196        251.2636
2018    17      3       2.553177        248.3877
2018    17      4       2.28754         242.3362
2018    17      5       2.316427        243.3442
2018    17      6       2.143075        238.6849
2018    17      7       2.411352        246.3641
2018    18      0       2.471397        248.338
2018    18      1       2.214605        241.8164
2018    18      2       2.153693        239.8394
2018    18      3       2.290469        243.5575
2018    18      4       2.807809        254.3949
2018    18      5       3.126829        258.5058
2018    18      6       2.79936         253.2809
2018    18      7       3.208262        258.6695
2018    19      0       3.32781         260.2107
2018    19      1       3.185134        258.7276
2018    19      2       2.808365        253.147
2018    19      3       2.751435        251.9164
2018    19      4       2.545866        247.3654
2018    19      5       2.317104        241.1969
2018    19      6       2.378605        242.5331
2018    19      7       2.494118        245.2878
2018    20      0       2.650856        249.1284
2018    20      1       3.059782        255.7581
2018    20      2       2.628075        248.2861
2018    20      3       2.293067        240.6906
2018    20      4       2.300944        241.1119
2018    20      5       2.580595        247.9968
2018    20      6       2.534182        246.946
2018    20      7       2.524227        246.4145
2018    21      0       2.430902        244.0183
2018    21      1       2.359042        242.4346
2018    21      2       2.370176        242.9232
2018    21      3       2.213709        239.1194
2018    21      4       2.219626        239.2462
2018    21      5       2.387507        243.1423
2018    21      6       2.515425        245.9814
2018    21      7       2.388163        242.9184
2018    22      0       2.50777         245.94
2018    22      1       2.287204        240.4132
2018    22      2       2.396346        243.4267
2018    22      3       2.495259        245.9102
2018    22      4       2.438716        244.2297
2018    22      5       2.525897        246.2943
2018    22      6       2.634832        248.8047
2018    22      7       3.077154        256.4273
2018    23      0       3.12736         256.4846
2018    23      1       2.842174        252.1377
2018    23      2       2.634078        248.2577
2018    23      3       2.534874        246.4523
2018    23      4       2.572138        246.6898
2018    23      5       2.370454        241.3865
2018    23      6       2.435199        243.1736
2018    23      7       2.547578        245.5959
2018    24      0       2.646367        247.8116
2018    24      1       2.686815        248.7851
2018    24      2       2.619055        247.9508
2018    24      3       2.543623        246.8235
2018    24      4       2.213178        238.8827
2018    24      5       1.911549        229.1234
2018    24      6       1.959909        230.6434
2018    24      7       2.627896        249.9499
2018    25      0       2.945971        255.9177
2018    25      1       2.814098        253.665
2018    25      2       2.366669        244.2588
2018    25      3       3.362682        259.9594
2018    25      4       2.764937        250.7014
2018    25      5       2.573811        246.7925
2018    25      6       2.591683        246.5039
2018    25      7       2.459704        243.3734
2018    26      0       2.768636        249.7392
2018    26      1       2.714228        248.6878
2018    26      2       2.641239        246.8464
2018    26      3       2.676073        247.4094
2018    26      4       2.171703        234.8625
2018    26      5       2.169871        234.5046
2018    26      6       2.014112        229.1146
2018    26      7       2.312238        238.5053
2018    27      0       2.482917        243.0743
2018    27      1       1.909094        226.0725
2018    27      2       1.769469        220.5532
2018    27      3       1.525279        208.7151
2018    27      4       1.170042        184.4663
2018    27      5       0.8748336       156.698
2018    27      6       0.6336676       127.4494
2018    27      7       0.682761        134.6031
2018    28      0       1.23123         190.5825
2018    28      1       1.313929        196.7767
2018    28      2       1.142512        184.0151
2018    28      3       0.9810306       169.6883
2018    28      4       0.8284942       153.5775
2018    28      5       0.8063979       151.2837
2018    28      6       0.9661487       168.5046
2018    28      7       1.009718        172.7422
2018    29      0       1.21338         190.2653
2018    29      1       0.8200245       153.2479
2018    29      2       0.4243161       97.7485
2018    29      3       0.2213193       58.53381
2018    29      4       0.1947381       52.18327
2018    29      5       0.2771328       68.77732
2018    29      6       0.3143824       76.88211
2018    29      7       0.5181676       113.1345
2018    30      0       0.5759582       122.1638
2018    30      1       0.637803        131.0383
2018    30      2       0.7026463       138.7914
2018    30      3       0.7701584       146.2569
2018    30      4       0.8003921       149.3735
2018    30      5       0.8025195       149.5259
2018    30      6       0.7757719       146.2362
2018    30      7       0.8279821       152.8887
