####################################################################################################
# Month: 09Sep                                                                                     #
# Station: BLDR                                                                                    #
# Frequency: 230 GHz                                                                               #
# Columns are: year    day     tau     Tb (K)                                                      #
####################################################################################################
2009    1       0.47330298      105.96919375
2009    2       0.50964332      110.3664275
2009    3       0.60463221      126.4724625
2009    4       0.48239504      107.015545
2009    5       0.56195795      118.64140875
2009    6       0.74015004      144.3002125
2009    7       0.70606984      139.8102
2009    8       0.72528856      142.007375
2009    9       0.61898554      127.24989
2009    10      0.56703676      119.95268125
2009    11      0.48034572      105.86976
2009    12      0.67611804      134.3014375
2009    13      0.72198854      138.90661875
2009    14      0.67314692      135.0587875
2009    15      0.80799914      153.1433875
2009    16      0.63872236      130.4894125
2009    17      0.43953714      98.49176
2009    18      0.3270603       79.4747575
2009    19      0.32335267      78.76161875
2009    20      0.50849479      109.32450125
2009    21      0.4690289       101.95884125
2009    22      0.2976959       70.609395
2009    23      0.51772278      109.5682425
2009    24      0.42803451      94.35604125
2009    25      0.45244536      99.69551875
2009    26      0.34853108      83.0825
2009    27      0.25265428      64.94697625
2009    28      0.21600774      57.0936475
2009    29      0.33502489      80.22245875
2009    30      0.38260474      89.19284125
2010    1       0.41005904      93.73832125
2010    2       0.37257622      88.44523125
2010    3       0.29249996      73.1471025
2010    4       0.31498         77.37994
2010    5       0.3521041       84.0512175
2010    6       0.25996045      64.66298
2010    7       0.1693425       46.30642875
2010    8       0.63043885      127.41387
2010    9       0.58791601      115.24186
2010    10      0.27594922      69.1270725
2010    11      0.20819861      53.784635
2010    12      0.13183683      37.52821625
2010    13      0.34831663      82.28073125
2010    14      0.41733075      95.7613825
2010    15      0.37576795      88.4693475
2010    16      0.4226232       96.4658925
2010    17      0.32866225      80.03813875
2010    18      0.28383274      71.36624125
2010    19      0.17710421      48.73721875
2010    20      0.39333598      90.4408175
2010    21      0.44713132      101.4217225
2010    22      0.66668726      132.8636575
2010    23      0.6998236       132.5264675
2010    24      0.17810658      48.45800875
2010    25      0.28166018      69.92530375
2010    26      0.39610392      93.44731375
2010    27      0.35592035      85.92466
2010    28      0.35056566      85.09778875
2010    29      0.32994519      80.7936775
2010    30      0.40303675      94.06296625
2011    1       0.61981669      130.602925
2011    2       0.76567631      148.9694
2011    3       0.49705251      108.1582325
2011    4       0.40204431      93.0350675
2011    5       0.29379678      73.06025
2011    6       0.67474341      130.82032625
2011    7       1.05223129      178.2224375
2011    8       0.6787549       134.41855
2011    9       0.41044485      94.63322125
2011    10      0.46401418      103.67345625
2011    11      0.43606356      98.8585325
2011    12      0.61786716      127.1226375
2011    13      0.67083166      134.1986
2011    14      0.70996742      136.3500125
2011    15      0.85507719      155.0992875
2011    16      0.53847389      113.66690875
2011    17      0.65051994      130.3969625
2011    18      0.43063472      96.18698875
2011    19      0.42752375      96.9229925
2011    20      0.41367924      94.65870125
2011    21      0.46556518      102.48138
2011    22      0.20746363      51.1704025
2011    23      0.29916944      72.76691875
2011    24      0.55810758      118.348565
2011    25      0.61215736      127.5498375
2011    26      0.46649299      102.864245
2011    27      0.51417296      111.840785
2011    28      0.40725639      94.53072375
2011    29      0.5274477       114.6073125
2011    30      0.43344556      99.65981625
2012    1       0.81426338      154.269575
2012    2       0.82903877      155.9525875
2012    3       0.70592282      138.4727225
2012    4       0.40170509      93.26974625
2012    5       0.25778796      65.8707625
2012    6       0.29148691      71.447805
2012    7       0.64859602      130.4929875
2012    8       0.32740386      77.50831875
2012    9       0.2103825       56.31358125
2012    10      0.33085825      80.67610625
2012    11      0.7625857       145.486175
2012    12      0.94140111      163.4826
2012    13      0.34771318      80.30513125
2012    14      0.17919212      48.75567125
2012    15      0.17797764      48.6195025
2012    16      0.23549068      60.4939425
2012    17      0.48091656      103.79298125
2012    18      0.32842891      78.98243375
2012    19      0.28157324      70.62025875
2012    20      0.34922745      83.52143625
2012    21      0.39003626      91.25226875
2012    22      0.39619002      92.86556625
2012    23      0.33334455      80.3590975
2012    24      0.6371983       129.7276
2012    25      0.69009905      135.5622
2012    26      0.84079022      154.1109875
2012    27      0.68560792      134.2453625
2012    28      0.46679687      102.67445
2012    29      0.36952549      86.7648625
2012    30      0.50089571      108.75335
2013    1       0.93620385      168.341925
2013    2       0.88662876      163.4495375
2013    3       0.95432308      171.126775
2013    4       1.11232881      186.5964375
2013    5       0.85879609      159.3333125
2013    6       0.92430131      167.342025
2013    7       0.76775626      150.8137875
2013    8       0.67757485      138.17325
2013    9       0.9663002       170.70795
2013    10      1.37966012      205.6853125
2013    11      1.53697938      215.2528375
2013    12      1.60547338      220.2322
2013    13      1.45210552      208.5648
2013    14      0.84773961      156.98935
2013    15      1.15391323      186.106725
2013    16      0.98024944      170.60135
2013    17      0.47456298      105.44570125
2013    18      0.6609324       134.631625
2013    19      0.62129806      127.5083
2013    20      0.25288833      64.04606
2013    21      0.32336035      79.154375
2013    22      0.54051009      117.2747875
2013    23      0.71778636      137.55833125
2013    24      0.2453146       62.59262375
2013    25      0.22450465      58.9099775
2013    26      0.32421409      79.71806375
2013    27      0.52945619      113.7588575
2013    28      0.27935696      65.2926225
2013    29      0.25849747      65.28073125
2013    30      0.47434462      105.11219
2014    1       0.49759044      108.70061
2014    2       0.3434051       83.04615875
2014    3       0.44257565      102.32979375
2014    4       0.46932836      104.20691625
2014    5       0.8742318       157.829675
2014    6       0.66995584      132.18627625
2014    7       0.57808317      121.8903375
2014    8       0.68555055      136.569475
2014    9       1.2036551       191.8451375
2014    10      0.75616286      140.4906425
2014    11      0.39701392      92.506415
2014    12      0.40144772      88.812595
2014    13      0.18931838      50.87170375
2014    14      0.4234953       96.97183125
2014    15      0.53937445      115.09040375
2014    16      0.52183509      114.2844125
2014    17      0.58083234      123.43515
2014    18      0.5488726       118.64437375
2014    19      0.5839326       124.57985
2014    20      0.7014226       141.5598
2014    21      1.01011991      174.4259
2014    22      1.04104021      177.519325
2014    23      0.7538235       145.7352875
2014    24      0.60379191      126.0695125
2014    25      0.5307944       116.4701
2014    26      0.51109438      114.3492
2014    27      0.52343795      114.87482625
2014    28      0.57273541      118.3057425
2014    29      0.89716755      161.6110625
2014    30      0.46499006      101.15262875
2015    1       0.62434949      127.2338125
2015    2       0.69204688      138.708575
2015    3       0.97683601      171.425225
2015    4       0.61265155      125.12463375
2015    5       0.8816518       161.3158
2015    6       0.50674178      110.6796725
2015    7       0.70521442      137.5928125
2015    8       0.37959951      86.0264675
2015    9       0.23169314      60.02583875
2015    10      0.25489354      64.54366
2015    11      0.36950909      87.1124175
2015    12      0.35327932      84.6919775
2015    13      0.26583132      67.26455625
2015    14      0.3857785       87.0460625
2015    15      0.60147439      125.4199375
2015    16      0.46677141      104.6685225
2015    17      0.54984526      117.60354125
2015    18      0.45177662      99.90589375
2015    19      0.28810358      70.99114625
2015    20      0.25098561      63.56585875
2015    21      0.25432344      65.34134625
2015    22      0.48480834      107.01773125
2015    23      0.51406729      112.0358375
2015    24      0.33284949      80.62806375
2015    25      0.37733291      89.5642975
2015    26      0.3572818       86.15854375
2015    27      0.4409119       100.4952325
2015    28      0.65981549      131.91063
2015    29      0.81129292      152.8455375
2015    30      0.67343739      135.1978125
2016    1       0.57436536      122.6003375
2016    2       0.88731001      162.291875
2016    3       0.56003179      118.79870125
2016    4       0.67746198      134.43333875
2016    5       0.2827982       70.0081725
2016    6       0.36214631      85.72142
2016    7       0.34247638      81.63811375
2016    8       0.26865372      67.55566
2016    9       0.24298624      62.446995
2016    10      0.12891554      36.56731625
2016    11      0.19989431      52.50455875
2016    12      0.41546199      94.84913875
2016    13      0.59330268      121.89670875
2016    14      0.62174421      127.4345125
2016    15      0.45606158      100.2161475
2016    16      0.39574718      91.24239875
2016    17      0.39699176      91.10563125
2016    18      0.41231049      94.01493
2016    19      0.39776021      92.93056
2016    20      0.42730405      97.554655
2016    21      0.70469451      137.6857375
2016    22      0.85543604      158.8328125
2016    23      0.60444314      121.68494
2016    24      0.36337719      83.14801625
2016    25      0.32133022      76.2705425
2016    26      0.31022092      75.89798875
2016    27      0.32015967      78.64267
2016    28      0.32060922      78.74468875
2016    29      0.48050034      106.5412
2016    30      0.77964805      148.4840625
2017    1       0.8249874       154.2049
2017    2       0.50313406      111.6482525
2017    3       0.40490454      94.6369475
2017    4       0.40913045      95.0878925
2017    5       0.45676006      103.3151225
2017    6       0.33147567      81.13871125
2017    7       0.40236649      93.9446475
2017    8       0.4730685       105.2748125
2017    9       0.7538835       146.334025
2017    10      0.86206321      157.89505
2017    11      0.94639032      169.009275
2017    12      0.63797032      131.545325
2017    13      0.66291766      133.585825
2017    14      0.60294145      126.1415375
2017    15      0.50300939      107.9431375
2017    16      0.45317692      101.45293
2017    17      0.50981904      109.59634375
2017    18      0.41190784      92.1316425
2017    19      0.24888806      63.28209375
2017    20      0.37636111      88.81291625
2017    21      0.23709884      61.050125
2017    22      0.31225531      74.7517325
2017    23      0.74994661      144.0248
2017    24      0.6779833       131.694075
2017    25      0.40020401      90.25335
2017    26      0.23657352      59.20858125
2017    27      0.69841638      134.92491125
2017    28      0.68963891      134.278525
2017    29      0.56439174      118.02245
2017    30      0.41549824      91.6196575
2018    1       0.52848696      113.93498
2018    2       0.45611332      101.44486125
2018    3       0.45867848      101.7605925
2018    4       0.47861359      105.535125
2018    5       0.53797143      114.4595375
2018    6       0.69998704      135.84325
2018    7       0.5066939       105.68101625
2018    8       0.37130169      87.66000875
2018    9       0.51905092      109.729105
2018    10      0.38227422      89.84458375
2018    11      0.47158231      104.873285
2018    12      0.39366432      91.7617525
2018    13      0.19642242      52.9604825
2018    14      0.15137714      42.71470375
2018    15      0.22554045      59.64275
2018    16      0.44524918      102.2052025
2018    17      0.58217648      123.75952125
2018    18      0.52771945      115.18261
2018    19      0.4912315       109.211975
2018    20      0.73080558      135.70970875
2018    21      0.20065991      53.43867125
2018    22      0.21231695      55.32488875
2018    23      0.2654983       67.02172375
2018    24      0.55334372      115.526045
2018    25      0.25687326      61.92393625
2018    26      0.20162718      52.414075
2018    27      0.3166694       75.08695875
2018    28      0.33733305      80.22761875
2018    29      0.23959671      61.579465
2018    30      0.24659196      63.40629875
