####################################################################################################
# Month: 11Nov                                                                                     #
# Station: HES                                                                                     #
# Frequency: 230 GHz                                                                               #
# Columns are: year    day     segment         tau     Tb (K)                                      #
####################################################################################################
2009    1       0       0.3218108       80.32836
2009    1       1       0.308532        77.62847
2009    1       2       0.3076994       77.56658
2009    1       3       0.4302621       101.4834
2009    1       4       0.4484686       104.2635
2009    1       5       0.4679591       107.287
2009    1       6       0.4032396       95.68272
2009    1       7       0.3128129       77.97394
2009    2       0       0.2971479       74.43435
2009    2       1       0.2705035       68.8244
2009    2       2       0.288858        72.77192
2009    2       3       0.3528824       85.57172
2009    2       4       0.353469        85.58345
2009    2       5       0.3781303       90.11218
2009    2       6       0.3849847       91.45076
2009    2       7       0.4396959       101.4837
2009    3       0       0.4460096       102.7464
2009    3       1       0.4137992       97.15998
2009    3       2       0.4996132       111.7859
2009    3       3       0.5669308       122.9762
2009    3       4       0.572876        124.4772
2009    3       5       0.5954071       126.9492
2009    3       6       0.6541004       135.0673
2009    3       7       0.7170596       143.4437
2009    4       0       0.6480746       135.1242
2009    4       1       0.574147        124.6219
2009    4       2       0.4905628       111.3595
2009    4       3       0.3883964       93.56175
2009    4       4       0.2790182       72.16571
2009    4       5       0.2060203       56.35019
2009    4       6       0.1948871       53.85636
2009    4       7       0.136194        39.99153
2009    5       0       0.1264865       37.59695
2009    5       1       0.1317346       38.86318
2009    5       2       0.123259        36.75748
2009    5       3       0.1170394       35.21223
2009    5       4       0.1236595       36.86974
2009    5       5       0.1469597       42.66428
2009    5       6       0.1724733       48.80726
2009    5       7       0.1394652       40.90552
2009    6       0       0.116823        35.28825
2009    6       1       0.09848271      30.62691
2009    6       2       0.08788594      27.88665
2009    6       3       0.1080982       32.9723
2009    6       4       0.1270962       37.64469
2009    6       5       0.1449796       42.09263
2009    6       6       0.173852        49.06302
2009    6       7       0.1560144       44.63032
2009    7       0       0.1155704       34.54354
2009    7       1       0.1188513       35.33886
2009    7       2       0.1188278       35.32871
2009    7       3       0.195911        53.51894
2009    7       4       0.3267022       81.12892
2009    7       5       0.3530993       86.31513
2009    7       6       0.2958016       74.99557
2009    7       7       0.2800972       71.62058
2009    8       0       0.2648307       68.14942
2009    8       1       0.2550418       66.02091
2009    8       2       0.247262        64.42686
2009    8       3       0.2916028       73.89128
2009    8       4       0.299633        75.83135
2009    8       5       0.380951        91.61381
2009    8       6       0.8064858       157.0666
2009    8       7       1.036795        184.2129
2009    9       0       1.134719        194.0264
2009    9       1       0.4966097       113.7488
2009    9       2       0.1922478       52.37545
2009    9       3       0.2625649       66.59751
2009    9       4       0.2628811       66.38635
2009    9       5       0.2830328       70.8215
2009    9       6       0.3152213       77.49823
2009    9       7       0.3335026       81.12314
2009    10      0       0.3519252       84.35664
2009    10      1       0.3643481       86.7464
2009    10      2       0.3845469       90.73784
2009    10      3       0.4014988       94.1009
2009    10      4       0.4585131       104.2968
2009    10      5       0.5368893       117.7385
2009    10      6       0.6203309       130.8359
2009    10      7       0.6021609       128.2153
2009    11      0       0.5528358       120.6656
2009    11      1       0.5213139       115.6426
2009    11      2       0.5050082       113.3477
2009    11      3       0.5316242       118.761
2009    11      4       0.5531581       122.8541
2009    11      5       0.5443503       121.5629
2009    11      6       0.5084147       115.2266
2009    11      7       0.5353464       119.5429
2009    12      0       0.5621767       123.6796
2009    12      1       0.5932568       128.2532
2009    12      2       0.5685051       124.6915
2009    12      3       0.5470777       121.8507
2009    12      4       0.53758         120.4557
2009    12      5       0.540162        121.0076
2009    12      6       0.5870402       128.0519
2009    12      7       0.4750893       109.5042
2009    13      0       0.4094013       97.55434
2009    13      1       0.4009216       95.95174
2009    13      2       0.4197318       99.45889
2009    13      3       0.4861826       111.6202
2009    13      4       0.4308683       101.9115
2009    13      5       0.3820502       92.72607
2009    13      6       0.3690974       90.26727
2009    13      7       0.2613995       68.34126
2009    14      0       0.2070911       56.17988
2009    14      1       0.1909599       52.41477
2009    14      2       0.2085063       56.4242
2009    14      3       0.2591767       67.61329
2009    14      4       0.290464        74.43592
2009    14      5       0.2705332       70.13648
2009    14      6       0.2505197       65.94332
2009    14      7       0.2752727       71.61493
2009    15      0       0.327998        82.44185
2009    15      1       0.376555        91.94043
2009    15      2       0.4746233       109.7547
2009    15      3       0.5605712       124.3646
2009    15      4       0.6906695       143.9186
2009    15      5       0.828592        161.3212
2009    15      6       0.8010008       156.6605
2009    15      7       0.6801722       140.2284
2009    16      0       0.5523701       121.5173
2009    16      1       0.5576088       123.0476
2009    16      2       0.6309488       135.0856
2009    16      3       0.6107755       132.0273
2009    16      4       0.7264994       148.1036
2009    16      5       0.9696723       176.5534
2009    16      6       1.144504        192.4646
2009    16      7       1.322843        207.1817
2009    17      0       1.057346        183.6429
2009    17      1       0.9125791       168.5269
2009    17      2       1.186705        196.2076
2009    17      3       1.576452        225.2361
2009    17      4       1.645866        228.5394
2009    17      5       1.501639        219.0816
2009    17      6       1.366394        209.3415
2009    17      7       1.267365        201.803
2009    18      0       1.201895        196.7936
2009    18      1       1.160085        193.0522
2009    18      2       1.294629        203.8128
2009    18      3       1.250316        201.3978
2009    18      4       1.223717        199.6632
2009    18      5       1.070956        187.0023
2009    18      6       0.8408833       162.4119
2009    18      7       0.4425407       103.5682
2009    19      0       0.2460565       65.18136
2009    19      1       0.1589381       45.4317
2009    19      2       0.1384111       40.53867
2009    19      3       0.1174994       35.49522
2009    19      4       0.116791        35.35633
2009    19      5       0.1404217       41.08694
2009    19      6       0.171619        48.59111
2009    19      7       0.1626843       46.40355
2009    20      0       0.1944737       53.66276
2009    20      1       0.2608533       68.56079
2009    20      2       0.309449        78.98238
2009    20      3       0.309757        78.93797
2009    20      4       0.3608615       88.78564
2009    20      5       0.4278619       101.0926
2009    20      6       0.4987953       113.4396
2009    20      7       0.5486162       121.298
2009    21      0       0.5308048       118.3102
2009    21      1       0.4910124       111.9131
2009    21      2       0.4887664       111.4594
2009    21      3       0.4765264       109.379
2009    21      4       0.514502        115.6113
2009    21      5       0.5725875       124.7324
2009    21      6       0.6136644       130.7553
2009    21      7       0.5365204       119.0252
2009    22      0       0.4960688       112.5995
2009    22      1       0.5027543       113.3927
2009    22      2       0.5104396       114.4731
2009    22      3       0.4993919       112.9111
2009    22      4       0.5120211       115.2368
2009    22      5       0.5520955       121.6635
2009    22      6       0.5991602       128.7434
2009    22      7       0.5751343       125.1408
2009    23      0       0.6699902       139.6832
2009    23      1       0.5705922       124.2646
2009    23      2       0.564787        123.5052
2009    23      3       0.5476958       121.1504
2009    23      4       0.5684788       124.4515
2009    23      5       0.627606        133.2064
2009    23      6       0.6421601       135.3171
2009    23      7       0.584054        126.7802
2009    24      0       0.6120775       131.2433
2009    24      1       0.7127549       145.844
2009    24      2       0.7162911       146.4462
2009    24      3       0.7672262       153.6732
2009    24      4       0.8515428       163.8761
2009    24      5       0.9663366       176.1639
2009    24      6       0.9856538       177.844
2009    24      7       0.9025278       169.1426
2009    25      0       0.920497        170.9139
2009    25      1       1.007781        180.0407
2009    25      2       1.090381        188.4069
2009    25      3       1.315912        206.9129
2009    25      4       1.387209        211.7061
2009    25      5       1.160148        194.2984
2009    25      6       1.025529        181.6795
2009    25      7       1.039443        182.3908
2009    26      0       1.004011        178.775
2009    26      1       0.8775657       165.5006
2009    26      2       0.8591225       163.765
2009    26      3       1.02028         181.2906
2009    26      4       1.301584        206.3716
2009    26      5       1.259241        202.2998
2009    26      6       1.081525        186.1797
2009    26      7       1.030955        180.6608
2009    27      0       1.021199        177.7036
2009    27      1       1.126068        187.4899
2009    27      2       1.344538        206.8682
2009    27      3       1.285677        203.9051
2009    27      4       1.196424        197.9656
2009    27      5       1.47825         217.9322
2009    27      6       1.229995        200.3525
2009    27      7       1.063254        186.3007
2009    28      0       1.114186        190.5632
2009    28      1       1.162601        194.1003
2009    28      2       1.112504        189.2336
2009    28      3       1.245155        199.2016
2009    28      4       1.434099        212.6602
2009    28      5       1.449706        214.3768
2009    28      6       1.600149        225.0056
2009    28      7       1.276358        202.4081
2009    29      0       1.184041        194.7647
2009    29      1       1.294685        202.6796
2009    29      2       1.318417        204.2593
2009    29      3       1.424117        211.8036
2009    29      4       1.635697        225.2045
2009    29      5       1.691911        228.579
2009    29      6       1.382644        210.5639
2009    29      7       1.098782        188.5566
2009    30      0       1.030415        182.2917
2009    30      1       0.9968778       178.9764
2009    30      2       0.9429865       173.2564
2009    30      3       0.9804351       177.0694
2009    30      4       1.301484        207.1564
2009    30      5       1.264232        204.5448
2009    30      6       0.8636783       164.6997
2009    30      7       0.7409066       149.7124
2010    1       0       0.3285185       80.85784
2010    1       1       0.3395527       83.29358
2010    1       2       0.3471042       85.66888
2010    1       3       0.3230592       81.31229
2010    1       4       0.3167919       80.27818
2010    1       5       0.3192609       80.81092
2010    1       6       0.3389544       84.94444
2010    1       7       0.2929472       75.34839
2010    2       0       0.2425907       64.67252
2010    2       1       0.2323266       62.18325
2010    2       2       0.2743063       70.58307
2010    2       3       0.418147        95.99865
2010    2       4       0.5184551       112.723
2010    2       5       0.5422913       118.1477
2010    2       6       0.5476042       119.5334
2010    2       7       0.5906013       125.0595
2010    3       0       0.5709834       123.7638
2010    3       1       0.5947162       127.2845
2010    3       2       0.6822449       140.145
2010    3       3       0.6996127       142.6395
2010    3       4       0.7533508       149.8817
2010    3       5       0.7370512       147.9163
2010    3       6       0.7801358       152.5645
2010    3       7       0.8243907       157.4594
2010    4       0       0.814488        156.3083
2010    4       1       0.7503874       148.4288
2010    4       2       0.657959        135.5459
2010    4       3       0.5783311       123.2646
2010    4       4       0.5713477       122.1239
2010    4       5       0.589388        125.5322
2010    4       6       0.5849284       125.1124
2010    4       7       0.4930809       110.2482
2010    5       0       0.4052784       95.176
2010    5       1       0.3236502       79.99986
2010    5       2       0.3060787       76.14259
2010    5       3       0.3546338       85.93476
2010    5       4       0.3760665       90.2457
2010    5       5       0.3843801       92.08987
2010    5       6       0.3849327       92.33293
2010    5       7       0.327404        81.3752
2010    6       0       0.2865997       73.00357
2010    6       1       0.2594505       67.35013
2010    6       2       0.2708331       69.75657
2010    6       3       0.3287551       81.8637
2010    6       4       0.3135503       79.00555
2010    6       5       0.2983473       76.08269
2010    6       6       0.2714236       70.47801
2010    6       7       0.2722305       70.76197
2010    7       0       0.2844751       73.3463
2010    7       1       0.3015394       76.83304
2010    7       2       0.319401        80.38351
2010    7       3       0.3297794       82.43486
2010    7       4       0.3403539       84.70498
2010    7       5       0.3404079       84.92923
2010    7       6       0.3302108       82.8538
2010    7       7       0.3216963       80.67237
2010    8       0       0.3430396       84.01428
2010    8       1       0.3180048       78.76926
2010    8       2       0.3163149       78.33792
2010    8       3       0.3322334       81.71415
2010    8       4       0.2602298       67.16643
2010    8       5       0.3346715       83.02859
2010    8       6       0.4104976       97.45962
2010    8       7       0.339052        83.60717
2010    9       0       0.313548        78.20417
2010    9       1       0.3232029       80.03264
2010    9       2       0.2626888       67.88679
2010    9       3       0.1731802       48.69775
2010    9       4       0.1118058       34.14784
2010    9       5       0.1113752       33.92498
2010    9       6       0.1297536       38.31868
2010    9       7       0.1309496       38.4099
2010    10      0       0.1766428       49.3059
2010    10      1       0.174008        49.10319
2010    10      2       0.166768        47.36803
2010    10      3       0.1822887       50.59786
2010    10      4       0.1603057       45.42804
2010    10      5       0.1615465       45.67692
2010    10      6       0.1648935       46.50181
2010    10      7       0.1643608       46.38559
2010    11      0       0.1659486       46.68179
2010    11      1       0.1610026       45.46631
2010    11      2       0.1542583       43.94737
2010    11      3       0.1457672       42.02823
2010    11      4       0.151054        43.42136
2010    11      5       0.1800186       50.41859
2010    11      6       0.1843722       51.4857
2010    11      7       0.1068266       32.43984
2010    12      0       0.1043546       31.75424
2010    12      1       0.1234492       36.43182
2010    12      2       0.1565406       44.3886
2010    12      3       0.2561635       66.73266
2010    12      4       0.3248354       81.06959
2010    12      5       0.3711195       90.39263
2010    12      6       0.3938644       94.67572
2010    12      7       0.375343        90.96456
2010    13      0       0.4111917       96.84468
2010    13      1       0.4617928       104.6945
2010    13      2       0.5694276       121.3139
2010    13      3       0.721312        143.7366
2010    13      4       0.8154907       156.4281
2010    13      5       0.8335051       160.0693
2010    13      6       0.9508111       173.0712
2010    13      7       1.128645        191.1915
2010    14      0       1.496057        217.5159
2010    14      1       1.062341        183.2334
2010    14      2       0.9816078       174.7525
2010    14      3       1.224           197.4938
2010    14      4       1.340605        206.6684
2010    14      5       1.390988        209.7693
2010    14      6       1.13193         188.6498
2010    14      7       0.8835788       163.9957
2010    15      0       0.9236994       168.3007
2010    15      1       1.06987         183.3041
2010    15      2       1.226219        197.0497
2010    15      3       1.512222        218.045
2010    15      4       1.678628        226.9237
2010    15      5       1.790026        231.9661
2010    15      6       1.643188        225.4253
2010    15      7       1.621525        224.8147
2010    16      0       1.481197        216.9408
2010    16      1       1.410462        212.4519
2010    16      2       1.669382        227.6898
2010    16      3       1.898032        238.5246
2010    16      4       2.223344        250.345
2010    16      5       2.349495        253.8882
2010    16      6       2.116038        246.9987
2010    16      7       1.719129        230.6564
2010    17      0       1.663976        227.6429
2010    17      1       1.615403        224.8603
2010    17      2       1.558012        221.2398
2010    17      3       1.579348        222.8443
2010    17      4       1.571514        223.1199
2010    17      5       1.755584        232.8987
2010    17      6       1.867401        237.6285
2010    17      7       1.698809        229.1462
2010    18      0       1.45455         215.0077
2010    18      1       1.277874        202.7115
2010    18      2       1.251117        200.6197
2010    18      3       1.411994        212.6844
2010    18      4       1.150521        193.1047
2010    18      5       0.826236        160.274
2010    18      6       0.6733098       140.5922
2010    18      7       0.6403649       136.0367
2010    19      0       0.6539114       137.9396
2010    19      1       0.6622724       139.0311
2010    19      2       0.6217129       132.8368
2010    19      3       0.5736442       125.711
2010    19      4       0.5505465       122.2728
2010    19      5       0.5360599       119.9991
2010    19      6       0.4704039       109.0867
2010    19      7       0.3927944       95.10923
2010    20      0       0.367517        89.82192
2010    20      1       0.420748        99.53465
2010    20      2       0.5099961       115.1335
2010    20      3       0.6415446       135.5027
2010    20      4       0.7074681       145.0064
2010    20      5       0.6812037       141.1327
2010    20      6       0.6616043       137.9628
2010    20      7       0.6405106       134.7971
2010    21      0       0.5612213       123.0893
2010    21      1       0.5355435       118.9913
2010    21      2       0.552663        121.578
2010    21      3       0.5797331       126.1882
2010    21      4       0.6067133       130.4934
2010    21      5       0.6056022       130.2455
2010    21      6       0.6070143       130.445
2010    21      7       0.7231321       147.2308
2010    22      0       0.7936292       156.1428
2010    22      1       0.8125561       158.3812
2010    22      2       0.8108473       157.8691
2010    22      3       0.8326598       160.3998
2010    22      4       0.8625709       164.4308
2010    22      5       0.8238497       160.0581
2010    22      6       0.7913052       156.0207
2010    22      7       0.915174        170.546
2010    23      0       1.276537        203.8591
2010    23      1       1.155749        194.8475
2010    23      2       0.7656442       152.5186
2010    23      3       0.7283054       147.6631
2010    23      4       0.8755921       165.8971
2010    23      5       0.903422        168.6349
2010    23      6       0.7704032       152.5901
2010    23      7       0.6994592       142.7844
2010    24      0       0.7794945       153.6274
2010    24      1       0.8592975       164.4702
2010    24      2       0.6908388       142.8774
2010    24      3       0.8586803       164.4655
2010    24      4       1.06376         185.7621
2010    24      5       1.125784        191.3211
2010    24      6       1.057219        184.3344
2010    24      7       1.034406        181.801
2010    25      0       1.181192        194.9132
2010    25      1       1.61672         226.0278
2010    25      2       1.379661        210.2764
2010    25      3       1.494052        217.8778
2010    25      4       1.642404        226.3612
2010    25      5       1.526307        219.8393
2010    25      6       1.312578        206.1343
2010    25      7       1.147302        193.4163
2010    26      0       1.067651        186.6164
2010    26      1       0.9752342       177.9212
2010    26      2       0.900185        169.7784
2010    26      3       0.9109034       170.6615
2010    26      4       0.9148316       171.1273
2010    26      5       1.039286        184.3526
2010    26      6       0.8144361       158.2165
2010    26      7       0.7036365       143.5671
2010    27      0       0.6433614       135.0116
2010    27      1       0.5348768       118.1884
2010    27      2       0.4349577       101.352
2010    27      3       0.4748504       108.7856
2010    27      4       0.5047405       113.9214
2010    27      5       0.5875783       126.8433
2010    27      6       0.6301805       132.9784
2010    27      7       0.6313286       132.9628
2010    28      0       0.6507783       135.5793
2010    28      1       0.6558069       136.0489
2010    28      2       0.6383996       133.212
2010    28      3       0.590781        125.2631
2010    28      4       0.7283692       145.3325
2010    28      5       0.5652255       121.0662
2010    28      6       0.5810144       124.3478
2010    28      7       0.6042386       128.016
2010    29      0       0.6807133       139.8234
2010    29      1       0.7512752       150.1087
2010    29      2       0.774844        153.4767
2010    29      3       0.8243992       159.9169
2010    29      4       0.8559428       164.1943
2010    29      5       0.9873077       178.5631
2010    29      6       1.118648        190.1225
2010    29      7       0.9306463       171.7341
2010    30      0       0.8400525       161.441
2010    30      1       0.7054097       144.0658
2010    30      2       0.6111185       130.7335
2010    30      3       0.6353648       134.7315
2010    30      4       0.662216        139.2281
2010    30      5       0.728838        148.4882
2010    30      6       0.852893        163.4489
2010    30      7       0.8825964       166.7702
2011    1       0       0.2658257       68.37952
2011    1       1       0.1864987       50.83541
2011    1       2       0.2168163       58.06056
2011    1       3       0.2355255       62.3282
2011    1       4       0.2243778       60.08964
2011    1       5       0.1849327       51.35387
2011    1       6       0.1900868       52.53546
2011    1       7       0.2682963       69.79402
2011    2       0       0.3709167       90.3512
2011    2       1       0.4750979       108.8114
2011    2       2       0.5212585       116.5739
2011    2       3       0.5270264       117.8064
2011    2       4       0.5996551       129.8664
2011    2       5       0.6247716       133.7112
2011    2       6       0.6282712       134.0789
2011    2       7       0.6774021       140.8103
2011    3       0       0.6240882       133.3713
2011    3       1       0.5580454       123.4009
2011    3       2       0.5648781       124.4523
2011    3       3       0.6188084       132.8676
2011    3       4       0.6205418       133.5685
2011    3       5       0.6029722       130.9506
2011    3       6       0.6262852       133.4323
2011    3       7       0.5655121       122.7715
2011    4       0       0.4998683       110.4508
2011    4       1       0.55521         118.0118
2011    4       2       0.6542338       132.4486
2011    4       3       1.225866        195.3339
2011    4       4       1.132285        189.2868
2011    4       5       0.5532798       121.6205
2011    4       6       0.4133861       98.2149
2011    4       7       0.2774475       71.65718
2011    5       0       0.1833907       50.75282
2011    5       1       0.1852137       51.11125
2011    5       2       0.1868843       51.34697
2011    5       3       0.2046329       55.09888
2011    5       4       0.1826148       49.90895
2011    5       5       0.1769992       48.88242
2011    5       6       0.1844809       50.98037
2011    5       7       0.1813931       50.03949
2011    6       0       0.1881203       51.43123
2011    6       1       0.2347931       61.87226
2011    6       2       0.2684698       69.21873
2011    6       3       0.2408172       63.47971
2011    6       4       0.2377157       62.73802
2011    6       5       0.2569022       66.92622
2011    6       6       0.2805237       72.24956
2011    6       7       0.3012637       76.72094
2011    7       0       0.2993533       76.33959
2011    7       1       0.3128238       79.21434
2011    7       2       0.3284366       82.49393
2011    7       3       0.2942493       75.5791
2011    7       4       0.3024855       77.3416
2011    7       5       0.3133615       79.54665
2011    7       6       0.3132685       79.56328
2011    7       7       0.2911045       74.6713
2011    8       0       0.2868239       73.44655
2011    8       1       0.2944144       74.89517
2011    8       2       0.3230933       80.45861
2011    8       3       0.3593355       87.39827
2011    8       4       0.4090928       97.32544
2011    8       5       0.4508524       104.8266
2011    8       6       0.5097953       114.533
2011    8       7       0.6110851       129.7209
2011    9       0       0.6513371       134.6657
2011    9       1       0.6604454       135.2059
2011    9       2       0.6308077       130.7118
2011    9       3       0.6955805       140.906
2011    9       4       0.7365856       147.1973
2011    9       5       0.760723        151.1293
2011    9       6       0.7528222       150.2863
2011    9       7       0.7110658       144.5907
2011    10      0       0.5953323       126.3643
2011    10      1       0.4991522       110.4526
2011    10      2       0.4163882       96.15039
2011    10      3       0.4420053       102.1181
2011    10      4       0.4865915       110.4027
2011    10      5       0.5560277       121.7389
2011    10      6       0.611026        129.229
2011    10      7       0.6398921       132.313
2011    11      0       0.6278554       130.578
2011    11      1       0.5857663       124.194
2011    11      2       0.6229915       129.7668
2011    11      3       0.7897867       153.0798
2011    11      4       0.7113929       143.9207
2011    11      5       0.6393717       134.3362
2011    11      6       0.670844        138.7487
2011    11      7       0.7001909       143.0974
2011    12      0       0.5924534       127.0229
2011    12      1       0.5832801       125.0102
2011    12      2       0.5865257       125.3576
2011    12      3       0.6073387       129.3931
2011    12      4       0.6042336       129.612
2011    12      5       0.5617164       123.5685
2011    12      6       0.5355699       119.1908
2011    12      7       0.4511893       105.0784
2011    13      0       0.4040637       95.935
2011    13      1       0.3826604       91.44355
2011    13      2       0.3593227       87.11096
2011    13      3       0.3825102       92.07026
2011    13      4       0.3569803       87.38661
2011    13      5       0.3278573       81.66894
2011    13      6       0.2692298       69.46521
2011    13      7       0.2257987       60.23523
2011    14      0       0.1948615       53.10183
2011    14      1       0.1942198       52.93229
2011    14      2       0.1856474       50.94105
2011    14      3       0.2212818       59.29845
2011    14      4       0.1799946       49.96252
2011    14      5       0.1671102       47.23157
2011    14      6       0.1694665       47.9332
2011    14      7       0.1811361       50.66115
2011    15      0       0.2086634       57.0302
2011    15      1       0.2033824       55.81375
2011    15      2       0.1920717       53.04462
2011    15      3       0.1897233       52.48012
2011    15      4       0.1751314       49.11784
2011    15      5       0.182677        50.9964
2011    15      6       0.1865584       52.01443
2011    15      7       0.1292521       38.19057
2011    16      0       0.1280619       37.69729
2011    16      1       0.1749619       48.31203
2011    16      2       0.2057848       54.97431
2011    16      3       0.2231822       58.75487
2011    16      4       0.2429366       63.10851
2011    16      5       0.2905214       73.31296
2011    16      6       0.3640513       87.51096
2011    16      7       0.432224        99.01667
2011    17      0       0.444063        100.905
2011    17      1       0.4551185       103.1356
2011    17      2       0.4993985       111.6245
2011    17      3       0.5403821       118.9329
2011    17      4       0.4903483       111.2605
2011    17      5       0.4813206       109.2044
2011    17      6       0.5470548       119.0749
2011    17      7       0.6581208       136.9451
2011    18      0       0.9045961       169.7748
2011    18      1       1.03676         183.4714
2011    18      2       1.273673        203.0883
2011    18      3       1.338607        207.2399
2011    18      4       1.253217        200.7768
2011    18      5       1.226789        198.4888
2011    18      6       1.324578        206.0088
2011    18      7       1.392062        211.0977
2011    19      0       1.371368        210.017
2011    19      1       1.488865        217.6805
2011    19      2       1.619387        225.3045
2011    19      3       1.882129        238.1727
2011    19      4       2.100572        247.2651
2011    19      5       2.012349        244.5141
2011    19      6       1.824543        236.8087
2011    19      7       1.787898        235.3251
2011    20      0       1.697781        231.3066
2011    20      1       1.769529        234.1904
2011    20      2       1.881105        238.5978
2011    20      3       1.613282        226.3472
2011    20      4       1.545357        222.9534
2011    20      5       1.28443         205.5109
2011    20      6       1.069422        187.0606
2011    20      7       0.9580638       175.9318
2011    21      0       0.8255192       160.5465
2011    21      1       0.6860573       141.8437
2011    21      2       0.6060099       130.319
2011    21      3       0.635054        134.9627
2011    21      4       0.7011575       144.664
2011    21      5       0.6731706       141.001
2011    21      6       0.5046265       114.3333
2011    21      7       0.5604782       122.8399
2011    22      0       0.6486644       135.2081
2011    22      1       0.5199774       115.977
2011    22      2       0.4294794       100.856
2011    22      3       0.4168479       99.06048
2011    22      4       0.3700427       90.62022
2011    22      5       0.3169027       80.37308
2011    22      6       0.3154531       80.20643
2011    22      7       0.2944003       75.61199
2011    23      0       0.3300594       82.43422
2011    23      1       0.318828        80.20756
2011    23      2       0.3279188       82.32781
2011    23      3       0.303239        77.3523
2011    23      4       0.3193609       80.4159
2011    23      5       0.371497        90.43038
2011    23      6       0.4242228       99.93303
2011    23      7       0.405794        96.44521
2011    24      0       0.3504769       86.08158
2011    24      1       0.3323337       82.38314
2011    24      2       0.3179719       79.46855
2011    24      3       0.3294162       81.67764
2011    24      4       0.3579658       87.20234
2011    24      5       0.4092489       96.54171
2011    24      6       0.4434652       102.524
2011    24      7       0.4080126       95.92246
2011    25      0       0.4291104       99.36121
2011    25      1       0.4921765       109.7619
2011    25      2       0.4966667       110.5097
2011    25      3       0.4638416       105.9247
2011    25      4       0.5195259       115.81
2011    25      5       0.6321603       132.7022
2011    25      6       0.591442        126.326
2011    25      7       0.5275253       115.462
2011    26      0       0.4728923       106.1893
2011    26      1       0.4697257       106.397
2011    26      2       0.506145        112.8559
2011    26      3       0.5601724       121.926
2011    26      4       0.6079541       129.6245
2011    26      5       0.657149        137.3602
2011    26      6       0.5780371       125.0008
2011    26      7       0.6953934       140.3044
2011    27      0       0.6507399       133.0869
2011    27      1       0.6207996       130.8091
2011    27      2       0.7049238       142.2774
2011    27      3       0.6676626       138.355
2011    27      4       0.6609485       138.0322
2011    27      5       0.5535143       122.2126
2011    27      6       0.4604785       106.9348
2011    27      7       0.4760862       109.2146
2011    28      0       0.5008603       112.6692
2011    28      1       0.438455        102.16
2011    28      2       0.4134463       97.94884
2011    28      3       0.4754373       108.9827
2011    28      4       0.5380807       119.6007
2011    28      5       0.5727681       124.7401
2011    28      6       0.6077816       129.6715
2011    28      7       0.6430321       134.3415
2011    29      0       0.5990207       127.6418
2011    29      1       0.5622209       122.1708
2011    29      2       0.5686174       123.7408
2011    29      3       0.6312693       133.8114
2011    29      4       0.8078592       157.8957
2011    29      5       0.8059699       157.0572
2011    29      6       0.7272161       146.6222
2011    29      7       0.7094706       144.2608
2011    30      0       0.7734216       152.96
2011    30      1       0.8046374       157.6264
2011    30      2       0.7775947       154.657
2011    30      3       0.7263485       148.0291
2011    30      4       0.774623        154.2492
2011    30      5       0.8253474       160.3032
2011    30      6       0.6457792       135.6785
2011    30      7       0.6134129       130.5141
2012    1       0       0.4709997       108.1359
2012    1       1       0.4352595       101.4979
2012    1       2       0.4793392       108.834
2012    1       3       0.5577681       121.4324
2012    1       4       0.6248457       132.2396
2012    1       5       0.7526743       150.0468
2012    1       6       0.8492074       161.7816
2012    1       7       0.8399187       160.2058
2012    2       0       0.6806848       139.7612
2012    2       1       0.6017354       128.3547
2012    2       2       0.5745929       124.4532
2012    2       3       0.6015394       129.3754
2012    2       4       0.7326236       148.0567
2012    2       5       0.8501751       162.4039
2012    2       6       0.8409135       160.9192
2012    2       7       0.8133909       157.817
2012    3       0       0.7874705       155.0169
2012    3       1       0.7863019       155.0631
2012    3       2       0.7696105       152.9222
2012    3       3       0.7215474       146.888
2012    3       4       0.7650179       152.4705
2012    3       5       0.8741965       165.4563
2012    3       6       0.8823447       165.8623
2012    3       7       0.7793402       153.1042
2012    4       0       0.7914395       154.1807
2012    4       1       0.8800268       164.1838
2012    4       2       0.9094322       167.7915
2012    4       3       0.929504        171.4399
2012    4       4       0.9448543       173.7032
2012    4       5       1.01439         180.5783
2012    4       6       0.9037513       168.8936
2012    4       7       0.7654771       151.9242
2012    5       0       0.6798978       139.4509
2012    5       1       0.6576727       135.7208
2012    5       2       0.5768273       124.1369
2012    5       3       0.6196679       131.9339
2012    5       4       0.7216079       146.7061
2012    5       5       0.8755142       165.1785
2012    5       6       0.8814147       164.8148
2012    5       7       0.8647752       162.092
2012    6       0       1.004319        176.9703
2012    6       1       1.053141        182.9294
2012    6       2       1.129581        191.7582
2012    6       3       0.8204478       158.2883
2012    6       4       0.784881        153.942
2012    6       5       0.7165209       144.7774
2012    6       6       0.5969758       127.9453
2012    6       7       0.534765        118.2003
2012    7       0       0.5798289       125.1341
2012    7       1       0.6021946       128.386
2012    7       2       0.5884301       126.1679
2012    7       3       0.5471575       119.7698
2012    7       4       0.5541671       121.4688
2012    7       5       0.6311713       133.9783
2012    7       6       0.6758799       140.5118
2012    7       7       0.69642         143.6558
2012    8       0       0.7785285       154.587
2012    8       1       0.7170694       145.7769
2012    8       2       0.7274363       147.3287
2012    8       3       0.7267503       147.1353
2012    8       4       0.7292946       147.9191
2012    8       5       0.6747          140.7393
2012    8       6       0.5946955       128.9795
2012    8       7       0.5535553       122.249
2012    9       0       0.5166377       115.3779
2012    9       1       0.4799361       108.5593
2012    9       2       0.4835503       109.1146
2012    9       3       0.5463173       119.9438
2012    9       4       0.5218909       116.5687
2012    9       5       0.49982         113.4321
2012    9       6       0.5311856       118.4142
2012    9       7       0.6313593       133.4664
2012    10      0       0.604304        129.3434
2012    10      1       0.5280277       117.8342
2012    10      2       0.5077061       114.7246
2012    10      3       0.4966311       113.0702
2012    10      4       0.5448399       121.2716
2012    10      5       0.6214061       132.7123
2012    10      6       0.6233255       132.6454
2012    10      7       0.5709079       124.1718
2012    11      0       0.6432515       133.8865
2012    11      1       0.7013381       140.8062
2012    11      2       0.6646665       136.4146
2012    11      3       0.6600348       136.0063
2012    11      4       0.7007313       141.5559
2012    11      5       0.6987802       141.5281
2012    11      6       0.7158374       143.9337
2012    11      7       0.8070161       155.8018
2012    12      0       0.9573345       172.4366
2012    12      1       0.8995935       165.8591
2012    12      2       1.064849        182.5541
2012    12      3       1.125255        188.7729
2012    12      4       1.143217        190.9614
2012    12      5       1.011718        178.705
2012    12      6       0.8059559       155.7652
2012    12      7       0.6651324       137.1417
2012    13      0       0.5659843       122.423
2012    13      1       0.4405766       101.6369
2012    13      2       0.3616314       87.28015
2012    13      3       0.2622503       67.64368
2012    13      4       0.3084196       77.92186
2012    13      5       0.2630151       68.61878
2012    13      6       0.2057772       55.99519
2012    13      7       0.216481        58.31223
2012    14      0       0.230139        60.9156
2012    14      1       0.2275882       60.30028
2012    14      2       0.2524698       66.18944
2012    14      3       0.2762561       71.21528
2012    14      4       0.3249692       81.37728
2012    14      5       0.389949        93.59502
2012    14      6       0.413388        97.4362
2012    14      7       0.4463937       103.0371
2012    15      0       0.4021415       94.89393
2012    15      1       0.4797001       109.5256
2012    15      2       0.4731304       108.8854
2012    15      3       0.4971038       112.9582
2012    15      4       0.5312289       118.8871
2012    15      5       0.5331818       119.3631
2012    15      6       0.5165544       116.6309
2012    15      7       0.5848739       127.7109
2012    16      0       0.6529184       137.4893
2012    16      1       0.6497095       136.5529
2012    16      2       0.6048922       130.0455
2012    16      3       0.6291822       134.1361
2012    16      4       0.646653        136.9185
2012    16      5       0.7024935       145.7856
2012    16      6       0.5245206       117.9083
2012    16      7       0.5895433       128.1675
2012    17      0       0.6406439       135.3294
2012    17      1       0.6067301       130.0167
2012    17      2       0.5498388       120.9983
2012    17      3       0.5198524       116.6226
2012    17      4       0.5080065       115.4564
2012    17      5       0.5344633       119.6672
2012    17      6       0.4697701       108.5305
2012    17      7       0.428988        101.2672
2012    18      0       0.4297272       101.2716
2012    18      1       0.4355347       101.9663
2012    18      2       0.4623529       106.7837
2012    18      3       0.4914193       112.1404
2012    18      4       0.5417703       120.9411
2012    18      5       0.5776644       126.3283
2012    18      6       0.6247027       132.2076
2012    18      7       0.672821        138.2693
2012    19      0       0.6448808       133.5964
2012    19      1       0.6905567       139.9182
2012    19      2       0.6824617       139.2415
2012    19      3       0.6776139       139.4615
2012    19      4       0.6944196       142.8374
2012    19      5       0.7269978       147.2734
2012    19      6       0.7893074       154.9572
2012    19      7       0.8867072       166.0541
2012    20      0       1.123374        189.9989
2012    20      1       1.240975        198.9175
2012    20      2       1.364342        208.1081
2012    20      3       1.358985        208.8855
2012    20      4       1.402842        212.6527
2012    20      5       1.323487        207.5639
2012    20      6       1.164716        194.6277
2012    20      7       1.163631        194.032
2012    21      0       1.189026        196.1476
2012    21      1       1.150839        192.8569
2012    21      2       1.113132        189.1049
2012    21      3       1.030811        181.5784
2012    21      4       1.041097        182.8948
2012    21      5       1.048569        181.0777
2012    21      6       0.9792141       174.4304
2012    21      7       0.9108279       166.5462
2012    22      0       0.9110628       166.431
2012    22      1       0.9673058       172.3513
2012    22      2       1.032913        178.672
2012    22      3       1.079648        184.1695
2012    22      4       1.244224        199.8871
2012    22      5       1.616582        225.2069
2012    22      6       1.63406         226.2174
2012    22      7       1.319099        207.0245
2012    23      0       1.362221        209.1372
2012    23      1       1.209413        196.8809
2012    23      2       1.227476        198.115
2012    23      3       1.462609        214.9858
2012    23      4       1.632874        224.6797
2012    23      5       1.513721        217.982
2012    23      6       1.476094        216.0877
2012    23      7       1.401861        211.6633
2012    24      0       1.349245        208.107
2012    24      1       1.183078        195.4213
2012    24      2       1.125606        190.2046
2012    24      3       1.034297        181.849
2012    24      4       0.9406378       172.3997
2012    24      5       0.7622485       151.3185
2012    24      6       0.5824193       126.1038
2012    24      7       0.4199099       98.97088
2012    25      0       0.3242731       80.77886
2012    25      1       0.341807        83.77243
2012    25      2       0.3639138       87.84229
2012    25      3       0.3877998       92.95677
2012    25      4       0.4036558       96.11865
2012    25      5       0.459754        105.9983
2012    25      6       0.4942262       111.7617
2012    25      7       0.493489        111.769
2012    26      0       0.5249637       117.1146
2012    26      1       0.5582223       122.492
2012    26      2       0.5418851       119.95
2012    26      3       0.4491304       104.6345
2012    26      4       0.391735        94.2708
2012    26      5       0.326878        81.34888
2012    26      6       0.2707257       69.45089
2012    26      7       0.2583258       66.56976
2012    27      0       0.2888664       72.93706
2012    27      1       0.3350095       82.6116
2012    27      2       0.3541354       86.79753
2012    27      3       0.4229702       100.3622
2012    27      4       0.4243399       100.4386
2012    27      5       0.416794        98.71623
2012    27      6       0.3858366       92.95736
2012    27      7       0.3428608       84.74929
2012    28      0       0.3659291       89.22948
2012    28      1       0.4707322       108.7328
2012    28      2       0.52158         117.4902
2012    28      3       0.560415        123.8601
2012    28      4       0.6192748       132.6758
2012    28      5       0.6901497       142.531
2012    28      6       0.7651276       152.2837
2012    28      7       0.8330484       161.1158
2012    29      0       0.9999241       179.9726
2012    29      1       0.9920714       179.339
2012    29      2       1.143177        193.1898
2012    29      3       1.40583         212.7655
2012    29      4       1.768452        233.1274
2012    29      5       2.020698        243.9839
2012    29      6       1.765978        232.3457
2012    29      7       1.465253        215.2538
2012    30      0       1.236794        198.5565
2012    30      1       1.17763         193.1372
2012    30      2       1.078275        184.1956
2012    30      3       0.9270807       169.4022
2012    30      4       1.064868        183.8368
2012    30      5       1.311982        204.6384
2012    30      6       1.144318        190.8204
2012    30      7       0.8745591       163.5038
2013    1       0       0.1619427       46.01793
2013    1       1       0.1664976       47.02448
2013    1       2       0.1663091       46.83068
2013    1       3       0.191016        52.59959
2013    1       4       0.1677201       47.2786
2013    1       5       0.1689156       47.64279
2013    1       6       0.1779509       49.81131
2013    1       7       0.1631606       46.52744
2013    2       0       0.1575423       45.18535
2013    2       1       0.1400724       40.88804
2013    2       2       0.1170923       35.17146
2013    2       3       0.1531217       43.99235
2013    2       4       0.1490599       43.06008
2013    2       5       0.1729277       48.62032
2013    2       6       0.17633         49.54476
2013    2       7       0.1726845       48.85585
2013    3       0       0.1666064       47.42408
2013    3       1       0.1664228       47.23059
2013    3       2       0.1628852       46.34394
2013    3       3       0.169308        47.91978
2013    3       4       0.1763537       49.35111
2013    3       5       0.1884998       52.01785
2013    3       6       0.1922251       52.84994
2013    3       7       0.1829144       50.80664
2013    4       0       0.1827189       50.7501
2013    4       1       0.1873372       51.73399
2013    4       2       0.1861682       51.45864
2013    4       3       0.1916777       52.70111
2013    4       4       0.2149016       57.78716
2013    4       5       0.2522285       65.57141
2013    4       6       0.2907866       73.46113
2013    4       7       0.3029194       75.92675
2013    5       0       0.3637604       88.00638
2013    5       1       0.5009988       112.6691
2013    5       2       0.5276616       116.9928
2013    5       3       0.5647375       123.0965
2013    5       4       0.6076146       128.8247
2013    5       5       0.7282654       144.6932
2013    5       6       0.8124441       153.637
2013    5       7       0.6946947       139.5366
2013    6       0       0.5440221       118.4209
2013    6       1       0.4730275       107.0464
2013    6       2       0.41058         96.41351
2013    6       3       0.4275098       99.86894
2013    6       4       0.4567138       105.2622
2013    6       5       0.4538045       104.8815
2013    6       6       0.4131375       97.4795
2013    6       7       0.4103028       96.58994
2013    7       0       0.4369749       101.4009
2013    7       1       0.4161238       97.81953
2013    7       2       0.340078        83.89768
2013    7       3       0.3056076       77.00575
2013    7       4       0.309595        77.87468
2013    7       5       0.4887449       111.9913
2013    7       6       0.2622699       68.28487
2013    7       7       0.2560745       67.13026
2013    8       0       0.2844419       73.00165
2013    8       1       0.3315141       82.12361
2013    8       2       0.4143978       97.30467
2013    8       3       0.4732789       107.6375
2013    8       4       0.4995027       112.1868
2013    8       5       0.5395446       118.6226
2013    8       6       0.5067773       113.1015
2013    8       7       0.4272267       99.85357
2013    9       0       0.3968965       94.67655
2013    9       1       0.392212        93.72135
2013    9       2       0.4061636       96.25731
2013    9       3       0.4134413       97.48108
2013    9       4       0.4387559       102.0508
2013    9       5       0.4136405       97.64916
2013    9       6       0.4164241       98.4344
2013    9       7       0.5644557       123.8056
2013    10      0       0.6641161       138.6067
2013    10      1       0.6873245       141.4319
2013    10      2       0.6874428       141.299
2013    10      3       0.6312764       132.6778
2013    10      4       0.6648508       137.7909
2013    10      5       0.6725088       139.3414
2013    10      6       0.6385333       134.2622
2013    10      7       0.6579747       137.22
2013    11      0       0.7227652       146.2207
2013    11      1       0.7632423       151.5769
2013    11      2       0.68253         140.8501
2013    11      3       0.5091827       114.002
2013    11      4       0.5293492       117.868
2013    11      5       0.6267504       132.9826
2013    11      6       0.6944818       142.0461
2013    11      7       0.7250928       145.6775
2013    12      0       0.7425118       147.8839
2013    12      1       0.8254001       157.331
2013    12      2       0.7614672       150.2284
2013    12      3       0.7826095       153.5483
2013    12      4       0.8684539       164.7558
2013    12      5       0.9361653       172.5329
2013    12      6       0.8943854       168.1047
2013    12      7       0.7938398       155.7029
2013    13      0       0.8302817       159.4442
2013    13      1       0.8033028       155.951
2013    13      2       0.7234341       145.9499
2013    13      3       0.6770015       140.0042
2013    13      4       0.6752838       140.216
2013    13      5       0.724618        146.3871
2013    13      6       0.7014914       142.4058
2013    13      7       0.599294        127.567
2013    14      0       0.6052914       128.0229
2013    14      1       0.6502298       133.5873
2013    14      2       0.7964634       151.3329
2013    14      3       0.9793701       172.7631
2013    14      4       0.9592077       171.9579
2013    14      5       0.9856914       174.305
2013    14      6       0.9239822       167.5558
2013    14      7       0.8795989       163.1302
2013    15      0       0.7701031       150.861
2013    15      1       0.6193128       130.9778
2013    15      2       0.477397        108.9243
2013    15      3       0.3866769       93.2632
2013    15      4       0.3017692       77.04068
2013    15      5       0.1913808       53.03041
2013    15      6       0.125484        37.24714
2013    15      7       0.06866905      22.70504
2013    16      0       0.06484492      21.55827
2013    16      1       0.06637015      21.90979
2013    16      2       0.06941722      22.7252
2013    16      3       0.07564731      24.42822
2013    16      4       0.09037532      28.26746
2013    16      5       0.1170109       35.14054
2013    16      6       0.1394413       40.73869
2013    16      7       0.1141026       34.43421
2013    17      0       0.1497059       43.23666
2013    17      1       0.1222683       36.39724
2013    17      2       0.1217935       36.29735
2013    17      3       0.1724409       48.63116
2013    17      4       0.1817593       50.80045
2013    17      5       0.2052834       56.32303
2013    17      6       0.2270004       61.12359
2013    17      7       0.2646572       68.56473
2013    18      0       0.3665941       88.79827
2013    18      1       0.3346503       82.75644
2013    18      2       0.3322641       82.22119
2013    18      3       0.4156711       98.21339
2013    18      4       0.4831156       110.3523
2013    18      5       0.5507599       121.626
2013    18      6       0.6661331       138.1895
2013    18      7       0.7734902       151.8354
2013    19      0       0.7236695       144.9897
2013    19      1       0.6171241       129.852
2013    19      2       0.5834793       124.6423
2013    19      3       0.5983652       127.2154
2013    19      4       0.6009776       128.1297
2013    19      5       0.6016956       128.7755
2013    19      6       0.5010026       112.9461
2013    19      7       0.3344891       82.85845
2013    20      0       0.252161        65.89813
2013    20      1       0.2122191       57.17933
2013    20      2       0.2068269       55.69357
2013    20      3       0.243861        64.00388
2013    20      4       0.2532031       66.18788
2013    20      5       0.3882872       94.22887
2013    20      6       0.2153915       57.84764
2013    20      7       0.2446004       64.0456
2013    21      0       0.2769901       70.44008
2013    21      1       0.2974789       74.48343
2013    21      2       0.325713        80.29498
2013    21      3       0.3733291       90.14787
2013    21      4       0.4064196       96.79977
2013    21      5       0.3924001       94.3057
2013    21      6       0.386675        93.24078
2013    21      7       0.399762        95.31809
2013    22      0       0.464153        106.0878
2013    22      1       0.6958764       142.8318
2013    22      2       1.105023        190.7298
2013    22      3       0.9730932       178.4544
2013    22      4       0.9996268       180.8654
2013    22      5       0.9991785       180.1671
2013    22      6       0.9869077       177.8418
2013    22      7       0.990185        177.7007
2013    23      0       1.031327        182.2615
2013    23      1       1.065967        186.642
2013    23      2       1.155019        194.7203
2013    23      3       1.08706         188.437
2013    23      4       1.173076        195.9642
2013    23      5       1.457266        217.5625
2013    23      6       1.552932        223.526
2013    23      7       1.360393        211.1098
2013    24      0       1.378779        211.8127
2013    24      1       1.21872         198.6505
2013    24      2       1.115137        189.9863
2013    24      3       1.048115        184.3389
2013    24      4       1.326581        208.5139
2013    24      5       1.587747        224.462
2013    24      6       1.488702        218.4202
2013    24      7       1.389068        211.5588
2013    25      0       1.37746         210.5373
2013    25      1       1.417778        213.086
2013    25      2       1.32733         206.9616
2013    25      3       1.240773        200.855
2013    25      4       1.43356         215.081
2013    25      5       1.688261        229.8651
2013    25      6       1.734313        231.6838
2013    25      7       1.752444        231.8617
2013    26      0       1.78087         232.7146
2013    26      1       1.722439        229.436
2013    26      2       1.531553        219.1233
2013    26      3       1.425536        212.5718
2013    26      4       1.183608        195.6171
2013    26      5       1.031196        182.7609
2013    26      6       1.055546        185.2931
2013    26      7       0.955982        174.8768
2013    27      0       0.9169635       169.8299
2013    27      1       0.9173186       169.5092
2013    27      2       0.8667026       163.95
2013    27      3       0.7945802       156.2535
2013    27      4       0.7480482       151.2581
2013    27      5       0.7494195       151.3104
2013    27      6       0.7388098       149.5526
2013    27      7       0.7314771       148.7392
2013    28      0       0.8210838       159.9099
2013    28      1       0.8783111       166.4976
2013    28      2       0.8537686       164.2401
2013    28      3       0.8268442       161.1994
2013    28      4       0.904542        170.1014
2013    28      5       0.9786162       177.3839
2013    28      6       0.8677043       164.4051
2013    28      7       0.7982983       155.2135
2013    29      0       0.7656487       150.6071
2013    29      1       0.646412        134.661
2013    29      2       0.5937721       127.4358
2013    29      3       0.5332257       118.8575
2013    29      4       0.5259396       118.2837
2013    29      5       0.5867185       128.1447
2013    29      6       0.6712469       139.8226
2013    29      7       0.7146242       144.452
2013    30      0       0.6943813       140.7094
2013    30      1       0.7370051       145.4721
2013    30      2       0.6875962       139.379
2013    30      3       0.7424357       148.0981
2013    30      4       0.7309165       147.1815
2013    30      5       0.6778394       140.0719
2013    30      6       0.6088394       129.8759
2013    30      7       0.5336311       117.6618
2014    1       0       1.112357        187.1897
2014    1       1       1.01144         178.1638
2014    1       2       0.9145351       167.8583
2014    1       3       0.797149        154.6664
2014    1       4       0.7564071       149.6932
2014    1       5       0.7737654       151.7325
2014    1       6       0.7053454       142.8497
2014    1       7       0.6437638       134.0522
2014    2       0       0.7586152       148.8431
2014    2       1       1.021203        177.1551
2014    2       2       1.00996         175.6876
2014    2       3       0.8314673       157.1057
2014    2       4       0.7179428       143.8377
2014    2       5       0.7951842       154.1551
2014    2       6       0.730596        146.2413
2014    2       7       0.6929463       141.1454
2014    3       0       0.6003233       127.6721
2014    3       1       0.4399822       101.9724
2014    3       2       0.2995496       75.6717
2014    3       3       0.300257        76.19823
2014    3       4       0.2296338       61.4764
2014    3       5       0.1671817       47.27222
2014    3       6       0.1334312       39.15404
2014    3       7       0.06461732      21.71048
2014    4       0       0.06304538      21.30441
2014    4       1       0.07256221      23.82031
2014    4       2       0.07060676      23.30179
2014    4       3       0.08207521      26.3943
2014    4       4       0.08645239      27.51784
2014    4       5       0.09121998      28.72459
2014    4       6       0.09269892      29.03593
2014    4       7       0.1416372       41.00185
2014    5       0       0.1933797       52.98138
2014    5       1       0.2037233       55.39311
2014    5       2       0.2005057       54.96008
2014    5       3       0.2579977       67.88212
2014    5       4       0.3106564       78.79462
2014    5       5       0.3942689       94.68491
2014    5       6       0.4663079       107.3706
2014    5       7       0.5112931       114.6298
2014    6       0       0.5660288       123.0843
2014    6       1       0.6352716       133.4862
2014    6       2       0.734213        147.2312
2014    6       3       0.8507565       161.1073
2014    6       4       1.120617        188.3188
2014    6       5       1.123435        188.3086
2014    6       6       1.121798        188.4703
2014    6       7       1.139133        189.6656
2014    7       0       1.193151        194.1295
2014    7       1       1.143593        190.4379
2014    7       2       1.146992        190.85
2014    7       3       1.11413         187.9627
2014    7       4       1.116554        188.3154
2014    7       5       1.230865        198.0224
2014    7       6       1.268442        201.1302
2014    7       7       1.287604        202.7716
2014    8       0       1.206475        196.2216
2014    8       1       1.066654        183.8975
2014    8       2       0.977312        175.3018
2014    8       3       1.064842        184.5982
2014    8       4       1.266966        202.2424
2014    8       5       1.238266        201.0373
2014    8       6       1.118279        190.4723
2014    8       7       0.9987775       178.7536
2014    9       0       1.02422         180.5016
2014    9       1       1.018756        179.7854
2014    9       2       0.9895239       176.9331
2014    9       3       0.9832828       177.2158
2014    9       4       1.042419        183.4834
2014    9       5       1.101767        188.7661
2014    9       6       1.04923         183.5185
2014    9       7       0.9906999       177.6738
2014    10      0       1.019715        180.8036
2014    10      1       1.185223        196.5416
2014    10      2       1.255838        202.0339
2014    10      3       1.300536        205.2102
2014    10      4       1.58861         223.9963
2014    10      5       1.449725        215.6118
2014    10      6       1.375779        210.7931
2014    10      7       1.058026        184.205
2014    11      0       1.129845        190.2748
2014    11      1       1.24862         199.5222
2014    11      2       1.461742        213.876
2014    11      3       1.420172        212.1882
2014    11      4       1.607146        224.3265
2014    11      5       1.495737        218.4413
2014    11      6       1.347611        208.7419
2014    11      7       1.10075         188.7871
2014    12      0       1.045721        183.4125
2014    12      1       0.8839271       166.2267
2014    12      2       1.357776        210.4401
2014    12      3       0.5285027       117.8025
2014    12      4       0.4150156       98.55035
2014    12      5       0.255088        66.84376
2014    12      6       0.1649816       46.55736
2014    12      7       0.1051489       32.06306
2014    13      0       0.07353053      23.94485
2014    13      1       0.06794042      22.48879
2014    13      2       0.07824275      25.1643
2014    13      3       0.1121129       33.80427
2014    13      4       0.1135925       34.20136
2014    13      5       0.1306865       38.54897
2014    13      6       0.1305815       38.56184
2014    13      7       0.1147401       34.67698
2014    14      0       0.1105347       33.55713
2014    14      1       0.1393121       40.56424
2014    14      2       0.1629051       46.09825
2014    14      3       0.204684        55.84025
2014    14      4       0.2178692       58.95371
2014    14      5       0.2213143       59.75052
2014    14      6       0.178284        50.00857
2014    14      7       0.1288627       38.19827
2014    15      0       0.1326714       39.01306
2014    15      1       0.1579259       44.92299
2014    15      2       0.1754985       48.96838
2014    15      3       0.2041075       55.56784
2014    15      4       0.2414163       63.96226
2014    15      5       0.2901605       74.04968
2014    15      6       0.2873888       73.34538
2014    15      7       0.3099137       77.634
2014    16      0       0.4118264       96.93013
2014    16      1       0.4690464       106.9498
2014    16      2       0.5414526       119.2572
2014    16      3       0.6023267       129.0014
2014    16      4       0.819579        158.7483
2014    16      5       1.283382        203.8772
2014    16      6       1.12643         190.4705
2014    16      7       0.8399997       161.7755
2014    17      0       0.6789489       140.5543
2014    17      1       0.4668422       107.1046
2014    17      2       0.3976692       94.76154
2014    17      3       0.3267823       81.46499
2014    17      4       0.3273237       81.85236
2014    17      5       0.3349479       83.20034
2014    17      6       0.3505866       86.24207
2014    17      7       0.3039089       76.78367
2014    18      0       0.3137813       78.62678
2014    18      1       0.3379333       83.10878
2014    18      2       0.337401        83.08121
2014    18      3       0.3271498       81.39441
2014    18      4       0.3374274       83.59294
2014    18      5       0.3491618       85.63284
2014    18      6       0.3356373       82.73962
2014    18      7       0.2865101       72.84151
2014    19      0       0.2680794       69.09993
2014    19      1       0.2698703       69.54304
2014    19      2       0.2882707       73.36746
2014    19      3       0.3656075       88.78277
2014    19      4       0.4198658       98.78754
2014    19      5       0.4365567       101.6981
2014    19      6       0.4709362       107.9803
2014    19      7       0.4558551       105.3364
2014    20      0       0.4682393       107.3327
2014    20      1       0.4705988       107.6227
2014    20      2       0.4329956       101.0114
2014    20      3       0.4493111       104.2006
2014    20      4       0.4847245       110.6824
2014    20      5       0.4827347       110.6297
2014    20      6       0.4326685       101.8427
2014    20      7       0.3855183       93.09262
2014    21      0       0.381104        91.83443
2014    21      1       0.4154268       98.16448
2014    21      2       0.394711        94.42379
2014    21      3       0.4303848       100.911
2014    21      4       0.4406905       102.7687
2014    21      5       0.4702313       108.0454
2014    21      6       0.4932571       111.699
2014    21      7       0.5074207       113.6543
2014    22      0       0.4313622       100.4773
2014    22      1       0.4425177       102.5321
2014    22      2       0.4913083       110.2793
2014    22      3       0.6954616       139.1397
2014    22      4       0.7873307       150.9648
2014    22      5       0.5484471       118.9301
2014    22      6       0.4355035       101.6177
2014    22      7       0.2542296       66.07098
2014    23      0       0.206024        55.62493
2014    23      1       0.1954087       53.08607
2014    23      2       0.1945442       52.99187
2014    23      3       0.2325468       61.74771
2014    23      4       0.2137977       57.79896
2014    23      5       0.2001113       54.81135
2014    23      6       0.1816499       50.64344
2014    23      7       0.1208617       35.8773
2014    24      0       0.1387573       39.92291
2014    24      1       0.1679664       46.70554
2014    24      2       0.189678        51.88391
2014    24      3       0.2596808       67.76213
2014    24      4       0.273183        70.81134
2014    24      5       0.2810737       72.69809
2014    24      6       0.2705736       70.60976
2014    24      7       0.3086644       78.69802
2014    25      0       0.3738449       91.23169
2014    25      1       0.4284022       101.0424
2014    25      2       0.4415957       103.388
2014    25      3       0.407157        97.13554
2014    25      4       0.4178154       99.59883
2014    25      5       0.4631966       107.825
2014    25      6       0.563168        124.1397
2014    25      7       0.705035        144.3158
2014    26      0       0.7992255       155.4391
2014    26      1       0.6933751       141.6723
2014    26      2       0.6231785       131.4668
2014    26      3       0.5787765       124.6399
2014    26      4       0.635561        133.6619
2014    26      5       0.7804838       153.5245
2014    26      6       0.8501774       161.7233
2014    26      7       0.7411166       148.7407
2014    27      0       0.6203571       132.0698
2014    27      1       0.4709267       107.893
2014    27      2       0.3374233       83.49595
2014    27      3       0.3359525       83.64671
2014    27      4       0.2927242       74.80851
2014    27      5       0.2351162       62.30313
2014    27      6       0.1970309       53.67522
2014    27      7       0.1655054       46.29915
2014    28      0       0.1534883       43.41358
2014    28      1       0.1971266       53.29281
2014    28      2       0.2223274       58.88702
2014    28      3       0.3079506       77.44996
2014    28      4       0.3148791       79.20347
2014    28      5       0.26403         68.81581
2014    28      6       0.2314406       61.81943
2014    28      7       0.2306471       61.55748
2014    29      0       0.2397604       63.48789
2014    29      1       0.2632164       68.53061
2014    29      2       0.274935        70.89502
2014    29      3       0.3183973       80.14395
2014    29      4       0.2981754       76.2782
2014    29      5       0.2765559       71.87871
2014    29      6       0.2911812       74.87042
2014    29      7       0.3433392       85.21453
2014    30      0       0.4035463       96.49391
2014    30      1       0.4085078       97.21393
2014    30      2       0.529901        118.8128
2014    30      3       0.3406375       84.69329
2014    30      4       0.3512188       86.86551
2014    30      5       0.3886095       93.47614
2014    30      6       0.4158501       97.82082
2014    30      7       0.4546338       104.2839
2015    1       0       0.51556         115.3522
2015    1       1       0.5375745       118.7561
2015    1       2       0.4971172       111.849
2015    1       3       0.4631311       106.0896
2015    1       4       0.4450077       102.9899
2015    1       5       0.3986391       94.67381
2015    1       6       0.3115826       78.14204
2015    1       7       0.2289193       60.9441
2015    2       0       0.2078716       56.36675
2015    2       1       0.1682714       47.2029
2015    2       2       0.142003        40.93394
2015    2       3       0.1310404       38.20065
2015    2       4       0.1766892       49.18999
2015    2       5       0.1625349       45.93714
2015    2       6       0.1696608       47.60495
2015    2       7       0.1650992       46.56545
2015    3       0       0.1563347       44.45173
2015    3       1       0.1510139       43.12492
2015    3       2       0.1794992       49.68764
2015    3       3       0.276157        70.54211
2015    3       4       0.384591        91.46994
2015    3       5       0.4554943       104.2635
2015    3       6       0.4733479       107.1666
2015    3       7       0.4325981       99.82021
2015    4       0       0.4222332       97.89706
2015    4       1       0.4110195       96.05768
2015    4       2       0.4418301       101.5135
2015    4       3       0.4616132       105.2375
2015    4       4       0.5007942       112.2761
2015    4       5       0.5908383       126.2799
2015    4       6       0.5968114       126.8189
2015    4       7       0.5727932       123.2297
2015    5       0       0.5456323       119.2265
2015    5       1       0.5381479       118.2963
2015    5       2       0.5556864       120.9225
2015    5       3       0.648256        134.9605
2015    5       4       0.7088072       143.9682
2015    5       5       0.8355403       159.9378
2015    5       6       1.046208        181.6546
2015    5       7       1.369172        207.1604
2015    6       0       1.391506        208.8459
2015    6       1       1.312256        203.3679
2015    6       2       1.176489        193.7364
2015    6       3       0.8859556       165.9605
2015    6       4       0.9860583       177.6367
2015    6       5       1.180993        195.5601
2015    6       6       1.152959        193.3873
2015    6       7       0.9409768       173.204
2015    7       0       0.9640491       174.8388
2015    7       1       0.8421419       161.2845
2015    7       2       0.6976905       143.1037
2015    7       3       0.6236761       132.1097
2015    7       4       0.632712        134.0069
2015    7       5       0.5909401       127.1443
2015    7       6       0.5027667       112.5683
2015    7       7       0.3059301       74.56836
2015    8       0       0.4851164       108.8199
2015    8       1       0.5666014       122.2669
2015    8       2       0.6038311       128.2201
2015    8       3       0.6108415       129.5179
2015    8       4       0.6239923       132.3996
2015    8       5       0.659103        138.1022
2015    8       6       0.6907812       142.5446
2015    8       7       0.6890716       142.1376
2015    9       0       0.6427864       135.3615
2015    9       1       0.5954733       128.255
2015    9       2       0.579451        125.6793
2015    9       3       0.5683876       123.9617
2015    9       4       0.5568975       122.4186
2015    9       5       0.5835545       126.7947
2015    9       6       0.6320602       133.9744
2015    9       7       0.6153591       131.4454
2015    10      0       0.5932038       127.4692
2015    10      1       0.6002903       128.5494
2015    10      2       0.6158849       131.1472
2015    10      3       0.6759343       140.3205
2015    10      4       0.807077        158.0768
2015    10      5       0.97156         176.1891
2015    10      6       1.046006        183.0243
2015    10      7       1.005159        179.6023
2015    11      0       1.071121        185.6255
2015    11      1       1.283106        202.5645
2015    11      2       1.166463        193.4965
2015    11      3       1.034293        182.3557
2015    11      4       1.011163        180.4401
2015    11      5       0.9513644       174.3782
2015    11      6       0.8482989       163.0018
2015    11      7       0.7557288       150.6857
2015    12      0       0.7447753       148.5165
2015    12      1       0.6765263       138.9554
2015    12      2       0.6290991       131.5034
2015    12      3       0.6057286       128.6151
2015    12      4       0.6290067       132.5077
2015    12      5       0.5883663       126.5574
2015    12      6       0.5329248       117.575
2015    12      7       0.5667403       121.587
2015    13      0       0.6269713       129.3499
2015    13      1       0.5205323       113.7446
2015    13      2       0.484027        107.9392
2015    13      3       0.4964654       110.329
2015    13      4       0.53588         116.8282
2015    13      5       0.5209102       114.9111
2015    13      6       0.4956426       110.6637
2015    13      7       0.4169241       97.10446
2015    14      0       0.3380753       82.69929
2015    14      1       0.3035054       76.13477
2015    14      2       0.2973804       75.17248
2015    14      3       0.3222662       80.40288
2015    14      4       0.310484        78.25492
2015    14      5       0.2836096       72.74937
2015    14      6       0.2652156       68.76135
2015    14      7       0.2419289       63.63944
2015    15      0       0.227061        60.21789
2015    15      1       0.2385857       62.56731
2015    15      2       0.2272254       60.06575
2015    15      3       0.26414         68.2546
2015    15      4       0.2756904       70.80638
2015    15      5       0.3742019       91.74585
2015    15      6       0.218945        59.46589
2015    15      7       0.1960936       54.27619
2015    16      0       0.1912094       52.99421
2015    16      1       0.1813729       50.61174
2015    16      2       0.1917264       53.00256
2015    16      3       0.2271209       61.16018
2015    16      4       0.2417816       64.54295
2015    16      5       0.2091915       57.44149
2015    16      6       0.2265403       61.30002
2015    16      7       0.1861676       51.97742
2015    17      0       0.199285        54.67867
2015    17      1       0.2250792       60.3457
2015    17      2       0.2264317       60.88117
2015    17      3       0.2164046       58.80755
2015    17      4       0.2066524       56.67282
2015    17      5       0.209707        57.44595
2015    17      6       0.215798        58.74949
2015    17      7       0.1637579       46.42721
2015    18      0       0.1373647       39.92337
2015    18      1       0.160855        45.4444
2015    18      2       0.194937        53.39825
2015    18      3       0.1865475       51.64212
2015    18      4       0.1714868       48.06876
2015    18      5       0.1722279       48.342
2015    18      6       0.1902002       52.70858
2015    18      7       0.1690778       47.83828
2015    19      0       0.1790806       50.2354
2015    19      1       0.204793        56.15189
2015    19      2       0.2233172       60.22401
2015    19      3       0.240116        63.7381
2015    19      4       0.2356881       63.02711
2015    19      5       0.2295895       61.94836
2015    19      6       0.222364        60.34988
2015    19      7       0.1246782       37.09604
2015    20      0       0.1287435       38.05166
2015    20      1       0.1214535       36.29202
2015    20      2       0.122311        36.28404
2015    20      3       0.1687802       47.44612
2015    20      4       0.1834506       50.86296
2015    20      5       0.2242112       60.18903
2015    20      6       0.2630553       68.36587
2015    20      7       0.1918448       52.34751
2015    21      0       0.1568939       43.95379
2015    21      1       0.1299712       37.30421
2015    21      2       0.06901747      22.57171
2015    21      3       0.1746595       48.93741
2015    21      4       0.1709675       48.13914
2015    21      5       0.1933219       53.11424
2015    21      6       0.1894936       52.22595
2015    21      7       0.1549235       44.40921
2015    22      0       0.1402565       40.9401
2015    22      1       0.1335722       39.3163
2015    22      2       0.1298006       38.40982
2015    22      3       0.141773        41.32015
2015    22      4       0.1620996       46.1284
2015    22      5       0.203531        55.48106
2015    22      6       0.2347938       62.17077
2015    22      7       0.2874092       72.89075
2015    23      0       0.3608113       87.09461
2015    23      1       0.3906216       92.57038
2015    23      2       0.4058148       95.41142
2015    23      3       0.420095        98.16416
2015    23      4       0.4708844       107.5458
2015    23      5       0.5570312       121.7664
2015    23      6       0.6261541       132.1817
2015    23      7       0.6314779       133.0298
2015    24      0       0.5693422       123.5835
2015    24      1       0.4533109       103.5965
2015    24      2       0.4259004       99.07548
2015    24      3       0.4383809       101.2832
2015    24      4       0.4431109       102.7462
2015    24      5       0.4851376       110.6125
2015    24      6       0.5597471       123.528
2015    24      7       0.603143        130.4628
2015    25      0       0.6270828       133.6597
2015    25      1       0.6721217       139.9421
2015    25      2       0.6845786       141.7914
2015    25      3       0.5746841       125.2476
2015    25      4       0.5539396       122.3488
2015    25      5       0.5075596       115.2708
2015    25      6       0.8235565       161.8891
2015    25      7       0.4289878       101.397
2015    26      0       0.4144637       98.09314
2015    26      1       0.3536797       86.17872
2015    26      2       0.2902426       73.3156
2015    26      3       0.1999969       54.14202
2015    26      4       0.2131743       56.89241
2015    26      5       0.2334014       61.72284
2015    26      6       0.233199        61.8207
2015    26      7       0.2460197       64.51083
2015    27      0       0.2811588       71.91278
2015    27      1       0.2853334       72.71626
2015    27      2       0.4468814       104.1005
2015    27      3       0.3341287       82.58869
2015    27      4       0.3528069       86.2281
2015    27      5       0.3522751       86.23976
2015    27      6       0.3202259       80.14538
2015    27      7       0.282388        72.71058
2015    28      0       0.2533854       66.76598
2015    28      1       0.2340242       62.55612
2015    28      2       0.2229794       60.08576
2015    28      3       0.2245973       60.42565
2015    28      4       0.284791        73.16043
2015    28      5       0.3525856       86.5377
2015    28      6       0.4001999       95.15376
2015    28      7       0.3661539       88.95905
2015    29      0       0.4147323       97.60917
2015    29      1       0.5026965       113.1501
2015    29      2       0.5845957       127.5279
2015    29      3       0.5924216       129.1633
2015    29      4       0.6727361       140.5802
2015    29      5       0.8418006       160.9933
2015    29      6       0.8375359       159.8498
2015    29      7       0.7022821       143.1284
2015    30      0       0.641779        134.9866
2015    30      1       0.6720027       139.6455
2015    30      2       0.656863        138.1219
2015    30      3       0.7095047       146.2825
2015    30      4       0.8609281       164.9063
2015    30      5       1.10803         189.4974
2015    30      6       1.058187        184.5654
2015    30      7       0.9823317       176.6543
2016    1       0       0.7514143       149.374
2016    1       1       0.6765505       139.5537
2016    1       2       0.6702089       139.1091
2016    1       3       0.6616358       137.7703
2016    1       4       0.6417233       135.1351
2016    1       5       0.6958686       142.4457
2016    1       6       0.7346922       147.245
2016    1       7       0.7213595       144.718
2016    2       0       0.7404479       146.6411
2016    2       1       0.7352138       146.0116
2016    2       2       0.6575727       135.5304
2016    2       3       0.6892096       141.5945
2016    2       4       0.7504176       149.772
2016    2       5       0.833127        160.0455
2016    2       6       0.8201307       158.8284
2016    2       7       0.7664135       152.0751
2016    3       0       0.7790992       152.823
2016    3       1       0.8369887       159.4668
2016    3       2       0.7714403       151.6024
2016    3       3       0.8386942       159.3672
2016    3       4       0.925105        169.339
2016    3       5       0.9910253       177.0113
2016    3       6       1.033016        180.7421
2016    3       7       1.02179         179.7883
2016    4       0       0.9650653       174.6082
2016    4       1       0.9834268       176.3107
2016    4       2       0.9385863       171.5399
2016    4       3       1.064904        183.6428
2016    4       4       1.107886        188.0427
2016    4       5       0.9654154       174.9331
2016    4       6       1.003541        179.7379
2016    4       7       0.9785893       174.683
2016    5       0       1.029007        179.3399
2016    5       1       1.073064        183.4276
2016    5       2       1.275102        199.7023
2016    5       3       1.332093        205.1532
2016    5       4       1.314906        204.2908
2016    5       5       1.200253        195.0398
2016    5       6       0.9977652       176.1104
2016    5       7       0.8562434       160.9556
2016    6       0       0.8343137       159.3122
2016    6       1       0.7962823       155.1588
2016    6       2       0.7513849       149.8534
2016    6       3       0.7414034       148.8705
2016    6       4       0.9426814       173.4059
2016    6       5       1.249474        202.4853
2016    6       6       1.155049        193.3143
2016    6       7       1.061802        184.964
2016    7       0       1.223938        199.0277
2016    7       1       1.296502        204.5558
2016    7       2       1.219669        198.8528
2016    7       3       1.777107        236.734
2016    7       4       1.360169        209.9889
2016    7       5       1.650203        227.59
2016    7       6       1.37268         210.4149
2016    7       7       1.185746        195.9774
2016    8       0       1.050327        183.3211
2016    8       1       0.7991096       155.7755
2016    8       2       0.70936         144.1697
2016    8       3       0.7163261       145.3008
2016    8       4       0.7846605       154.6882
2016    8       5       0.8352501       161.1765
2016    8       6       0.7626265       151.9743
2016    8       7       0.7372952       148.6807
2016    9       0       0.7295311       147.5743
2016    9       1       0.6857542       141.7067
2016    9       2       0.6513223       136.8663
2016    9       3       1.300944        208.8895
2016    9       4       0.7128035       146.7208
2016    9       5       0.7502179       151.4921
2016    9       6       0.7188618       147.3585
2016    9       7       0.7531507       152.0039
2016    10      0       0.7748158       153.964
2016    10      1       0.7038137       144.4318
2016    10      2       0.617739        132.22
2016    10      3       0.4906745       112.4083
2016    10      4       0.4625169       108.0463
2016    10      5       0.4817724       111.3888
2016    10      6       0.4905135       112.6687
2016    10      7       0.5009193       114.3928
2016    11      0       0.8537509       165.4873
2016    11      1       0.4621891       106.3637
2016    11      2       0.3503891       85.95539
2016    11      3       0.3232363       80.79981
2016    11      4       0.3414528       84.43253
2016    11      5       0.3527845       86.74163
2016    11      6       0.3329962       81.82699
2016    11      7       0.2766462       70.43207
2016    12      0       0.2555696       65.69359
2016    12      1       0.2663792       67.84926
2016    12      2       0.2614676       66.99096
2016    12      3       0.2844633       72.30416
2016    12      4       0.2845514       72.43925
2016    12      5       0.29584         74.89691
2016    12      6       0.2958803       74.96594
2016    12      7       0.2682289       69.22961
2016    13      0       0.2408714       63.22295
2016    13      1       0.2608968       67.62493
2016    13      2       0.2325478       61.61493
2016    13      3       0.2346519       62.30189
2016    13      4       0.2190177       58.80837
2016    13      5       0.2396009       63.52999
2016    13      6       0.2871819       73.89112
2016    13      7       0.2697231       70.10729
2016    14      0       0.25443         66.73244
2016    14      1       0.2667248       69.21854
2016    14      2       0.2849811       72.93307
2016    14      3       0.3205188       80.48077
2016    14      4       0.3891937       94.07057
2016    14      5       0.4155959       98.73223
2016    14      6       0.3630662       88.6387
2016    14      7       0.3285282       81.42826
2016    15      0       0.3600585       87.29645
2016    15      1       0.3729632       90.1743
2016    15      2       0.4701384       108.2935
2016    15      3       0.6012221       129.9177
2016    15      4       0.6585206       138.2316
2016    15      5       0.5880552       127.3179
2016    15      6       0.519756        115.9875
2016    15      7       0.5653207       123.1189
2016    16      0       0.577542        124.5862
2016    16      1       0.5358774       117.6874
2016    16      2       0.4931414       110.9494
2016    16      3       0.4507196       104.5627
2016    16      4       0.5183666       116.8473
2016    16      5       0.449325        104.6587
2016    16      6       0.378377        91.07907
2016    16      7       0.3632871       88.18292
2016    17      0       0.3297694       80.97088
2016    17      1       0.3873494       92.39941
2016    17      2       0.3984606       94.34538
2016    17      3       0.4126876       97.50214
2016    17      4       0.4275534       100.6749
2016    17      5       0.4187938       98.82338
2016    17      6       0.3619763       88.07819
2016    17      7       0.3902359       92.97098
2016    18      0       0.4035383       94.9571
2016    18      1       0.4161946       97.25336
2016    18      2       0.4344459       100.4054
2016    18      3       0.4942816       111.1208
2016    18      4       0.5202987       115.8713
2016    18      5       0.5771856       125.0169
2016    18      6       0.5961027       127.4767
2016    18      7       0.5735653       124.0305
2016    19      0       0.5856638       126.5069
2016    19      1       0.6013539       129.4518
2016    19      2       0.5976216       128.8494
2016    19      3       0.5455498       120.2396
2016    19      4       0.6003514       129.4742
2016    19      5       0.6626873       138.5463
2016    19      6       0.5834618       126.512
2016    19      7       0.5412076       119.8132
2016    20      0       0.5662319       123.4195
2016    20      1       0.5914481       126.4161
2016    20      2       0.5636931       121.9563
2016    20      3       0.5536279       121.0723
2016    20      4       0.5580269       122.1599
2016    20      5       0.6244711       131.672
2016    20      6       0.6703515       137.8072
2016    20      7       0.6802468       140.5277
2016    21      0       0.7294531       147.0541
2016    21      1       0.6846765       140.7386
2016    21      2       0.6678433       137.8625
2016    21      3       0.7333982       146.1592
2016    21      4       0.7649157       151.3294
2016    21      5       1.09103         186.6938
2016    21      6       1.605492        224.5098
2016    21      7       1.383024        211.7977
2016    22      0       1.33589         208.8589
2016    22      1       1.294458        205.583
2016    22      2       1.366818        210.1634
2016    22      3       1.381341        210.737
2016    22      4       1.711039        230.5437
2016    22      5       1.768472        233.3211
2016    22      6       1.301701        206.7244
2016    22      7       1.409414        213.9331
2016    23      0       1.223567        200.5221
2016    23      1       1.031268        183.6924
2016    23      2       0.9807322       178.6912
2016    23      3       0.9905764       179.8964
2016    23      4       0.9577029       176.6679
2016    23      5       1.017519        182.5773
2016    23      6       0.993071        179.4221
2016    23      7       0.8971829       168.6042
2016    24      0       1.000754        178.6764
2016    24      1       0.8764588       165.2129
2016    24      2       0.8384563       160.9318
2016    24      3       0.7968462       157.0141
2016    24      4       0.8007402       158.2561
2016    24      5       1.007474        180.7804
2016    24      6       0.857724        163.8377
2016    24      7       0.7180602       145.5415
2016    25      0       0.691424        141.7127
2016    25      1       0.6205351       131.5913
2016    25      2       0.5100077       114.6098
2016    25      3       0.5546145       122.3923
2016    25      4       0.5583541       123.6518
2016    25      5       0.5966728       129.6426
2016    25      6       0.6042068       130.3952
2016    25      7       0.5291777       118.1882
2016    26      0       0.4662758       107.3789
2016    26      1       0.4418495       103.0152
2016    26      2       0.5003892       113.5554
2016    26      3       0.4355116       102.1429
2016    26      4       0.4791269       109.7709
2016    26      5       0.5351164       118.9969
2016    26      6       0.5881794       127.3937
2016    26      7       0.6420429       135.6163
2016    27      0       0.6325565       134.278
2016    27      1       0.5872713       127.2593
2016    27      2       0.5631088       123.8959
2016    27      3       0.6733573       141.4969
2016    27      4       0.7800687       156.1304
2016    27      5       0.7972002       157.395
2016    27      6       0.6964207       143.3782
2016    27      7       0.6658802       139.2446
2016    28      0       0.7153896       145.776
2016    28      1       0.7306091       147.8001
2016    28      2       0.6839583       141.6212
2016    28      3       0.7263833       148.5313
2016    28      4       0.7393522       150.6535
2016    28      5       0.7271692       148.8363
2016    28      6       0.7620032       153.1903
2016    28      7       0.8025793       158.4974
2016    29      0       0.8302385       161.5208
2016    29      1       0.8423912       162.7195
2016    29      2       0.8381737       162.1172
2016    29      3       0.8698713       166.6393
2016    29      4       0.8541616       165.2599
2016    29      5       0.8217202       161.5099
2016    29      6       0.7463087       151.283
2016    29      7       0.6508342       137.7424
2016    30      0       0.6388254       135.6857
2016    30      1       0.6735348       140.8397
2016    30      2       0.6631994       139.6308
2016    30      3       0.6457926       137.4244
2016    30      4       0.672433        141.398
2016    30      5       0.7210468       147.8774
2016    30      6       0.8355817       161.7813
2016    30      7       0.8678211       165.5323
2017    1       0       1.252578        201.552
2017    1       1       1.335368        207.2949
2017    1       2       1.351842        208.1773
2017    1       3       1.526763        219.4998
2017    1       4       1.593757        223.0882
2017    1       5       1.568289        221.2589
2017    1       6       1.292078        203.8679
2017    1       7       1.217227        197.872
2017    2       0       1.079384        185.2459
2017    2       1       1.01524         179.2527
2017    2       2       1.016556        179.2452
2017    2       3       1.120035        189.2472
2017    2       4       1.287861        203.3385
2017    2       5       1.507871        218.1312
2017    2       6       1.376148        210.2008
2017    2       7       1.276435        202.9303
2017    3       0       1.286443        203.0653
2017    3       1       1.137858        191.4198
2017    3       2       1.017169        180.5524
2017    3       3       1.037622        183.0717
2017    3       4       1.412361        213.681
2017    3       5       1.62809         226.8815
2017    3       6       1.608972        226.2661
2017    3       7       1.447475        216.6639
2017    4       0       1.460606        217.5002
2017    4       1       1.374278        211.9427
2017    4       2       1.304253        207.2126
2017    4       3       1.516217        220.8927
2017    4       4       1.630412        227.582
2017    4       5       1.448709        217.4475
2017    4       6       1.539159        222.8503
2017    4       7       1.264524        204.0629
2017    5       0       0.739418        149.2582
2017    5       1       0.5619071       123.0687
2017    5       2       0.5289304       118.0054
2017    5       3       0.4842648       110.9877
2017    5       4       0.5951716       128.6782
2017    5       5       0.6824317       141.0167
2017    5       6       0.7108445       144.7005
2017    5       7       0.7048681       144.0691
2017    6       0       0.7404482       148.9837
2017    6       1       0.7747587       153.3101
2017    6       2       0.7821864       154.3926
2017    6       3       0.8075246       157.7582
2017    6       4       0.8756142       165.9557
2017    6       5       1.069506        185.7201
2017    6       6       1.290463        204.1665
2017    6       7       1.438814        214.4696
2017    7       0       1.435179        214.1651
2017    7       1       1.471845        216.0275
2017    7       2       1.273398        201.2714
2017    7       3       1.11111         187.8217
2017    7       4       1.159939        192.4829
2017    7       5       0.8736434       164.6579
2017    7       6       0.8794876       165.8795
2017    7       7       0.790895        155.3631
2017    8       0       0.7623883       151.58
2017    8       1       0.7458165       149.0123
2017    8       2       0.6300852       132.3421
2017    8       3       0.6156256       131.1697
2017    8       4       0.6167568       131.6286
2017    8       5       0.747669        149.3391
2017    8       6       0.7824986       153.7957
2017    8       7       0.6850251       140.4411
2017    9       0       0.6751687       139.2585
2017    9       1       0.6431518       134.5444
2017    9       2       0.6517131       134.9994
2017    9       3       0.7114449       142.5211
2017    9       4       0.9074508       165.3851
2017    9       5       0.7889928       153.264
2017    9       6       0.7683648       150.9282
2017    9       7       0.7917789       154.0875
2017    10      0       0.6863766       140.9952
2017    10      1       0.6767082       139.2984
2017    10      2       0.7027402       141.5324
2017    10      3       0.717936        143.7912
2017    10      4       0.6874206       140.1568
2017    10      5       0.7082541       143.2217
2017    10      6       0.7992247       155.3974
2017    10      7       0.7137631       145.2213
2017    11      0       0.7145822       145.5137
2017    11      1       0.8152406       157.7566
2017    11      2       0.7714893       152.3692
2017    11      3       0.7588859       151.0115
2017    11      4       0.7775149       153.5199
2017    11      5       0.8104178       157.3584
2017    11      6       0.7490126       149.4195
2017    11      7       0.6997579       142.6476
2017    12      0       0.6749564       138.8712
2017    12      1       0.6535292       135.9021
2017    12      2       0.6545457       136.6431
2017    12      3       0.6601812       138.3362
2017    12      4       0.7485917       150.6736
2017    12      5       0.9678878       175.4666
2017    12      6       1.117142        188.5923
2017    12      7       1.140093        190.1524
2017    13      0       0.8908272       165.6569
2017    13      1       0.7015413       143.2078
2017    13      2       0.7916729       155.3338
2017    13      3       0.8555636       163.2785
2017    13      4       1.011607        180.8224
2017    13      5       1.08676         187.2069
2017    13      6       0.8044274       156.8817
2017    13      7       0.7632501       151.5065
2017    14      0       0.7012175       143.4645
2017    14      1       0.6759274       139.837
2017    14      2       0.5515467       121.4526
2017    14      3       0.4626996       106.9214
2017    14      4       0.4548375       105.677
2017    14      5       0.3798083       91.95304
2017    14      6       0.2783082       71.60134
2017    14      7       0.1657992       45.69288
2017    15      0       0.3534948       84.6821
2017    15      1       0.3547724       85.59006
2017    15      2       0.2499083       65.12559
2017    15      3       0.2204811       58.60823
2017    15      4       0.2020316       54.45793
2017    15      5       0.1869035       51.25684
2017    15      6       0.1724584       47.73485
2017    15      7       0.2004884       54.33999
2017    16      0       0.2466382       64.71444
2017    16      1       0.2587649       67.28037
2017    16      2       0.1752012       48.94328
2017    16      3       0.1758852       49.29286
2017    16      4       0.1603651       45.22998
2017    16      5       0.1757675       48.68728
2017    16      6       0.188341        51.64279
2017    16      7       0.1939869       52.96571
2017    17      0       0.1968761       53.56002
2017    17      1       0.2036056       55.03688
2017    17      2       0.2004468       54.44846
2017    17      3       0.1961563       53.76678
2017    17      4       0.225443        60.09826
2017    17      5       0.2506556       65.51683
2017    17      6       0.2466432       64.67395
2017    17      7       0.2132203       57.5499
2017    18      0       0.1880124       51.9772
2017    18      1       0.1799687       50.13398
2017    18      2       0.1867812       51.78396
2017    18      3       0.204238        55.71038
2017    18      4       0.2468792       65.02912
2017    18      5       0.273163        70.49518
2017    18      6       0.2796355       71.85354
2017    18      7       0.2583377       67.28304
2017    19      0       0.2609623       67.91039
2017    19      1       0.2702159       69.78464
2017    19      2       0.2758358       70.85637
2017    19      3       0.2853853       72.93189
2017    19      4       0.3161502       79.31098
2017    19      5       0.3557702       86.88834
2017    19      6       0.3893024       92.88395
2017    19      7       0.4076509       96.31641
2017    20      0       0.4454528       102.944
2017    20      1       0.4829742       109.0667
2017    20      2       0.4735315       107.1811
2017    20      3       0.4482672       102.6845
2017    20      4       0.5114581       114.121
2017    20      5       0.5828197       125.9802
2017    20      6       0.6792932       139.7808
2017    20      7       0.7510422       148.6578
2017    21      0       0.7456957       148.0863
2017    21      1       0.7483644       148.7027
2017    21      2       0.7215656       144.8341
2017    21      3       0.7266775       145.3213
2017    21      4       0.7488125       148.7665
2017    21      5       0.7844232       153.4261
2017    21      6       0.7638002       150.4762
2017    21      7       0.8598194       161.8097
2017    22      0       0.8438014       159.5916
2017    22      1       0.7667213       149.6149
2017    22      2       0.5699303       122.3752
2017    22      3       0.4999865       111.6581
2017    22      4       0.4464492       102.9047
2017    22      5       0.3881337       92.33679
2017    22      6       0.3774568       90.39044
2017    22      7       0.3944507       93.14726
2017    23      0       0.5023792       112.409
2017    23      1       0.6024596       128.8009
2017    23      2       0.5751004       124.5892
2017    23      3       0.5114734       114.3919
2017    23      4       0.4818022       109.847
2017    23      5       0.5011451       113.0585
2017    23      6       0.4941769       111.7521
2017    23      7       0.5036628       113.3012
2017    24      0       0.531495        117.9207
2017    24      1       0.5091606       114.2652
2017    24      2       0.5588244       122.4006
2017    24      3       0.5857605       126.9369
2017    24      4       0.5683439       124.4379
2017    24      5       0.5358087       119.2627
2017    24      6       0.4283948       100.9972
2017    24      7       0.3795712       91.81117
2017    25      0       0.4062845       96.27346
2017    25      1       0.3759751       90.55018
2017    25      2       0.2988402       75.98457
2017    25      3       0.2244547       60.56731
2017    25      4       0.2228784       60.25346
2017    25      5       0.2261331       60.94579
2017    25      6       0.2373902       63.22885
2017    25      7       0.2551149       66.92838
2017    26      0       0.2276851       60.65127
2017    26      1       0.2301938       61.15652
2017    26      2       0.2568176       66.86502
2017    26      3       0.2941371       74.68677
2017    26      4       0.3184657       79.80361
2017    26      5       0.3497626       85.82312
2017    26      6       0.343625        84.43163
2017    26      7       0.3031553       76.22899
2017    27      0       0.3124847       77.72657
2017    27      1       0.3345354       81.91652
2017    27      2       0.3210205       79.44556
2017    27      3       0.3237793       80.24712
2017    27      4       0.3677025       88.94486
2017    27      5       0.455603        104.4044
2017    27      6       0.4858592       109.7573
2017    27      7       0.4216607       99.06737
2017    28      0       0.4226868       99.20443
2017    28      1       0.4129098       97.07399
2017    28      2       0.446874        103.4262
2017    28      3       0.4844352       110.4931
2017    28      4       0.5399224       119.9992
2017    28      5       0.6753825       139.1701
2017    28      6       0.7379342       147.4262
2017    28      7       0.6830767       140.1594
2017    29      0       0.6700301       138.2298
2017    29      1       0.7140798       144.3116
2017    29      2       0.8188223       159.2357
2017    29      3       0.8049404       158.087
2017    29      4       0.90931         170.1867
2017    29      5       1.05243         184.4349
2017    29      6       1.006216        179.5919
2017    29      7       0.867774        164.9632
2017    30      0       0.8152984       158.5256
2017    30      1       0.8927792       168.346
2017    30      2       0.9028798       169.9847
2017    30      3       0.7860688       156.0965
2017    30      4       0.8384012       162.2201
2017    30      5       0.9671781       175.8958
2017    30      6       1.016877        179.8835
2017    30      7       0.87298         164.0003
2018    1       0       0.2953366       73.92472
2018    1       1       0.2611261       67.1907
2018    1       2       0.2474935       64.44163
2018    1       3       0.2903351       73.52507
2018    1       4       0.3118648       77.77114
2018    1       5       0.3380545       83.21198
2018    1       6       0.3637227       88.06876
2018    1       7       0.3846266       91.88547
2018    2       0       0.3757542       90.34947
2018    2       1       0.3595372       87.25525
2018    2       2       0.3632564       87.98784
2018    2       3       0.3337611       82.32722
2018    2       4       0.396451        94.49319
2018    2       5       0.4669672       107.1703
2018    2       6       0.4900003       111.2204
2018    2       7       0.4901098       111.2033
2018    3       0       0.5024162       113.0895
2018    3       1       0.4986542       112.2391
2018    3       2       0.4712075       107.3341
2018    3       3       0.4888917       110.741
2018    3       4       0.5736469       125.0755
2018    3       5       0.674943        140.3065
2018    3       6       0.6690156       139.5333
2018    3       7       0.6310203       133.5665
2018    4       0       0.6336227       133.8664
2018    4       1       0.6764209       140.3402
2018    4       2       0.6371767       135.2493
2018    4       3       0.5771451       125.7129
2018    4       4       0.6078412       130.1577
2018    4       5       0.5439652       120.3237
2018    4       6       0.4641901       107.2412
2018    4       7       0.4593684       106.2888
2018    5       0       0.5030477       113.1376
2018    5       1       0.4706646       107.541
2018    5       2       0.4701598       107.1764
2018    5       3       0.4759076       108.0825
2018    5       4       0.4116609       97.33272
2018    5       5       0.3323821       82.78513
2018    5       6       0.2365936       63.03665
2018    5       7       0.129661        38.30699
2018    6       0       0.1130302       33.80031
2018    6       1       0.1565704       44.53672
2018    6       2       0.2477537       64.78877
2018    6       3       0.2851103       72.90077
2018    6       4       0.2227085       59.87283
2018    6       5       0.203051        55.72182
2018    6       6       0.1912014       52.98218
2018    6       7       0.1537643       44.28723
2018    7       0       0.1419577       41.42541
2018    7       1       0.140499        40.94778
2018    7       2       0.1442478       41.74478
2018    7       3       0.1479105       42.45543
2018    7       4       0.1635279       46.22525
2018    7       5       0.1829543       50.82999
2018    7       6       0.1852204       51.34526
2018    7       7       0.1543757       44.0744
2018    8       0       0.1326915       38.84198
2018    8       1       0.1373446       39.89916
2018    8       2       0.1405766       40.68427
2018    8       3       0.1561982       44.55045
2018    8       4       0.177548        49.62332
2018    8       5       0.1994861       54.59497
2018    8       6       0.2098523       56.91382
2018    8       7       0.2094348       56.93266
2018    9       0       0.2081433       56.6431
2018    9       1       0.2061477       56.16725
2018    9       2       0.2057407       55.99245
2018    9       3       0.214857        57.99492
2018    9       4       0.2665941       69.29517
2018    9       5       0.303353        76.73854
2018    9       6       0.3063326       77.174
2018    9       7       0.3044031       76.7551
2018    10      0       0.308309        77.17724
2018    10      1       0.3101657       77.28042
2018    10      2       0.2862615       72.50553
2018    10      3       0.2764214       70.74211
2018    10      4       0.2997145       75.90878
2018    10      5       0.3130125       78.56477
2018    10      6       0.3215441       80.08584
2018    10      7       0.3605697       87.90647
2018    11      0       0.4379667       102.1034
2018    11      1       0.4709131       107.7209
2018    11      2       0.403793        95.93343
2018    11      3       0.4233764       100.0973
2018    11      4       0.4794466       109.8867
2018    11      5       0.5321526       118.0766
2018    11      6       0.6348289       132.7306
2018    11      7       0.6437003       133.6305
2018    12      0       0.6043176       128.448
2018    12      1       0.5896463       126.3275
2018    12      2       0.5361224       117.9053
2018    12      3       0.5003588       112.0897
2018    12      4       0.5121616       114.3017
2018    12      5       0.5311727       117.357
2018    12      6       0.5731603       123.2266
2018    12      7       0.4935877       110.5544
2018    13      0       0.5205813       115.5735
2018    13      1       0.5280807       116.8336
2018    13      2       0.4966587       111.9285
2018    13      3       0.4511347       104.1592
2018    13      4       0.4731063       108.0269
2018    13      5       0.5227286       116.2171
2018    13      6       0.5313274       117.3154
2018    13      7       0.4938884       110.8202
2018    14      0       0.4331159       100.3736
2018    14      1       0.3992662       94.12017
2018    14      2       0.3914673       92.78982
2018    14      3       0.4055091       95.74949
2018    14      4       0.4495743       103.9588
2018    14      5       0.4882429       110.3561
2018    14      6       0.5016931       112.4092
2018    14      7       0.481586        108.9478
2018    15      0       0.470736        107.1646
2018    15      1       0.4646549       106.0837
2018    15      2       0.4961917       111.9796
2018    15      3       0.4814767       109.7123
2018    15      4       0.5425759       120.063
2018    15      5       0.6980854       142.1172
2018    15      6       0.7090205       142.9445
2018    15      7       0.5979793       127.3353
2018    16      0       0.6361669       133.5639
2018    16      1       0.6540425       136.3257
2018    16      2       0.6662945       138.0925
2018    16      3       0.67742         139.7808
2018    16      4       0.7077541       143.8875
2018    16      5       0.759013        150.1711
2018    16      6       0.821962        157.5844
2018    16      7       0.8380339       160.0776
2018    17      0       0.8868923       166.396
2018    17      1       0.8974434       167.7066
2018    17      2       0.7858405       153.5436
2018    17      3       0.6817198       140.5409
2018    17      4       0.6819773       141.1632
2018    17      5       0.8044225       156.3834
2018    17      6       0.9577814       173.5667
2018    17      7       0.883416        166.2939
2018    18      0       0.8605126       163.5365
2018    18      1       0.8722927       164.5591
2018    18      2       0.8229199       159.0177
2018    18      3       0.7986708       156.1258
2018    18      4       0.8464797       161.8113
2018    18      5       0.9149693       169.7661
2018    18      6       0.9974571       178.23
2018    18      7       1.030082        181.2696
2018    19      0       0.9369734       172.0102
2018    19      1       0.8009327       156.249
2018    19      2       0.696208        142.2176
2018    19      3       0.6411438       134.4252
2018    19      4       0.6002217       128.8384
2018    19      5       0.6633382       137.6367
2018    19      6       0.695136        142.2798
2018    19      7       0.6493792       135.6246
2018    20      0       0.7492735       148.3334
2018    20      1       0.6807533       137.4391
2018    20      2       0.7501781       145.9429
2018    20      3       1.014795        177.7237
2018    20      4       1.113041        187.5791
2018    20      5       0.9319787       169.1097
2018    20      6       0.6250042       129.6576
2018    20      7       0.5229365       113.9519
2018    21      0       0.4177409       96.40697
2018    21      1       0.4119848       95.95175
2018    21      2       0.4674839       106.1433
2018    21      3       0.5420641       119.2823
2018    21      4       0.524131        116.1663
2018    21      5       0.5388169       118.3025
2018    21      6       0.5064133       112.5909
2018    21      7       0.5293515       116.7382
2018    22      0       0.5691871       122.9904
2018    22      1       0.5695086       123.1776
2018    22      2       0.6897641       142.038
2018    22      3       0.6912713       142.796
2018    22      4       0.8691016       164.1261
2018    22      5       1.205409        195.9273
2018    22      6       1.283773        203.527
2018    22      7       1.181948        193.589
2018    23      0       1.050048        181.9473
2018    23      1       0.9531317       172.0424
2018    23      2       0.8524147       160.8281
2018    23      3       0.9070704       168.4739
2018    23      4       1.110836        188.8883
2018    23      5       1.307011        205.3669
2018    23      6       1.168665        194.4149
2018    23      7       0.9240398       170.4428
2018    24      0       0.8182144       158.8435
2018    24      1       0.8147323       159.2106
2018    24      2       0.8160362       159.3235
2018    24      3       0.7889645       155.8505
2018    24      4       0.9196787       170.7655
2018    24      5       1.078371        186.9145
2018    24      6       1.016713        180.4536
2018    24      7       0.9513617       173.5546
2018    25      0       1.075606        185.6273
2018    25      1       1.002546        177.4783
2018    25      2       1.01533         179.4345
2018    25      3       1.152855        192.6845
2018    25      4       1.719695        230.3271
2018    25      5       1.530318        220.3344
2018    25      6       1.40812         212.9071
2018    25      7       0.9963331       179.2103
2018    26      0       0.8361068       160.0331
2018    26      1       0.6880033       141.1715
2018    26      2       0.7398546       147.5458
2018    26      3       0.840507        160.6279
2018    26      4       0.9767257       177.0977
2018    26      5       1.236543        201.6363
2018    26      6       0.9151532       171.2005
2018    26      7       0.8008122       157.7351
2018    27      0       0.8024432       157.8181
2018    27      1       0.6894998       142.2955
2018    27      2       0.6348936       134.0912
2018    27      3       0.6613744       138.6934
2018    27      4       0.6407783       136.2766
2018    27      5       0.5560763       123.0909
2018    27      6       0.3848236       93.64281
2018    27      7       0.2864667       73.75289
2018    28      0       0.2958973       75.20158
2018    28      1       0.3421485       84.58804
2018    28      2       0.3139891       78.80976
2018    28      3       0.4002955       96.07231
2018    28      4       0.403574        97.07115
2018    28      5       0.4324895       102.0737
2018    28      6       0.3799439       91.74815
2018    28      7       0.3715379       89.91316
2018    29      0       0.4925906       112.4299
2018    29      1       0.5698603       125.1668
2018    29      2       0.6167765       132.2157
2018    29      3       0.6272244       134.0965
2018    29      4       0.7039516       145.7264
2018    29      5       0.8189851       160.4134
2018    29      6       0.9251773       172.3249
2018    29      7       0.9289103       171.8613
2018    30      0       0.8670967       164.2863
2018    30      1       0.8056823       156.8394
2018    30      2       0.8511028       163.3103
2018    30      3       1.019192        183.4561
2018    30      4       1.134038        194.7538
2018    30      5       1.406964        215.3976
2018    30      6       1.27355         204.475
2018    30      7       1.220814        198.4902
